event,eeg.af3,eeg.f7,eeg.f3,eeg.fc5,eeg.t7,eeg.p7,eeg.o1,eeg.o2,eeg.p8,eeg.t8,eeg.fc6,eeg.f4,eeg.f8,eeg.af4
,0.7048484944953359,1.1470333013274696,-1.3987178949762673,1.6658595518409298,5.459369371852781,0.19149168757212023,-0.6283771559668849,-1.4549450029149842,0.5832826688662361,17.806048297131827,-5.893549162864234,0.07871693095134617,5.829688033876334,-0.7378358249256395
,0.7899438196171703,0.6200041340830557,-0.07373374309334381,-2.208328067528129,0.5454411457097011,-0.05779265728584727,-1.1387291141449207,-2.6365831515774487,0.27127509791547133,-4.940821229479766,2.506719750745387,-0.0577326357616484,10.960520424194778,-0.1550945091142055
,1.5211470869687909,-0.15464964720818875,0.354113866534671,-1.40449162201143,-5.734467855047043,-0.4083899842558579,-1.5614262929907154,-1.1210372245888816,0.19544452826319933,-6.382706391811352,4.453840520097071,0.012353689553416241,8.169162013409993,0.17610526123862655
,1.549242075478148,-1.5314936439550777,0.3772525696402341,-1.17928640891542,10.730887625330428,-0.20974246359451681,-2.204236551505283,0.14108814363763356,-0.0608861769185735,19.011320328620666,-1.6385104460394635,0.18554801162261644,4.524427690051351,-0.051276510167212644
,-0.05248633194108096,-1.7966102808967594,-0.002162219771100117,-2.434353385400367,14.410484710900397,0.41190152073543546,-3.4395125153466886,-0.11441145507776537,-0.21968323927920747,32.56255719356435,-4.863202919253974,-0.022356517534851753,6.763129117270259,0.7083519191893444
,-1.1044047291696633,-2.5423801720981336,0.4707352720088316,-1.0475875814817606,1.9428401450568382,0.06950100928897027,-1.888749535231746,-0.10873738279349203,-0.15513693616269497,-2.524407128527519,-6.607124101620322,-0.0809404350985576,4.326380655727656,0.7643622010292569
,0.9341811772601755,-1.6784496738338126,0.12260430021806108,0.23243572850937066,-7.909219823252784,-0.3008242801905883,0.11333606427119423,0.15799598602963802,-0.1036723406120964,48.99532356749499,-4.163439819384003,0.15779861655974192,1.1372836088800797,-0.5102737672686409
,2.717947739717619,-1.5159638944341307,0.12949551271740944,-1.3290734739135746,-0.47546285095637775,-0.32689281944943643,0.7247152083184225,0.8571964385854113,0.31302291321573544,63.87542316387993,-2.44675497195419,-0.1976185627366307,-0.8587843551216127,-0.46606673253346187
,2.9817914387534543,-2.8776117660142337,0.5348698992988569,-1.2191902324233197,17.3043162591126,-0.09799347737756203,-0.061412763976077936,0.9273991922518083,0.8082809598723313,32.952156704663395,-3.447515409072704,-0.4744744635187053,-1.1853414864466612,-0.010455193943947708
,0.6295186898780769,-1.7037185906931036,0.4380250214057488,-4.423120135619841,20.55747667787173,-0.3627225236212783,-0.9901630269558085,0.778727924187169,2.2800893700429254,17.252316794784104,-2.729060460204598,-0.2013008728624883,-2.7364619568266955,-0.22355994945661894
,0.04305347314868713,0.8083585624552727,0.5175071247555344,-3.354007254030147,5.033183322244968,-0.25494409316934147,-1.9467746764856473,0.8059201452673699,1.9207686734660485,-18.19111499591518,-0.5502593228130462,0.3742570978125014,-1.8589181158673231,-1.0694298294241773
,0.6909140678790578,2.118656074531009,0.7251916699678794,-2.4028003217378937,14.263440053516254,0.16191007632679955,-0.9883528151353577,1.1523018282484303,0.2090116238926922,-18.243354469586812,-0.6047702113196167,0.24765791257221503,2.307689580678449,-0.8927050989538269
,1.0830170231643121,2.0967787134969758,0.21753623235463349,-1.5495841257138319,14.753426142961171,0.06229340979499995,0.2957793204262476,0.5075699857864845,0.21561582588245493,-13.96751990326669,1.2083158319435556,-0.06211871571672838,1.7632221926022495,-0.5057151443209504
,2.414620248488707,3.400226886324185,0.545264364655712,-2.4885496065485677,1.8508966924912778,-0.20304305900493616,0.3304154211014674,1.1234594030999059,1.195888587145905,27.646896387558453,-3.8341576626155853,0.21181986546712542,6.961057431411389,-0.19206192546204406
,0.8338699484582001,-0.5199656845209485,0.17373199501554373,-2.0641146816783773,4.077786003820821,-0.3950749612444228,-0.104739012470311,1.3858257337253563,-0.005598855703721637,30.272215919822994,-0.13394190197909864,-0.46651099045005767,2.572701715163633,0.010177755904268108
,0.12639349422188365,-1.1425634786101462,0.11268669209434133,0.37240509323000115,8.895438736317585,-0.24147457752573104,-0.2781805908970471,0.3458956860042929,-0.21898192862454394,40.91577165109982,-1.4054511217694665,-0.3490398995707152,1.18467285180566,-0.28872603762578153
,0.590235543755413,1.362892220376428,-0.40453595149698657,1.3646798163870337,0.17599959877715174,0.06384589119933749,-0.5459379314066547,-0.02463703390366147,-0.5095579135160958,40.90829571260984,0.3733376209254458,0.16760797112738532,0.14961619473727306,-0.49645300633925027
,-0.16826672433662215,-0.7995511614607108,-0.6882869507587728,2.5540010480369455,-2.060164387660362,-0.011305479319494318,-0.09068533923727203,0.6012491594388253,-0.4134555917097892,46.35992306949149,-2.996268980428983,-0.05692614696814213,0.5621802128571131,-0.3214182976114045
,0.43091831239413136,-0.4841830708666944,-0.5005838489256941,3.4841286856030997,5.473730703763321,-0.30138495955779293,0.7462794662056361,0.14977403235558562,-0.5054764875945555,50.88617649707566,-1.2082063751255332,-1.0389457345378097,2.2447373147160294,-0.43981428765730557
,1.7637141451992784,0.14508692175933705,0.09932440469783697,0.5117712596148645,13.34457543361473,-0.0455411972404231,1.1664598351827002,1.2282611188707804,0.09532388233322805,40.35099184598686,-4.868412422472656,-0.51174429897422,2.842462355402302,-0.8501932823592887
,0.16715729763575665,0.338704768905649,-0.15431998912282044,4.173994211738625,6.512333705511879,0.4304373172529695,1.8437052146457902,0.8704956516564174,0.04604080429873338,23.294590518520973,-7.261282199184115,0.29967037724242257,4.507629947106398,-0.741879946047767
,0.030895410789557463,-0.3761205080911907,-0.6643454328662047,2.5522561385312312,5.363348581191855,0.45028567525393803,0.619146708945307,0.2993980798731516,-0.0633961897959791,36.06161094965918,-7.672364829065705,-0.1525885646400962,2.830972086100391,-0.5392808982145069
,-0.003773436726012938,-1.2092897140248327,-0.7072816985989863,-1.2803012183372098,9.051075624945936,0.4456827156699794,-0.5414361776649363,-0.14242615041174256,0.1370338028583918,68.73363261074215,-4.652826257123508,-0.014534747037414057,-2.5984899605543927,0.34518261101598735
,-0.4041894549401098,-0.18781650323072538,-0.02111579826794903,0.35065682534279036,18.61454239080881,0.31546394420676865,-1.2103560405698413,-0.07881495599692771,-0.5274643052327486,39.10154959304397,-8.449139908369073,0.47217746024990753,-2.2977558451684854,0.03683741700769822
,-0.5528524950634395,-1.0455294678029707,0.5565977470112555,1.247515014277651,20.611131022296767,-0.023504725000719547,-2.660831607826955,-0.4834604408690538,-0.9750750018852866,-16.299925435733496,-13.089785921622134,0.4839112311303011,-0.3314730492060015,-0.2472540128880717
,0.9898354514728631,-3.1277326361730395,0.8451353426052639,-0.4944539193868749,-1.5426060614804415,-0.13287856579959437,-1.7243290573767585,0.013585818341216799,0.08834520017630572,-32.34342851827568,-4.456438249421013,-0.24626787443295123,2.7710593704326287,-0.2437755754153981
,1.4343606690644977,-2.0070098360969757,0.2325734239693312,1.0365404379357677,4.321937135756916,-0.2647449274413458,-0.6760475632782982,0.2943371506715037,0.22425409307576935,-8.218500965462717,1.7347091276857813,-0.27346699161162435,2.6346353924591184,-0.6154741868559832
,1.7425014975173483,-0.03796370401820298,0.3212814862370272,3.3202052290969695,12.604121909902085,0.00025935779532093735,-3.1275160980924257,0.23281384464815957,0.15592100909283085,19.870961678772378,4.448834282271482,-0.32576864735471706,0.031202979356196387,0.4644760143387151
,0.1719989559883033,-0.4909773124235791,-0.6223319153968343,1.4557768226352683,21.26706291406082,0.04176523947275429,-3.0713503561743574,0.7913153375813163,0.7550411995172008,-19.8960620480144,0.15365985741341226,-0.1321332796398415,-0.10978675010009202,0.3377963413929656
,-0.28886160006215145,-0.9795913623032607,-0.7934757730861419,-2.236140224238896,13.529930189757913,-0.09360697807084066,-0.7929471776688404,-0.05521775358143278,-0.6873530719982226,7.768327489844581,-4.074787786521125,0.10080126671966319,-0.01616846842624179,-0.7086655530287717
,0.9953146223364139,0.3073256990334613,-0.7173476279641925,-2.768112883359713,-1.8842942720354583,-0.16024446306902834,0.5962681905659054,-0.6358164728525846,-1.713342479291258,35.66893465384244,-3.548500779835769,-0.12728899204818853,2.650944858810517,-0.4987968462949316
,0.7480882089065475,0.23602702184034147,-0.462736179402299,-5.344700060566628,1.863381940113984,-0.12120939919086075,-1.1909962071362457,-0.22947499276372008,-1.3985560869159452,23.82573253078057,2.790382235672583,0.1106002522616712,2.3912180231627005,-0.7113117745058898
,0.42935652382845263,-0.5962437939741675,0.060893457526117384,-4.638714664417743,5.840411779595264,-0.1424608877624225,-2.5471717609219784,-0.026530191662848725,0.3100085360456593,-12.659713190394069,4.762369081644387,0.10622458519052856,2.5760863030639225,-0.2898435945747911
,-0.5198223368762488,-0.15452964137452843,0.11162864539734059,-0.6222208012793656,15.999142335368841,-0.4258827813112986,-1.6408608317892486,0.27279426134365115,0.6040296237102325,-12.540307486046345,-1.6542874415554494,-0.14051623347319345,-1.1615362475431847,-0.7074823642028253
,-1.1056824909879786,-0.08696340669572092,0.07167471190645416,-0.24540764901901668,18.341558489538944,-0.5727026753020824,-1.5624355589579426,-0.849728468495802,-0.36677647271826275,25.29449249137767,-3.984083565567182,-0.1829072991538272,-1.0721911050432438,-0.052696925763752754
,-2.6465843021224527,-0.30915462228115514,0.6842943478400425,2.3076602079940916,10.558976957645065,-0.6027043550628362,-1.4560937616867118,-0.5937164530871942,-0.47126042066072416,22.520406521486933,-2.6622844945565936,-0.0819307046427161,-0.32836856871250064,0.22798280610378652
,-3.281397210005458,-1.1859867957403152,0.5717079900493569,2.151548785614495,1.6528060398576103,-0.6579339988051337,-0.9744950156284048,-0.6967853278922604,-1.244882467678657,6.2176937395539,-1.8355299197631405,-0.33144105417159897,1.2217752946910148,0.6462769072515977
,-1.5872651004913572,1.1699801507749712,-0.23837628060922866,-1.8000685483208796,-4.166738045334928,-1.0897402082763579,-1.178179154286809,-0.09352850625356292,-0.9000177176790182,48.827607112301344,-3.1474670534513622,-0.05365092109617876,-0.09287555662754735,0.9196928884807892
,0.4589731169026082,1.1128215159397639,-0.12932037782688535,0.49673125877866303,-6.317018281472802,-0.8147711915166955,-0.8140095591763448,0.6338382724258952,-0.7000685477157195,27.702638064268985,5.890266377383332,-0.15731825767440255,0.4819756285490049,0.5613241811175712
,0.9152185589153049,-0.8605848811237362,0.1213882293988364,-0.08748302476688664,-3.669196275990112,-0.1829338876639644,-1.0400863388499144,0.1658136050787583,-0.4740967450292074,35.04905513235759,6.000769913034506,0.1346209719310349,2.348493356200475,-0.024056702474287015
,0.3289372506876106,0.4583426198219672,-0.2879852236808212,-5.497037629051569,-19.716183648746522,-0.4113368252548865,-1.8142752996314702,0.31689533247466645,-0.17422272922832097,-3.6886783221693387,-1.441077475296255,0.293597561999015,2.3150626638042766,-0.01162491577045723
,-0.3766087760074362,2.822758660703022,-0.47773264091310613,-4.243116791869052,2.104827505845607,-0.5251733345178672,-2.1609227492634266,0.48275691244919094,0.6290319342514598,-63.36528747583885,-3.760569651242544,0.04788917197755228,0.1803378778226745,0.5896428839061422
,0.3905514101754108,0.2520207414742883,0.07357468720957333,-3.0413028366926884,6.096016242238956,0.034655621718465875,-1.5660651700395045,0.9894823158979323,-0.26207967205700433,-24.794969776321828,2.3509374840274226,0.2609777168688626,-2.04331566635359,0.01173998787553842
,-0.5109201990914085,-1.349981993967707,-0.8163954468364275,-0.42736879311785086,5.4689454791947165,-0.36076216614315126,-1.5060979048767928,0.16716769237437207,-0.5901666288657713,6.2198830256499775,4.531537754269147,0.11944819921080026,-0.0619142364748718,-0.09796764252259613
,-0.0690464348327585,-0.30986325559646866,-0.753275965484032,-1.7365426966416762,-3.5248593509036037,0.01613294338355616,0.16843156544957202,0.4137286765642269,0.4340265818820862,0.8463558212074535,3.61984270067566,-0.4033526542649737,0.17324858215125302,-0.3870089022133863
,0.5228962534538482,-0.5956898735332612,0.2103547659714527,-0.4743023367651105,-17.423536574054733,0.4433289865999346,0.6329788149104354,0.9624972055404397,1.7310062711514942,1.253020946543464,0.34140095628513817,-0.3364863749379018,0.07706237060331124,-0.08579110876407302
,-1.1913637555089789,-2.3407448690391566,-1.011713761773441,1.450716217654861,-22.234119242948946,-0.2613458638337837,-0.6703831699175419,0.26363111939975076,0.4531093610860745,-58.237332997896345,-1.7278638681600331,0.5259384786338158,1.680797977749167,-0.45349623807699285
,-1.514423882380712,-4.364321965172401,-1.2946909007492369,3.0214532383993102,-1.2363170495393354,-0.35964534534978837,-0.5732727118086355,0.026148819928146532,0.33673639942002975,-36.872909050040185,-4.9197473862477885,0.5827466742399101,-3.986986955737871,-1.4769846832582751
,-0.7450574826590831,-3.317900035865456,-0.16427455741692096,2.2466594089054053,-16.748763219553833,-0.024279182309213877,-0.020298921463712524,0.6325743305539147,1.2216414783563225,9.844349938431057,-6.2756940006022806,0.3985396758007459,-5.097103959139076,-2.001317164070392
,-0.7848874163506544,-3.277230891278686,-0.2445383242044875,1.7017266337809185,-9.922152610208926,-0.4113380342034699,-0.5302231646570407,0.5580144530750677,0.1565522069337995,28.978501166674054,-1.8291829914992983,-0.0975167774149706,-1.6305809224749392,-1.8710328079734018
,-0.31139958403622825,-2.6320592866541466,-0.5353170136096707,0.2790163841958176,4.268013627452695,-0.11746914822585292,-1.0559420958024093,0.23643499001423013,0.0010543667121195972,-31.342797344963362,-0.9547606109937397,0.31700436137238175,-0.7461167695910612,-1.2748008523128045
,0.840920513736017,-2.284425587396961,-0.3845640734118837,1.7302597796398698,-11.069735541551445,-0.31847375666104033,-0.4454740175667303,-0.14871397885313606,0.6049391346306853,-43.117967269853615,1.1916931510070403,0.12364060136714887,1.0390337692128218,-0.4792649587077977
,0.5134121420668509,1.2120970389510348,-0.37393629951295343,1.8920312255130802,-19.360786367597086,0.6565154958466649,-0.4042363060974173,0.6939242832352246,0.599976096424713,-1.970371456628544,2.487760472038883,-0.20748243629150856,3.300760872128335,-0.8740483335121124
,-1.3804900802094278,1.1326514581077638,-0.016145234056997144,3.340323103965492,-10.17249327032007,-0.47052082983398236,-0.5370422153542879,1.0420976030291098,0.539881516253837,13.971905922285092,-3.6482764987583653,0.28979867329441367,1.939495265415975,-1.8894009258507731
,-1.0978682363335845,-1.3157997143117786,-0.04029543992785059,3.5877673354755664,5.453709447491368,-0.7251210948769294,0.41208167642372195,0.32038096724060744,-0.2227718971355672,26.24285499901185,-7.3483042921206,0.2248781203752503,1.337239138286698,-1.447690261173088
,0.9217272997872564,-1.6335412540262448,0.17387169835644906,1.6550671505515286,2.725908601731496,-0.024637944873622752,0.5548032986744069,0.7499668108200458,-0.7029860472008205,5.1356143105384815,-0.31775281158466556,-0.05562318472106986,2.8401431156412147,-0.8118645452000186
,0.15418340640564435,-0.7182602306890937,0.06474169881255892,-0.48436341172414593,11.219805291309125,0.07739319166637285,-0.6755016336375593,0.792098891226546,-0.24372742118013221,-37.07214680809378,-0.6429817620343568,0.0341276433382656,1.4335355124329996,-1.6221305167029936
,-1.877389179710574,0.0376671356222005,0.08425306651092808,-1.9749899116494984,11.935015903857792,-0.14733244627611414,-1.9692253821869392,0.1693847619580754,-0.19064132664037253,-50.311969551860884,-0.4822424558049441,-0.018050516309479677,1.2916474396238096,-0.7052274240814369
,-3.3756987417687934,-0.8934956831165544,0.03125664574023779,3.1108271632013906,-0.7842746785214916,-0.4886322971181593,-2.274290818688871,-0.07737975040670475,-0.05083596017032103,-6.240794957630371,1.7816223186424107,-0.4427669540811927,0.7365182855813043,-1.1067260630080595
,-2.666330022304176,-2.1737074503221225,0.030861907529858335,7.3221953808463365,-16.030842407729846,-0.3044860302133282,-0.7957395524869442,-0.6296239986071808,-0.23505066522842544,45.88045011243606,-5.618609465133564,-0.07392419171638231,1.6689440050216222,-1.6846704024099164
,0.24178660310348352,-1.037545917765769,-0.47753608448873686,3.9542880640957234,4.764156421716506,-0.051710235178945775,-0.20923901536447892,-0.10963876243499106,-0.583123677029275,59.80412228752475,-3.996622106372061,-0.36879060589501955,0.4250638351124794,-2.5308426946167777
,-0.14886712460041515,1.1216844784607902,-0.08908549398490558,0.9976119347454289,13.969158394789423,-0.22278139186777415,-0.3273160429956042,0.25341303599604453,-0.773097859505595,71.93561458936512,-0.8824140122716333,0.023206471129760445,-1.3180821307898127,-2.547765720371157
,-1.3692378367931555,-1.6734449089975656,1.0696899892239675,2.746640474252646,6.627081223483204,-0.7673874437791773,-0.2108424310570805,0.6958207891791308,-0.10821336232000073,32.33677781792194,1.9249515396956542,-0.6918487009683698,-1.419110742209011,-2.4036672475626757
,-0.9623915859706581,-2.3880228324144457,0.15748735898001487,0.4859437247409332,12.682128863473498,-0.8831542397716716,-0.22720172679702955,0.268844479237674,-0.09474668475536492,-4.147937115518531,5.337860788653673,-1.335976608304444,0.8555158512379991,-1.6913892668616992
,-0.36269514352891813,-2.026174195236305,0.431428936606178,-0.3846103052196459,11.34793127062443,-0.38291040492635864,-1.3891865384942648,-0.9789667372928083,-0.41099208479563387,-28.44229763241746,1.237012546363438,-1.0160833206232818,0.6012353719540533,-1.0964144789018644
,0.971415518238683,-2.109770272610483,1.2754589545527082,2.7535652500773704,0.90339271925326,-0.2797115382462511,-1.3126091922944334,-1.2579599771273589,-1.5712204103042646,-13.35939542058475,-1.9696152589948248,-0.6315127155684983,-1.4933100881393642,-2.4457169086560757
,1.185910487435893,-0.12036852453194263,1.256135266067652,1.0585245387255169,4.257115751801084,0.06000006615079612,-0.17378518368154466,-0.36712520404716287,-0.7528010660352599,-22.08597824507362,-1.1731727281084734,-0.18173769730509687,0.18957392192326294,-2.9634909389351187
,0.41539265366334643,-1.6849772970920887,-0.05224907671298018,0.8814194717533101,12.07636713396332,-0.310869788600449,-0.38868338615732967,-0.1018474613466893,-0.46500575349815476,12.728480193281545,1.508582404161915,-0.515547029732721,0.17524429797582175,-1.1762400863485036
,0.3781193352966098,-3.1050421196220093,-0.3610989647694046,1.509979363946161,11.094628819450435,0.21037622062264857,-1.498903783409672,0.10168416449498391,-0.2827199763248373,20.274914867065274,-2.234478817524254,-0.49797453741112313,3.1920817542105047,-0.8803582687792696
,0.9383378265623191,-3.4229708383514086,0.14544962216480828,0.8617516859499105,-1.6591015191543945,-0.3808586243927406,-1.0558863049680882,-0.09214548511673812,-0.5456505646570182,16.15465752453843,2.888661673423683,-0.31121024448324297,4.596732166036248,-1.4700975204417757
,-0.6371175406642584,-1.9338774594794021,0.07751709388056827,1.3960265138026469,-7.521499619331248,-0.4371294327861434,0.3910263512527901,0.1332429641100942,-0.5412507351345627,30.354678853848373,2.9554419144044797,0.08804534119497717,3.722642091704866,-1.4907733002914383
,-0.5520279719607603,-0.8659866902181305,0.29597289888406264,-1.5205875803722935,-10.194372119561521,0.040720825165745114,-2.082985101228591,0.3767378774123594,-0.1480607139771134,40.98283021955675,-1.704845211446138,0.05107314206996324,1.0378556443556066,-1.5107670786336402
,-0.1944415020853726,-0.974847964274288,0.8155044980777332,-1.3921778436131669,3.8612522234215407,-0.0953666587299104,-2.1756678118521493,0.8360240239790295,-0.1086778420344377,-4.996471454253565,-2.0960160598163364,-0.113147684773733,1.5946598268582144,-0.9766222705404219
,-0.25965094421916013,-0.0054857114233367215,0.22766910427154224,-1.8757060808264618,2.5392029134707044,0.23649301856509844,0.40089411484913945,-0.32760779581799243,-0.6143860401717472,3.4238847283705987,-4.898034841067953,-0.33988785324212845,3.290818949505402,-0.21342516051706306
,0.38534053381554234,1.5897644765259409,-0.7571188048324541,-4.291477016553708,0.93627590776273,0.6397617329127716,2.2227974513908464,-0.4629254230969331,-0.020377512724484598,13.173738284578876,-4.73063385854223,-0.2025205009410973,1.0430320969734115,-0.49703599816522404
,0.7393813712387237,1.6510256813196234,-1.1439742563992852,-2.7637454478378762,7.066840294265645,0.756164405671195,2.4268222387727354,0.10414507340879466,-1.4227201904531157,-7.7252161581194825,7.598933149178129,-0.27449168831741516,1.9090198418867987,-1.7106138313215276
,0.2452289572807228,1.4915357657035229,-0.1947676048484557,-5.007208117661161,5.409144566834841,0.311369084791753,1.567158100166464,0.7082595476213934,-1.4645659830196756,-31.375355588908086,4.388585107047965,-0.07646262825638288,5.723746579634053,-2.0723953659169765
,-0.26832327682175144,1.561574631332881,0.04277714558583503,-5.108745542542739,5.155622834569116,-0.04152765034220409,0.49207672934486235,0.17194795067371058,0.08465463902517162,32.82101170042129,-3.340677931878851,0.1468343601930134,5.000239002390078,-1.8505478179558918
,0.7760175012249259,1.6927494446081757,-0.15279482499502883,-1.634623999768499,-2.934746377793083,0.045227573127140895,0.2838708055209121,-0.236280789784474,0.04882610136081718,26.721355358612314,-3.1531559291599507,0.007444366749825358,1.4520196741195537,-2.148153646569582
,-0.35409642286205323,-0.37854440713839543,-0.6287336772239926,-0.47531542136574423,-2.6601313965691693,-0.2195418362694501,-0.947962738317805,-0.442908703246103,0.3423396773388316,-21.99509252828277,1.227039069394948,-0.13095758645884198,0.9001010460562198,-1.5703335576129462
,-1.2894931662500024,-0.16387928082588998,-0.06225457786774908,-0.3421965634812383,5.6566651592993455,-0.03381838737844541,-1.4797879912782468,0.34966247143818674,1.108955905680912,-2.0350356557308484,-1.5365791306290346,0.30245963881034077,3.806244885652727,-2.0309696596704945
,-0.6211453052305603,1.0355143161472251,0.2754197658890828,-0.894016021157701,-6.35411931674685,0.1783390214012423,-0.4228757793117961,0.49676348606740306,0.4246142713439639,-8.569352321176765,-3.1939510738042367,1.3160111324720662,5.108333576666824,-2.978749287275349
,0.13746475326902619,-1.145569327642397,-0.08104965755455952,-4.058520458337241,-19.85515401641681,-0.167924207976099,-0.24412674605682885,-0.7039596777276836,-0.3401175574389516,-27.045400140439053,0.4297275888950111,-0.03840890053394297,2.252665034405384,-1.7327072962593437
,0.19747757680204645,-1.3414505105038022,-0.06400594219983193,-1.6815149615246308,-13.693060725584854,-0.07811483386748262,1.1012566363242613,-0.334283781894046,-0.5279047850806385,-25.870313523887518,-4.54599962070321,-0.4583573503673534,3.117928062805521,-1.243393686261277
,0.0015131697764356438,-0.5101352609174049,-0.9756948217064668,-0.8480085467899571,-9.259096874417352,0.1904014033335243,1.196996085590199,-0.3124602853502912,-0.6278403502483217,-29.12486562733788,-4.581231894088331,-0.566205385877746,2.5719410654565324,-2.0817077286453576
,-0.6835068150876646,-0.9594182137535587,-0.8347641601127833,2.661971224209556,-4.5481147118905545,0.35582319809888474,0.7880970411368792,-0.6423648636965285,-0.5166010387630814,7.631272917863717,-5.216445436815182,0.034520150341638925,-1.1135715722993598,-2.4889943146620803
,-1.5564569157543722,-1.3583075612508664,-0.05738002824879197,3.7010525893230133,-2.3653884447546147,0.2234375199493268,0.007130987516798776,-0.11427330954082753,-0.2061514800466224,5.466769948224416,-8.533556588748745,0.6719141337554768,-3.5795836712845173,-2.533141162918685
,-0.7766078658326404,-0.8428086730906249,0.9156641353266046,1.5078616257310795,-11.924587112046495,0.2659188935628559,-0.9776658539210666,1.2267130566085092,0.5731341155401674,-8.87008870472191,-4.414885290171122,0.5709862914573844,1.6971785482905655,-2.751291123562529
,1.3682885103065863,-0.40556986230199776,0.600524068361039,-3.289146501504104,-14.581055855062578,-0.28379404472663367,-0.3185191365195601,1.0886607689153995,0.6393790561750422,-7.89865015563043,-4.275426062442673,0.21861685070764336,5.7894103711426945,-2.8206145528810302
,2.1230802828722286,-0.4391320868507415,0.44730630666508137,-6.757175376808527,-15.818267502914056,-0.047247362003922135,-1.4959884949702973,0.16473041933527785,0.4026266022893847,-21.451960810484692,-5.343514737530238,0.16116801728750663,3.600003961598969,-2.463387663494531
,0.9667429438082181,-0.5702891283622312,0.33592688440646706,-4.014496538642028,-1.0990828033698412,-0.25833234567034274,-1.2134157759023454,0.40125866331696447,-0.0874832015119144,-19.87729465390043,-1.44245553977648,-0.08428117544200588,0.9053918485131116,-2.0155732210431068
,1.0247306948959607,0.2369421270839203,-0.19501413703592688,-2.973955942352098,-6.007336304763853,-0.2666820241955603,0.7318576854738491,0.6052767976558442,-0.23852326760843653,-32.17918396257571,-3.941750482981199,-0.34390521021225473,1.9106006247226102,-1.6539435294409506
,0.5547174691737382,0.9194581634768981,-0.5549880121801141,-3.261587417357218,10.553234448322618,-0.5857351371135138,0.7534511619318224,-0.9650277457101883,-0.017856069748726038,22.47273112860827,-4.755142046533682,-0.5253042569869164,-0.06888300892599854,-1.4868014139747578
,-0.08405206044610469,-0.9120931858765582,-0.5976183667471793,-1.5742647298516186,3.3727962636039193,-0.11088322623054969,0.7032316872137458,-0.325209640578912,-0.385934256766305,29.99115730277916,-2.9325305421111745,-0.11692042812217314,2.2193739377724984,-0.17690984729785533
,0.33693810434006344,-0.5336846464542245,-0.6972735412744142,3.551507884098967,3.5116321889185116,0.5581331625198318,-1.3264539888383167,0.30152112495169897,-0.2098699252969749,24.45377695103112,-5.2811082795660225,0.7533991542003791,5.465609398268796,0.5974054872440658
,-0.05125346756319243,1.4294279367564644,0.2795830442662591,1.4466319061068424,7.765935110743919,0.7705392011595931,-2.3127620739561014,-0.20505174745227517,-0.5972344814376518,13.441775836535392,-10.200315066058385,0.20265383975740103,0.39855362518382653,0.5649011833149852
,-0.5206017901929268,0.8640009557697835,-0.3389933076994154,-3.020702554946843,-6.550724001228252,0.22846801672797376,-0.9351232024043457,0.369092608040164,-0.37496104798527863,16.227238789967977,-2.443202233457686,-0.4107626888353505,-3.23621727851995,0.22430684370255927
,-0.3038542234436606,-0.642414313756665,-0.039700331384644606,-2.9838519374347396,-0.6979908058668037,0.21157486212512405,0.34619966824409754,0.729038049054925,-0.570759286690044,-6.286862921931116,1.180151911681808,-0.5452450930764489,1.7813106180739355,0.14355252079418834
,-0.7357150020407035,-1.6487992443012547,0.3510757033404735,1.3711055245012862,-9.535672013711583,-0.24811898534547497,-0.18619720052552252,-0.13769884937667867,-0.590212301417887,-37.979121519138836,-5.727230345540081,0.22870181650538346,-0.8440424548743677,-0.005635072287522399
,-0.5009287591149676,-1.425796129595072,0.6084953290394418,1.941491846495237,-7.371402607176684,0.11569691286267736,0.20413036385041247,0.41267045345214515,0.7842209666209363,-9.84173777174475,-0.6957948175589748,-0.19069298529222214,-0.2699523613514507,-1.03486150286396
,0.5409513755412706,-1.6363511357967464,0.19774805801209172,1.5805977155808182,-9.21485655733403,0.3987478262187545,1.416110713452662,0.5519866834756927,0.29875019091849636,6.880271490889681,-0.34738779020717964,-0.037114176675740185,0.3543895688443283,-0.449324829105056
,0.9217498569529703,-1.0992270582235117,0.28828319528466034,-0.2271490685371271,-4.281046634671642,0.3024749993688467,1.214129512954755,-1.387474584055371,-0.48913734880971543,50.604252380964255,-0.6201251868135209,-0.11757022071226522,-0.8795768438310052,0.8259578340109848
,-0.9160802570877785,-0.08544429442667745,-0.12064271754884141,-1.2762907311130465,-9.438228100857707,0.34196173542845376,-1.3121042424553184,-3.3913551401816178,-0.7141131060885958,50.04941332918095,3.4886675553523108,-1.115727042817338,-0.6292535301087084,-0.11110358217612026
,-0.8551482357105932,-0.5704470211336012,0.2634666778613311,-2.744044077320558,5.452409852223033,-0.1180957214988139,-1.2146169653114134,-2.5457354329003623,-0.612587691160218,16.322985861227068,1.799491372165249,-0.7129804702025907,2.4807129017391985,-1.1882637950130523
,0.45338944829157696,-1.3193043097688957,-0.1300678939907616,-0.4470803920403507,5.144621833901663,-0.5291363197417972,-0.29897657661642457,-0.5407051607751925,0.4733009647764118,-3.4518372306705105,-1.595214816221717,-0.18067787829545598,2.765782961786014,-1.5930091485834734
,1.719198044005757,-2.216543192654044,-0.3575687443269347,1.8851499150459539,6.618859165776294,-0.12450564271529854,-0.13764006674946608,-0.04087787652995059,0.15048568880352434,25.727688439050997,-5.440479920570502,-0.27326328313131,4.850725639033377,-1.0400454164953217
,1.929413505904603,0.5903775851045507,-0.028912868604160712,-1.0623424782016366,4.182133324204272,0.23421239644015857,0.3646024640267892,0.13763927079155017,0.29745957188423877,-23.921168153034873,-7.993374873954974,-0.46025750555124106,1.1092741530255803,-1.3631741230045076
,0.6844271492925355,0.05178416318223759,-1.7561811906135278,-1.0900269248626568,-14.962194249575402,-0.013831001925557649,-0.06663653331757743,0.35117110258695106,-0.31912031608764324,-12.809113916798577,-2.9493692215612914,-0.2518934660228303,2.604584291054804,-1.9598958258111572
,0.24468029256409127,-1.750711313800195,-2.244905388105515,-1.8112509005770447,-22.11612190787683,-0.740255702178883,-0.8150362491292689,-2.617424598127186,-1.0536559177071472,-7.0862048885700455,0.9512719329063565,-0.7123392284910186,1.093620256160059,-0.9231873161852008
,-1.248371002269118,-1.6468381431217587,-0.7599733242728881,-2.669804723279873,-20.337445612087905,-0.8959390200180916,-1.4618791205183383,-3.53360262061719,-0.8946732330667244,18.59491086358541,5.673442111824343,-1.3295643737159435,-1.4101744913440917,-0.2353552190778883
,-0.8672535152742705,1.1404823729316238,0.11754070442506596,-1.5178949312243513,-5.6392683634414515,-0.3580469541236993,-0.49202297803694306,-1.7155445411454697,-0.36312281959101184,16.823119119777427,3.653447318400199,-0.5520077498904844,1.1260188655033605,-0.40427527902843846
,0.8096749609120222,0.794448829472323,-0.578001078736705,0.588842189441553,-6.740026437082821,-0.14265679699509087,0.41931962121713867,-1.1251654817748258,-0.8612001165006969,-36.75620418594691,-2.67635115113898,-0.29542454641818505,0.47367614825490295,-1.582887345448149
,0.3646612710435728,-0.9013232728829631,-0.7930378972222981,-0.5884483107476853,5.21808842336925,0.3713837354052205,0.14054912258824792,-1.5587776349720135,-0.8852946066350349,3.833476139472583,-3.3613704648798683,-0.6767149492209599,-1.3854133557366481,-1.6986232570791888
,0.06113371626236397,-1.117630978966767,-0.7391019690561454,0.9959145015447164,0.12650306349718066,0.679529069416649,-1.1851564974853588,-0.04500464051986803,-0.312687976246745,26.234676112082518,-8.646695667722868,-0.5684770041115492,0.7120312638840279,-1.0265533638920674
,0.9340790858439797,-1.276685747666026,-0.051908766549222427,-1.3358565626835632,-17.7840601879201,0.633408988928157,-1.428374640833918,0.3820362085357146,0.16389683370039584,-3.6050404560870963,-4.4463578889831075,0.02926441540211406,3.397008977428762,-0.9597622061759197
,2.775311480433568,-1.598537712254444,0.34461508452952727,-1.2172343852444873,-25.43312640460582,0.049421198499851854,-0.048712454665867114,0.5666842920874895,-0.07117010456515752,-32.07450101128426,-3.501160353161373,0.19470155371737846,7.37716128201568,-2.0154239717640614
,1.4209281841727663,1.3238457849861,0.2109145114765929,1.004028402352673,-16.51260166331171,-0.14980224659631242,-0.392944523430966,0.1712766326626937,0.35992953163227676,-32.75448844342493,-6.27469488354952,-0.1417160170966229,2.4536481652581883,-1.4451870656048353
,1.0613312308681913,0.6327791558412622,-0.2958767741101414,1.556193040960298,-4.854781873401414,0.13757123632945437,-2.0099667567658597,-0.15938048140065159,0.5048621106810186,-1.9320673432008957,-4.681612643520142,0.13507725184325495,-1.726405681171177,-0.8148257369363616
,0.32398365210070346,-0.8620939903851208,-0.17814621101057593,0.4531951894942408,-5.517958100647454,-0.11750482012356034,-3.802597226293536,0.4159828817870819,-1.0577176156736132,-12.305909069779409,0.5526275215036701,0.6584287256360569,-2.569483720743275,-0.9008059592610641
,0.1559462758377909,-1.1011346711575933,-0.7466788554527383,0.3062968913357819,-30.06201110482404,-0.2632944935851854,-2.9679437943753344,0.5433590618790841,-0.7345308508418866,7.511177633671964,0.19448029536613679,-0.2914290204001143,-1.6304487918999213,-1.97467310869257
,-0.465429859773424,-0.09164029267157726,-0.891288690007044,2.0851402384204087,-16.94536234461233,-0.25205634937957,0.2966999079159394,-0.3740244532009642,0.09451898539679246,-18.788743479338294,1.5078712704238697,-0.5114685130836386,-1.6429657707530578,-2.9946976135794845
,-0.6270740995536755,-0.635357439078063,-0.43398035432240045,1.4621310056380303,-1.7728410616348427,-0.7137035308600045,-0.22194446289773012,-2.7226102455825982,0.5656854080394186,-29.982474717251655,-2.832168477076828,-0.6009834110619895,-2.3546972817543246,-2.711200291574198
,-0.2255194130391836,-0.9284628072375538,0.07185016809140524,-1.0314234425060695,18.247885002502827,-0.8928248664321142,-1.0670401044773687,-2.2834616210551903,0.1687347112002508,-27.043256240525885,-6.655114919832328,-0.20815765617170584,1.7922747241600254,-2.2846460529806696
,-1.609172930650651,-2.7816376887602776,-0.2538513604517638,3.2419728840020725,20.3007144608842,-1.2496211181525838,-1.685498989275148,-0.23224853858316952,-0.5733104303266546,2.1245253165104656,0.08336506361448588,-0.09897575641521117,-1.5100752197810994,-1.3824635626791122
,-1.800600601314707,-3.394987605147111,-0.5631832394491931,4.036115440943805,3.5492785348999765,-1.1455464575780785,-1.454939143922912,0.3148672082686048,-0.08672353880745125,25.35482669171858,-1.6994246816914518,-0.1747990426566721,-1.3603620582475242,-1.4925693134167448
,-1.7780025466890153,-2.338916631093149,-1.0175292501750302,3.8905089197574085,-7.738583641702297,-0.25816734381000733,-0.6930943041855975,0.18935801775287409,-0.5349219905462925,20.92364392925455,3.2503283203990776,-0.838056255031288,3.466094515581981,-1.5504859136167155
,-1.1710140602924652,-1.2911405169089691,-0.9666745415804282,1.895823312102506,0.8981056482818998,-0.47986100842612106,-0.20227757980917138,-0.17308536439520483,-1.8128316140534337,3.6806884854901876,8.44846752598883,-0.9088593049307594,0.3947652879375108,0.10500955027867805
,-0.8707936221498971,-0.41173547836871693,-0.5869388638433413,-0.7720169772407093,5.455117125577245,-1.1644192966863975,-1.1471198076120108,-0.525998215696483,-3.9469638994858967,23.439465185285105,11.280846756172208,-0.7168423076805311,2.67155251404527,1.0406821155751234
,-1.62235213475147,-0.6222084482400226,-0.44936433195327824,-1.481223596853065,-6.36121774621689,-0.40210967546815024,-0.6605905425945618,0.3204083920616542,-3.358248376649307,7.505493573634542,17.876022143511722,-0.6640560322504652,5.7922749778913465,0.7233900076342535
,-1.4242708391233114,1.1201651007822644,-0.16977606682910548,0.2359666038534939,0.6117801319707455,-0.5052485990442326,-0.7150440070191885,1.4852309689310679,-2.112478625669067,28.44989214654521,12.755121283960692,-0.5653696488035477,-1.3015583189704147,0.6324541349744599
,-1.84627993478044,0.08294990360317137,0.50866138806098,2.231016746065686,-6.626600729483203,-0.37724892090064205,-0.1704755203847841,0.7270630321378486,-0.9412962602377994,26.580923100386475,-1.6552253921426916,-0.25233702584968287,-0.9609396772349169,1.2815692599848127
,-0.9822958887573086,-1.3322805832783127,0.012871465799283425,1.0094131851096664,-5.103286477374367,-0.48213750769357955,-0.1545735725327335,0.28197767205657764,-0.817088679633355,-7.215732307397965,-7.063357033861344,-0.11526653075420167,-1.6067740741216476,0.6785217914645081
,-1.3841576992675952,0.20103058725274367,0.22191670927575236,-2.2915212730013774,-3.569621146649453,-0.47580463396297434,-0.6405965340489473,0.36904645829677757,-0.43889540392483706,-17.009132086355336,0.12421082791602471,0.03489390451341619,0.4991254944086329,-0.8534275364930135
,-1.5394216603898958,-0.7962420071190381,0.35280246326468984,-1.9888638897074722,4.391326495550197,-0.6171459385072837,-1.3192637064869404,0.20013132346044163,1.6221938404892573,-15.695202207175592,3.553368322477904,-0.46430497179241287,0.22866952742934413,-0.09126048853734425
,-1.0000601897127999,0.2490265588052234,-0.11694751993802263,-1.4407505399378915,18.53981788917578,-0.5013908753277996,-0.043844453648415556,1.2782418060938991,0.7875055169207841,18.429342561141276,-2.941195026113372,0.04428242552175567,-0.6176378642210945,0.09174406625726009
,-0.6565068226628216,3.879391415234478,-0.060890906630477616,-1.3128941607270375,12.500125928561728,-0.120595725882439,0.4156346182681827,1.1096003933714944,-0.07953594836201903,10.073723813688765,6.808834763672915,0.0037859272218827567,-1.5104503714493702,0.48745929554482237
,-0.024310367470576705,2.8562305961249157,0.3484174311535365,-1.7655332254767935,-18.31840771788648,0.970313959764821,1.8180482867635885,1.1437245734199597,0.798560430578941,-11.268596940644196,10.188676519307,0.30558695685898013,2.150854762308221,1.025431821688799
,0.9861688491290163,0.7220678855127917,-0.4638128588339363,1.309811746312779,-8.458829072536531,0.6327570913804363,1.0008709942343164,0.9227760881435358,0.525519178071937,-15.722658681886912,2.5502247562689426,0.8639165388693684,-0.18824565876587424,0.6119656505591368
,0.20821510767312998,-0.5025901013079229,-0.4915356206130727,1.1770016194931818,-20.083717845366287,0.30351319906064694,0.6461984862275357,-0.24235535521166426,-0.6689364890540059,-19.64277390873249,-1.3291417727760322,0.15013395568696639,-2.8355619637959157,-0.9121050677244089
,0.23099526966713313,-0.6834856861816612,-0.013635956409614038,-0.5489072741487464,-4.811847153939141,0.10567306196136468,-0.15923887901848682,0.3385958702808022,-0.401540986446608,-5.080381140267184,-2.340073638352813,0.14356957337259774,-1.4809726737639968,-0.6646850412859908
,0.9145760526285618,-1.6909763840738476,0.21113453320298478,-0.9981801024479076,-9.98283741069141,-0.6070088903770203,-0.562643063313171,0.6218798794813143,0.04547509337606622,-0.21939826076666466,1.6234232798576729,0.08034431806392148,2.590952788503102,0.3210781160922976
,-0.5588879532350538,-1.0944705171605291,0.2815517328951569,3.628166597539762,5.312488936391207,-0.37003351376324,-0.8537972557283946,1.0884232819406232,-0.4529718787801772,-17.40874100896086,5.062788760858856,-0.009570046357203744,-0.4054274756647063,0.7843208402809646
,-0.32616956847781553,-1.7209703863539643,-0.03794924139434686,2.104229751863205,18.28920854616151,-0.54740322375336,-0.8351305780248625,-0.0685196409098006,-0.983964793776503,10.41632665713045,-0.5426194165943988,-0.5638368215438516,3.1265288757799032,0.8504627958490942
,0.2571623136340786,-1.6265378081009885,-0.5392986871932657,0.41486376764210453,5.772079034034207,0.10026285037013938,-0.007828429335797768,-0.14885623167937884,-0.2875833740510308,6.1886823425473745,-0.3264917916690212,-0.3482731230448617,0.5175383275507738,0.025176850581641458
,1.2593761880853234,0.31604594301229966,0.1669392411043673,1.0843684936744176,-17.328017940044273,0.5474076556951633,-0.1817560915125807,-1.0295576426128565,1.418323785046812,-17.224650633398397,-2.324445323625986,0.09859327680557729,2.95787268153829,-0.37423666048178283
,1.572542543482195,-1.3560847405718923,0.07251142653493295,0.6698806825027164,-17.421988700327976,0.20415200301004507,-0.4643163785943141,-2.3484331504368376,0.2585695426861136,-24.572599617816273,-11.34680875118116,0.15845407093705985,2.0272365441907905,-0.04844293718195288
,1.9197417169897628,-0.13395181046019367,-0.36320030484040144,0.5534854787727812,0.018082004513779025,0.0383195710546704,0.21890460102719272,-1.6726535043739936,-0.1866603558682809,35.35153775196664,-3.0991929391021302,-0.06549339139699813,-0.813792661366334,-0.27032089601848713
,-0.42538642840716967,2.3694904823563663,-0.10373828491892083,-1.7508876426061728,23.963776850089133,-0.2552745915607741,0.3508405180510593,-0.2575694439794036,-0.3411138514142848,55.5115658525574,0.15801116462799564,-0.26586222532598,-1.8348775466866447,0.0032451502937136784
,-1.0524050845611848,0.671728462119786,-0.031315758120009606,-0.5015872789017982,10.309230620693109,0.46096606811732127,0.6468331979668482,-1.5039715870482244,-1.442751051593362,41.82941462360048,-8.512356891515031,-0.3094713815012264,-3.3961594462318674,-0.48190597186659356
,-0.020719540291419057,0.5583615838140047,0.2921834452272089,-1.1225806512515786,-1.9086828866253671,-0.023713619663879887,0.2761568369719471,-0.4310396118518036,-0.3345730365306118,4.02016599267202,-0.6192917395782623,-0.4888669754141731,-3.6154982428992044,0.049088374896447136
,-0.025771013124030042,-0.6075309914427406,0.21746050916128512,-0.443133087584894,-10.347661525843298,-0.014001061247840393,0.036637398658258484,0.4891052627566671,0.3745240310583529,-16.73672925000356,2.3292442167912384,-0.10488249358446355,-1.3523327957115412,-0.019259399972072183
,-0.3349817136888419,-1.6105330814598349,0.05740764707215184,3.2230309879907213,13.135475094739563,0.1690066136320057,-0.34170956845701694,0.14143123085844697,-0.2121442484265475,-21.23989585929697,0.9828346787296547,0.737000482109647,3.952177698847493,-0.5343289624825289
R,0.43331505566473183,0.5659053941340755,-0.09810130270973084,1.1738651817442012,18.939117439680874,-0.6065410430547307,-0.751995840533607,0.2947803638694568,-0.07089473736213464,-12.605535102656367,-2.218796870763819,0.2591878251133352,8.389290783276259,-0.7189969814984072
,-0.028782209374882937,3.1243091728414956,0.3704041712633451,-3.4576848845603037,0.30067128159621237,-0.35022683723408377,-1.2296327825874878,0.4761015368312001,0.8532354027110898,7.218115084648024,-3.465646645112423,0.015555209352271301,9.477262058935755,-0.8445446710483518
,-1.316500266867189,0.15208718288436857,-0.29380481812652176,0.9032258387940538,-7.792472561098521,-0.1639102402792197,-2.2609147452937286,-1.5511496416377952,-0.8421467669056951,28.530326671794352,-2.7910000045662375,-0.41721843319200275,8.52006149165688,-1.2781944798812932
,-1.3779959072521324,-1.741603216281396,-0.13838364180262114,1.2506039944239535,-2.092109200986466,-0.496557038038392,-1.3081112717392045,-1.5780406002991032,-1.2349217419303031,3.8992371807862067,-6.141196796549375,-0.1832555283141296,3.952726450912649,-1.58520652567959
,-0.42147545278193277,-1.635863942414825,0.4876549282047611,-0.748881474556607,13.349210338767035,-0.633617946357694,-0.16992929458236633,-0.24227362834520974,-0.3592550619432825,-3.5179179327895675,-1.5294964727210008,0.3835146045133079,0.23174170179860956,-1.5444262393791366
,-0.8663063374816582,-0.6905145271169147,0.2663526585469248,0.2314231190741286,5.127205362141192,-0.14424228471817047,0.8778637223229351,0.29406420235787306,1.1697066097200097,-19.02750979437668,-2.8313893517858277,0.602742138425,-1.3870447985782253,-1.854404956976562
,-1.6481040143645038,-0.1910199691921299,0.21144725987402965,-1.104557835164162,-19.393585865060437,-0.02564125695145905,-0.09144017334744095,0.6713250146400298,0.4331626418349789,-7.858899720796434,-7.681956015477812,-0.020256131410415164,0.6097737789568274,-3.337554293064842
,-0.4043039438918654,-0.5404207691500847,0.044587599790105764,2.1826585597277663,-14.178243539457839,-0.12600983122052387,-0.379656812757042,0.39433043671728185,-0.017772073396712666,16.353171298909984,-3.670041128996937,-0.3934299784454024,0.14206397592587883,-1.9271066714736889
,-0.9568531529227279,-1.3567639029220995,-0.014811810894620636,3.879043672867701,-4.650328487346398,-0.8529450664327636,-0.37935823786238,0.17494191596380754,0.2338044122422639,-6.931163093589492,-5.869385403197016,-1.055075588405253,-1.7828690867049,-1.3789873729661044
,-1.4042489986448,-1.5582700509772778,-0.09770819909080418,2.7542752757536557,2.964070733198552,-0.7202157062201933,-0.6213767828523771,0.21948168689277636,-0.5424282822462003,-6.670037470049927,0.6979507785786195,-1.0600622865181222,0.25374391590606404,-1.2254997487777637
,-0.21750109696825146,-0.4441593450540236,-0.08683996317865926,-1.2435533487478907,-14.518312623407585,-0.13812149255585,-0.2832410041357186,1.0955655380580802,-1.9294887077012395,29.259490584851356,-4.07273470933487,-0.5216709383008681,3.392801854044215,-0.39096250606796407
,0.07774012234429475,0.2666517019801537,-0.7371846564089525,-3.4445465343150925,-6.17880331381984,-0.20862146614414606,-0.5828463283351024,-0.13838396334135744,-3.8035420211432003,33.04006158170484,-3.690835072877049,-0.19473477734437067,3.661609782481398,0.7463496502006414
,0.6332756316921266,2.2074615851191153,-0.8434371307755645,-0.11613993122141802,10.105567328426032,0.006937506092445442,-0.13855802399011588,-0.3085575611474394,-2.707832184027037,6.7263902470373385,4.792230973123477,-0.3003909998794756,2.790172841397975,0.5865073962588222
,-0.5050882300412447,0.6060387012337579,-0.5963983806506953,-0.03281316848334024,4.471845374199315,0.3100091621467584,-0.3385427920777933,0.33651391886234,0.39490882821847156,15.67026162275715,5.49826767847903,0.17195317289355747,3.4494520953873287,0.19165879729452262
,0.022368660021063018,1.362900215521263,0.3889716381112887,-2.074592168965876,-13.625435397346589,-0.245159062628089,-0.4445907587756666,0.7823862285311386,-0.2508138517800618,12.605244389042772,1.4237949817550488,-0.31194659660392515,1.8025464288150834,0.5202296784309691
,1.129694451240672,2.1576559980794627,0.27994901206977457,-5.855118706613598,-35.6581331107414,-0.36416542061091656,-2.6053609373608673,0.6986789601180533,-0.5065263703941285,-18.29125645643015,0.361071708040556,-0.39916297938246464,-0.0723222420101115,0.5059023820256225
,-0.6128862810454042,-0.6618469176830333,-0.35235578404433937,-1.3764779837843175,-51.30701164414724,-0.022273943355014487,-2.7819195560721663,-0.5957837150770295,-1.0084320625454568,-16.498585976935647,5.086531128087874,-0.16458316669518697,1.6030922823704703,-0.6393953459151603
,-1.411524937882228,-1.0177218724978685,-0.5856592982053177,2.3975627473783834,-1.4468366952973075,-0.34169818638945465,-1.4496737649319387,-1.289003273589187,-1.3965599297033513,-45.13228120291568,-1.2177589836445548,-0.28494527682818366,-0.6989569587500047,-0.3207052207818325
,-2.029859675677425,-0.5185804485869663,-0.3331040540487706,3.33195855097996,10.151827537840191,-0.3083847324443609,-1.0326920523322636,-0.2383661733843086,-0.6058813800706387,-68.22767177385242,-3.230691288568809,-0.33696716700653345,-1.7875796123122407,0.504902326545898
,-1.502511667576618,0.8026847974572937,-0.07567040585998086,2.008819350800546,6.823868114208312,-0.557745348975657,-0.8563648014140319,0.3308479085460967,-0.01961935669113184,-4.998489399066872,-3.3000355559481043,0.7073994812117488,-1.3990819389370879,0.16496972403313176
,-0.5480699946554971,2.386379434025755,0.39682601463211786,3.145864299405346,7.272130714764017,-0.4460846903535241,-0.19943308721116162,0.856307996505638,0.6708892982731455,26.99164771335868,0.17177818409727083,-0.38115637380916256,-2.7362328325653813,-1.1477284865925477
,0.9697482482188835,0.881612334483195,-0.07281581595539974,3.8886382309138967,5.842510935097451,-0.2571592592196237,0.36145526967976405,0.33567886459773116,0.4790279145218941,-10.678694582780883,-1.0168199201659283,-0.7824112416471671,-0.22713481544338482,-3.10740748580829
,0.24658058263076393,-0.5774661162207647,-0.5709253931637538,1.3178208203259196,8.207691717118388,0.6545796595490302,0.9128233456313777,-0.9474497492544782,-0.8248950801524502,20.107644935174847,-2.900949619780507,-0.25662545328454517,2.0307358501753416,-3.982095844525338
,-0.38183521869589143,-1.23721229604416,-0.6618685932857942,4.703275233770878,-1.7452981984212501,0.3469561310533423,0.9645685650344331,-0.6759972767291536,-0.6992877175364673,61.50843659411232,-1.9547597106976702,0.07100750827564589,5.517854832047543,-3.1140926220529668
,0.36563070996265284,-2.0191071540208174,-0.6353682719045542,5.641105669432651,-9.644503185091889,-0.4200177260499989,0.26317449210058597,0.2542260702604591,0.15794175508116765,38.06280694747544,-0.18826292901517555,-0.3680159266601953,2.0600979178723406,-1.0796930147484802
,-0.5355039601859694,-2.2665356142669855,-0.6218960365023065,3.8744795098389893,-13.160338495976164,-0.5375480160348981,-0.12448016307635537,-1.4596227472597965,-0.3124399232091735,1.8675535468178308,-0.8208857551458187,-0.20824826149258363,0.8433744426909233,-0.22747497916378406
,-1.0463423707816633,-2.155666860569522,-0.6667076131218616,3.6100015207291922,3.173735682570257,-0.3472472467447728,0.2631475280065378,-1.4605320357510132,0.14412564523308832,-17.40430035218874,3.8383973895741734,-0.6906437774726483,1.530015357977514,-0.6057055705020492
,-0.9521144888002093,-1.2670129976325795,-0.30340096624214935,1.4588080157976697,10.786089102674842,-0.34766054010953523,-0.3947151903461657,-0.5781625895993014,0.019792706477481176,-39.16979549931711,4.0909473233171365,-0.38852317249958085,2.3246747336167894,-0.7693288948970408
,-0.16505793765554733,-0.8490231752887317,-0.14340240986295774,2.549706654407035,1.5661816911074067,-0.5245409097766494,-0.24603511544563614,-0.3225354277000823,-0.1444525878244372,12.599262054920791,-3.305689183119255,-0.2243328767939283,2.8180817832542444,-2.473005245323927
,-0.747587069254088,0.468806435513986,0.10889513524044607,2.1334937650174512,-8.703000676323251,-0.7961103872108536,-0.6976295855018037,-0.32653997914274435,0.8274059298177044,52.638220280537396,-7.626195271643791,-0.12318279040454098,-0.8227072165364301,-1.5895603917727483
,-0.4105096789889274,0.3580126341219628,0.10894693276075873,2.7872171036838673,-4.0086736663829505,-0.3761344897790021,-0.6084650125921752,-0.4851528673732539,0.024395824862019303,69.67751845870029,-13.393043296684743,-0.3604918479616085,0.2540289950058701,-0.035326695511405146
,0.8472973285169131,-0.9289146343879534,-0.2253786267638282,6.40793827519188,-5.74984929264792,0.7287384556281226,0.622848305258477,-0.7626710916983455,-1.0347846628296602,45.6967586309798,-4.018215770041003,-0.3043758347874609,2.316933377687911,-0.16462586082104771
,-0.06235919734072479,1.019723227096614,-0.17425853986758938,6.081815546089233,-12.99698433430173,0.30923819070316005,1.121183956680691,-0.12336776765659621,-0.6789083788233354,25.558082168108324,4.169207260304411,-0.29491842740358903,0.3002586080908224,-1.0056808428852317
,-0.6302939063852728,2.1136418088561517,-0.40030715598867894,6.174573264730182,8.039564124840583,-0.4904109672401175,-0.2646482810617719,0.09096641071655079,-0.5595727282749402,16.171303693176807,5.900025171089535,-0.18037804613863004,-4.2194488924130855,0.1377878569149593
,-1.0029700018680954,0.8272310475291873,0.1333786494161213,4.092432478137263,9.095663707468425,-0.7381176264241507,-0.5188298020844836,0.0352860494322767,-0.5609820984342468,17.168727438639504,4.313469779321797,-0.5342432065518056,-4.933019782235306,1.0986243650306524
,-0.7145853102189417,0.5897578163735189,0.45093798936419544,3.1144186959503735,27.161821861706812,-0.6160993568463197,-0.13293147028129246,0.30237413786113027,0.10997711821229321,-3.495912146018759,3.0648557768992175,-0.39315579855992705,-2.9775072709569192,0.11507879291650995
,0.05468436097243555,2.1470634496142926,0.33455996175165154,-0.5975743295187853,32.544509175913475,-1.0820738985553926,-0.6136387077078211,-0.030593602504243988,0.45862075458142143,-10.57431972806923,2.562962510300962,-0.18214490478449916,-0.7676717003456942,-1.4324923250030457
,0.10597705377364953,1.1497189046812055,0.03973475791705473,2.4489145909270493,11.43932589041271,-0.6699338958275135,-1.1880372954760452,-0.6902845237581829,0.02345247561274664,-15.320298058898931,0.8493798226893862,0.2131258484988147,5.339320436362658,-1.0193570758968207
,0.832658614555905,0.03652605868747572,-1.114155076566161,2.4878078902742295,5.767819405273288,-0.5414872297116018,-1.15590795212272,-0.8972493395831704,-0.9015205639282651,-3.7945886901788946,-1.8616792830811684,0.14683631610397532,-0.5690660668262256,-0.36772699225495237
,0.509372723522612,-1.4645908913252548,-1.2361734256261478,-0.2573973465679367,24.507423670735506,-0.48551334053224277,-0.11625322841896346,-0.12235275410715708,-0.06436627215544444,13.419262821023255,-1.689879499631076,0.23962236129443182,1.1263652120151675,0.5208003162454704
,0.3142318097467705,0.024233795641762798,0.05248217958656311,-2.1899907417270987,23.62946948419834,0.12115905999027372,0.2811196686189873,0.9076240491914823,0.19543934095549897,42.20865635995734,2.3266129215692546,0.37358319670377793,5.7466437741754826,1.6015290374221742
,0.2285518346020406,1.2448493901176352,0.3404066389852605,0.9834117081997358,28.133804240867352,0.12237550807985413,-0.5211995042833885,0.44165647608244724,0.2391072706657253,-2.074408981663464,0.8961910181146856,0.35053633349905383,3.3501753142158464,1.0952677683792735
,-0.06110019573890396,-2.566988943544757,0.3770242425246792,2.848827813006918,19.840446371524493,0.20332477871147228,-0.6634562338174292,0.14854980660558081,0.065038600451696,21.21545286387933,8.759506241731682,0.9246189116315807,-5.399960681561623,0.18916464148499468
,0.42783217114467165,-2.506878620265843,-0.2346146927303887,3.894763195693567,-4.303244236192039,0.45165143283347686,0.2114231949682264,0.6568708443356607,-0.034628504647394094,29.543997641994775,8.014303476521054,0.9203584437358885,-5.567712202227481,-2.103619857906976
,0.459640651415971,-4.112602661883515,-0.5568187197909947,3.3510010694789396,-3.595066406469924,-0.411630176854822,1.2776104646041315,1.6197219006111228,0.3109982321882437,-9.206098380577096,-4.051647791205194,0.5424955903514932,-1.7122826299174323,-2.4725072331736215
,0.8460855268684127,-3.9989605726768063,-1.5031894510703494,2.0808755003733586,0.2389921835665486,-0.7931422934249593,0.6443027425708608,1.1503743648327438,0.40747504838700244,36.492646956930066,-1.594752131178363,0.6857490099579556,-2.7899421162465443,-1.3535570834157953
,0.957286904006238,0.17175858187629617,-1.2974716010671659,1.1299779860288477,-6.751976895721688,0.291582357920288,1.0170746500207823,0.5395729799187583,-0.13174638460708793,52.381818679885875,3.9998467289293047,-0.04854453071075142,-1.610329262712867,-1.6463607300015197
,0.5007640607635285,1.9017594264532607,-1.1413953001836068,-0.198804853260079,-0.12024626369095441,0.8150549381945715,1.0481378657130396,1.1874712364220517,-0.5139322031129578,25.16340732053797,1.700541655046578,-0.035865691546889004,-0.3288803999455728,-2.4181516158785494
,0.17401725513325042,-0.08667271338670465,-0.7442133683006107,-1.8071093937219518,12.236118166273366,0.40198453019812874,1.2063046262533015,0.8287233843970903,-0.182857753629987,-19.157030220997054,-0.6806560173035809,0.5707786861932519,0.5839342293276524,-0.9544993138990308
,0.1833473097130004,0.25599357937600575,-0.30301956212591546,-1.385407301474432,16.019496027497684,0.5743081161168297,0.651491596669739,0.4884806510229987,-0.2784667127878224,14.440586162646888,3.1993839978781073,0.4615363129812396,2.6369491140755534,-0.14683203208787907
,1.0364279773074103,0.9128182815629904,-0.04186473026940377,-4.134616456308189,2.168025840233911,0.3251352996390263,1.0933241565386291,-0.3101568440679813,-0.11755819205425444,6.429409940869185,2.1365557013888603,-0.19116751965631737,0.9040494953714595,0.9316135624586968
,-0.5579626217130876,1.1169568695419299,0.6993474719576712,-4.683650429095966,-2.789776073576518,0.532371867030084,0.07728818086797101,-0.1790290061708773,0.14538551961347662,11.412575684324935,6.651029039126734,-0.21057749443830265,1.4256874673786415,0.5247016462275068
,-0.7910383819105621,1.5932854310979505,0.38008946491878925,-1.6998383534312786,3.996697758683792,0.7212610193791301,-0.8395749430610387,0.0052815805720256345,-0.2601770570676726,12.684080316844936,11.400721418062263,-0.26485872100202124,1.7367247585183958,0.8570640750498224
,-0.840469434471986,-1.3720602689149501,0.019944078484790823,0.5477886493538479,7.165006530091965,0.0164646062243281,-0.28498576312270585,0.24366584469057315,-1.242620998674028,-9.000687428626922,0.11617998162811427,0.026861322239402574,2.9686181158952922,1.0180355929246756
,-0.7972490710384595,-1.919251012896234,-0.2356156023699541,-1.3029828132892731,11.663367356062203,-0.05255593398879728,0.5456016378332781,0.7742573621907595,-0.42183608594071015,-6.8482155590261025,-5.284235754155627,-0.11461532214145354,1.840935127953212,0.09958619348693956
,-0.4266465899389231,-0.5030271280113187,-0.09654516116750068,0.5980231448761949,14.533899266314272,0.32349269092230964,1.2053841841675172,1.3784917654205222,0.31291026267149585,17.51374525984972,-2.4188807052576586,-0.22243169642481958,-1.077456702370556,0.20426334333807056
,-1.0741894895489073,-0.497230162160382,0.6810978872757832,2.6650174481501634,13.300947436929322,0.4745623528025932,1.7667248296940816,0.7629458370180613,0.8290831809711523,0.9262286045729231,-2.8539958770422333,-0.23074203212992062,-0.763403890831641,0.8715896093614075
,-0.4343391269501958,-1.542365168476048,0.4776879128189769,4.138009358194854,2.394467198484786,0.25451025779776537,0.6329171695203706,0.7269935848600549,1.3390524391932421,20.919564741427042,-1.4482496782896537,-0.3871785539930637,-1.3884523922941567,0.804125623477248
,0.7113395752798717,-1.868075198260702,0.3765013552189523,4.075683729225932,-11.018205849690656,1.2523788992158347,-0.4267262941612956,0.33146691841532216,-0.7106672745216233,21.97426020886379,-4.0073835425545346,-0.5736838353298203,-0.08100389986595348,0.7501309690738739
,0.012630041130350622,-2.154340485145209,0.5900327428916619,1.6188050501971978,12.344251591516219,0.7874257908477328,-2.899556365055626,0.2677905955975884,-0.7444786309133745,0.7317591974883838,-2.9088556482344083,-0.34779721164373756,1.1006072400146212,1.176844741079558
,-0.3571312831275527,-0.48793541607728436,0.4558781856677239,4.32057046919835,12.165808829514988,-0.04677620705114089,-2.8261617928725964,0.4022099382533645,0.9491142103888464,2.3809052594081477,0.10674993115216373,0.1653512154396985,3.871226213210653,0.48544003610474296
,0.05396508835905048,0.12189503717456567,-0.6277688810025579,7.5909343349152465,1.9626897548165667,-0.24298780535087908,-0.9250115777301059,0.04058347100047705,0.6292815785554061,-9.243864788335028,2.611380403332601,-0.03425175586988843,2.8097628702143704,-1.6277895321575984
,-1.4164561462495775,-0.7034845246083032,-0.913552810994722,7.341413451019185,2.339349163106505,0.2923875176965988,-0.6998874033190585,-0.36416038256843414,-0.0989967641865493,17.686902458063706,-0.0386181065327905,0.43054884214849554,2.461239961837134,-1.2210647096168017
,-0.6540556428428853,-1.4958831053376487,0.038660116275288335,1.5928261470862484,3.0914881858516194,0.8146638440660232,0.42883620431420316,0.24441764093380475,-0.11746332177551666,3.7180120566144836,-3.2540743937109387,0.2611025449349225,5.15777807748087,-0.9656063292211452
,-1.1454127115133854,-0.26548479245131523,0.02331401328894704,-2.99043791981819,2.981433510457565,0.4672516191374355,0.8897048014042328,-0.03193198998895215,0.021071358646544042,31.3186498884856,-0.1547700950003181,-0.49150825676486637,0.6723267940279128,0.04422256924528101
,-1.5080727217009333,-0.4676146970232981,0.11185445579139842,-0.4738214731245796,1.542229998849948,-0.04630455514627991,0.4295223960091526,-0.5126416143671255,-0.47733908736221226,46.77958136646883,4.103613070679951,-0.27980048124932716,-1.7741720369445764,0.6113595199164866
,-2.0395311609939215,-0.8551465387960571,0.028722797516718537,0.18080298378956133,-3.401920942954888,-0.2296214816989276,-0.23555607175986748,-0.48603252940550834,-0.10072440089513558,69.01651248518932,2.6426601129538647,-0.11571785828986965,-2.2495636219021726,1.396514106223114
,-1.1612444133519217,-0.8545691309015581,-0.053171548644003155,1.4673028999323519,8.829645941112986,-0.09704017238433885,-1.0198992208312592,0.3317775503640114,0.05998219678914812,46.49474729984627,-1.3738336799975313,0.09920553468739847,-0.10340901779986121,1.2743196249200566
,-1.626460074170666,0.9373649952107546,-1.303040100153008,1.4762953018701281,13.400878866200323,-0.3285579325652031,-0.46009320278785865,0.142820772161904,-0.19200086544341488,20.61767037503935,1.6222802880028644,0.4766380336555051,-1.856034050867225,0.7542614429326562
,-1.116288688730217,0.647458694128276,-0.8549544261564543,-0.3988989542281211,9.639353438432229,-0.1428259349305823,0.3418910850682153,-0.14917532690516833,0.018355468892911488,33.6322745639376,1.8695569486766164,0.40950530536177676,3.090387476817833,0.7933498726919467
,-1.0174091759206547,-0.20744758568967417,-0.07249583035940738,0.7532981428425638,10.589700691865525,-0.5187041440574623,-1.1584503018827377,0.25833336267931556,-0.8936409665539521,19.445376307641247,8.80654273821266,-0.4044810651373168,3.9291019839839083,0.30070807085368145
,-0.9796134289291255,-0.6432930923067847,0.1815325364483194,1.7339718317803783,-2.21934506120566,-0.37655274774477765,-1.061908080709658,0.4181102952293642,-1.07613065525504,25.809841210020238,12.035057907310431,-0.8076901947696548,6.237452954871983,0.14226173333846442
,-1.555079992180381,-2.3239274312102265,-0.06299890914568344,1.99404106971104,10.596125591572827,-0.1599983242892657,-0.9967261040405916,0.7872537522421701,-0.17532485575896845,0.23847468428063986,4.548537721368856,-0.2483126937641997,4.523546169576375,1.1222675728307325
,-1.3040839307901966,-0.9132247462136572,-0.17767501010748155,3.0652622334283515,14.84923844752335,-0.9554741627941473,-1.688773193244423,1.4459883322672082,0.05665993317228936,16.55406711872981,-1.5418467987585822,-0.4650778750980829,-0.3738692928414071,1.0849698894926094
,-1.5415953670784177,2.054358588410753,0.26077671137506425,1.549756670247458,5.944795544801074,-0.34219659506081745,-1.7678428159712274,1.276502327859363,-0.4360920285853812,2.1577671677044283,2.886021824862241,-0.276767084829998,-0.63906103204382,0.7716294790788681
,0.25447867937146373,0.95011451124131,0.10826392020960406,0.08799642417345237,1.5788625084232295,0.061131867221194305,-1.0489044548757331,0.9656614980460364,-0.13976370305686098,44.75645585753794,0.9877554920151339,-0.011924306683216885,0.03893133355973391,0.00841702208050415
,2.3087103796440007,0.5695769541639647,0.18836331435207884,3.740425381153938,10.62063742285178,-0.061504325494233375,-0.3545444954378633,0.20254070656238607,-0.4568189015347686,69.47660663920291,0.6590877117474033,0.001475197328169203,0.9503005200283303,-1.549692315849745
,1.1001747901764167,-0.7529217295326407,-0.17374595462582354,4.643872880358067,14.278790630576744,-0.34638545133810583,-0.6302522696726718,0.34378724258361065,-0.2373376974448897,33.96895236501682,7.270326529834758,-0.1726327941454404,-0.26622908574133036,-0.06612065783832848
,-0.0678102925742354,-0.5505965390507483,0.09578707934631346,4.5180945796555285,29.53733248060459,-1.5862370858116612,-2.311428282936037,-0.4926630426398261,-0.39675017855605843,43.18577502714545,10.097165997689592,-0.7265416725823626,-0.21441889803817718,1.5488520140755673
,-0.4154622290686685,0.2239685520674283,-0.10094802675704548,3.466812709915915,24.312206778643148,-1.3314030808148916,-2.1207811020431744,-0.22955808113607018,-0.6409487331832887,50.79772786810212,9.620918867320425,-0.8826012968579375,0.9613880760717386,1.4823541743316258
,-0.09146702507717275,-1.0814539327565411,-0.23763438517129992,-0.6574718927741552,14.963148133509725,-0.28842203625015733,-2.53717043263442,0.3231711661376683,-0.26484452761734184,2.5569840856521204,6.600629165807111,-0.4399231302983056,1.9000067845686046,0.1759560350725155
,0.7960265346575004,-0.3677156698720289,-0.40195138427072774,2.770222717154625,13.176435753158053,-0.3820223652469118,-1.727980942737762,-0.12252694696907375,-0.43591023996718076,30.65915225936124,2.356670508821251,-0.39884165782593894,1.0061116081498838,-0.9145665416741947
,-0.18219920255110625,0.3215017742316762,-1.2015531646444013,3.6473737817518335,12.047296859016768,-0.5012459248487399,-0.5483193648550859,-0.031340019960567275,-0.6433468169497566,54.40570166798593,2.3230088104041724,-0.4988141202305409,0.6954416262054188,0.5690672204173743
,-0.4105173038373038,-0.5033247868008717,-0.7541286220910225,0.5894109299790743,9.394146902136855,-0.3345916184993756,0.17278330168103456,0.12781220088086775,-0.7738660787162713,33.74296508322363,1.6343619095954243,-0.20074313922326875,4.189605334924363,0.1296580367825935
,-0.9341148201314974,-0.44663332774378955,-0.48257972147538003,1.4398992015899357,8.076768805323198,0.4505164587303957,0.06818333634691315,-0.34897018245728584,-0.5998158382564764,23.352509643258387,-3.1755094568813784,-0.259985227586006,4.5185214558014986,-0.8197116202255711
,-1.4632814003072963,1.5198548925615278,-0.24354713014581578,-0.5234243356274041,2.996413639979098,-0.5685421381620623,-0.12720481234627118,-0.4166046954219321,0.5070943678608401,21.58021629388928,1.6677923140626818,-0.205439628220374,-0.16255152058975045,0.732184821123192
,-1.154923240079041,2.748977713916805,-0.350164713379661,-1.3874595875517521,9.279632491319472,-0.5376443551799576,-0.5844272830815656,0.18517065474441663,1.0618864461342234,-41.53900822341745,2.0702259215547207,0.48797704671265235,3.0675538241416573,0.4960494242153943
,-1.2344547017802145,2.936789501247299,0.08391676705456222,-2.4175123440666613,-1.1646977153431208,-0.4374976746243089,-0.2752080377205896,0.22016087622272318,-0.04271080287637524,-5.119226716648571,-8.816010017467402,0.6477295920218091,3.126730937757116,-1.2146967466130463
,-0.6823641797087718,1.578962615946819,0.49068252260984413,-0.9237764945639877,-5.3314171278085976,-0.0258858110919294,0.3146108063434145,-0.1997054742080462,-1.2662106137554312,15.287200643825319,-11.132364863152613,0.8569134240518452,2.8876670423728714,-0.8933937830432261
,-0.9533476571858851,-0.2058441975161558,-0.0660888182137342,-2.857317096729291,-20.254973847310993,-0.18912063013082964,-0.1376092090312322,-0.7299154902857807,-0.8545491038810479,40.51804207492627,0.6513187746940731,0.09269393904081537,2.95718614621528,-0.9514557544333944
,-0.26571400207392254,0.08132514949814051,-0.6701782077624623,-3.6608494681725547,-23.904930977068098,-0.5045892615168064,0.004191165835868394,-0.4579796121881014,-0.6769980832914327,-5.938392873386548,2.1996617658302293,-0.2858850622204545,-0.41054545321653785,-2.502928332369397
,0.42050003697312166,1.349464267520759,-0.13219380631355776,0.16314781425690028,-3.468431590963495,-0.01683705406018829,-0.5222419296034836,-0.12315176871097229,0.10108851359165656,-96.66814661915512,-2.3402169105142288,0.12196713982960637,1.6140922322491884,-2.0520948909876644
,-0.30626040001780364,-1.0722067052534865,0.49355297743780274,5.024444816508089,-0.5949142916878397,0.6180497948319171,0.2948916864077864,-0.527544508634881,0.09870698655516265,-25.138577606761565,-6.933832285371177,0.15951057162393897,-0.19381148349956298,-0.5286144657365858
,-1.871811822252249,-1.416120164289067,-0.05350537247435277,2.7736031382632,-3.7641495880966507,0.3262955348442982,0.3529053395769333,-0.7421974099524843,-0.37360101570651866,-9.321619626745461,1.9704180161442333,0.1806163338616507,-2.010950127016787,0.9586293272514875
,-0.9565821990041627,-0.42177296755945226,-0.37915873847709713,0.10545544288344026,-10.754412088677265,0.025594602750554894,-0.5296021183693844,-0.4958909129489165,-0.3219717735359766,-26.815406931403214,4.1908089697793125,-0.03379220248122217,-0.40693589464453694,0.45179501226692986
,1.7850715089511227,0.837504540047454,-0.16358365771314176,0.3979106940470716,-18.217976940323968,-0.21622590517447715,-0.5528752114123713,-0.23486781940650409,-0.7919447639691699,-39.392062933906615,0.547030517370647,-0.1618121447826336,3.2161054652455388,-1.5188583451753463
,0.6518420204381786,1.0202195196580561,0.04735418504126029,0.157537080368223,7.878820100770122,-0.39070301329367396,-0.9101269016679744,-0.1770237124850397,-1.3119016408168076,-25.677794687381255,-2.287572795545841,-0.5897779342902412,2.5636644762788174,-2.063073204538229
,-0.2748771969697841,-0.07311919346757219,-0.036264294915582605,1.6063558813327803,10.802978527732977,-1.0851061965056725,-2.0189095056342685,0.021391896268019905,-1.407803107482293,5.047513041371035,3.5974329808388643,-0.5388380723071453,3.1868872578466103,-2.2851569595088708
,-1.1909857271799535,0.3008931524702572,-0.15234076420082968,0.6798407837598397,3.8661017672852633,-0.9974159572373076,-2.4318436796086775,0.3678024763646559,-0.9192366425360107,31.165800135390082,-1.3741973899098892,-0.12769357903899264,2.31970641662026,-2.0990255200677166
,-1.8010753190049107,-2.2619254262976702,0.05010173956448006,-1.570608044578733,22.264797449409546,-0.8698516782462223,-3.3881048571511467,1.7378217017314526,0.41979427254143603,42.651574492677895,-6.56392934013293,0.2312757284829649,0.49063100969148743,-2.0326242856739016
,-0.2360741061752972,-3.0578543110073126,0.18653885375409499,-1.2791972306048112,14.349612004680873,-0.44353594908316973,-2.6088162410963256,0.5725676348772656,-0.8579627292296729,57.36377414684546,-8.601753752364923,-0.11931200191994,2.832839392271478,-0.8723447512649557
,-1.3700570277632291,-1.0800603278838445,0.6657383100069308,0.16769051401411242,10.70523896308742,-0.6452770961307283,-0.05289056226373448,-0.15926277266017144,-1.0988312425176148,22.762532436938564,14.736089389455707,-0.465768970320117,3.305355834450791,1.0838061860641128
,-1.9467581568230552,-0.37380486509941246,0.10911254805687905,0.20596628502280678,-10.384229107948055,-0.3168031362553433,0.5138911416215145,0.22055122520173173,-0.8466640545317511,-3.4323361210779177,25.83082214494591,-0.2073891206996311,2.9705602152181214,0.7056261969658654
,-1.1985541820186525,0.5178000426187508,-0.07462930377706221,-3.6373233768710693,-10.302393279721045,-0.10235426093490993,0.24836507193882443,-0.07210013032124474,-0.5600637225723056,13.68379672467807,21.161283980711314,-0.21943725374115164,2.9697919724631703,-1.3295658691034224
,0.7849451134738477,-0.5882294627684884,-0.2908080295867693,-2.978940524293664,6.996137082468451,0.39469216477038754,-1.1179480557093615,-0.6400826555912875,-0.27114070072570506,28.6866764444944,-0.04701712714814706,0.12838214301923387,-1.0288323492521878,-1.1361539437920447
,0.6017658789960258,-1.1096696888165316,-0.26859432436115477,-0.6427450248109052,8.523392487447852,0.3899815214402437,-0.4181396813051282,-1.4195924995681244,-0.8002142382027103,28.42403820035261,-4.828732789868453,0.26822632017044357,-1.2520446448046607,0.4672296847479
,0.42441065164103575,-0.08582460410801201,0.28058260591690154,-0.24607688785568013,7.374920446677739,0.6181592908751022,0.5923883437580045,-0.37832177830823965,-0.13686494251337034,15.100084013757872,-2.1677766444165325,0.37479180080924507,-0.5111974966972169,0.6480961054216356
,-0.5103590198693544,0.7009870781183326,0.4557918201318828,-2.2782189290141055,-3.6366022621979806,0.5695315089652837,0.9512393543620437,1.4698956936016032,-0.2781840977555378,2.8153207969702345,0.934633596269886,0.5851904416690444,-0.1684282631536667,0.7041905818620092
,-1.3157199527822792,-0.44639534217718785,-0.23027558285184796,-0.828662125186302,-12.14708154359518,-0.36577829950458574,-0.20389735094738065,0.296222064655781,-0.765156748148062,38.531479135150825,1.9475931090632732,-0.0018136420275609313,0.04602209224271503,0.5375579103185555
,-1.7101549042530093,-2.345917794415833,-0.5664539392123547,3.436464981552986,10.27119402275989,-0.5998468150427252,-0.8435422884132753,-0.848193044228945,-1.4763858074430478,40.37923502728918,2.891999994931773,-0.40675422063241756,0.3864281077370384,0.33653465012162154
,-1.8680041504593252,-0.9699186618261985,0.09956241274219277,3.7779060128502304,19.995069017537404,0.3161462414445786,0.37088390330392906,-0.15865052994322942,-0.40288533009247524,12.371256400352696,9.812872319112685,-0.1709987098369045,1.7301271233767634,-0.2070427548212553
,0.29810944869984535,-0.5653340752742436,1.1717619050998287,2.64163240262968,18.972159564792044,0.24558004932212274,-0.0760663398291743,0.1949556264210876,0.2784269294056426,-23.76058693538847,0.9294348050241528,0.9303887913956407,4.0046205386996085,-0.9588946662287423
,0.6299635104184689,0.15179667001387673,0.5308640237589007,-0.3970996974695601,11.561746235729103,-0.5176332758174734,-0.500963313703221,0.8740141547543888,0.0804583696313967,-3.8369740084987525,-7.137330832582258,1.043071976534372,1.9751284749981965,-1.0538631101412825
,0.06844955462242028,1.1131648993277243,0.029829308232277415,0.3647384120363855,5.2920061619116945,-0.5791815611293533,-0.5278895607158295,1.085772503884543,0.02426507801519773,14.845012813502834,1.1022546734685166,0.8160273327832674,0.46645979307104674,-0.11507903571761387
,0.1675362061527404,-0.789695069951514,0.022430774717762676,3.2169326408351955,12.074984105850854,-0.259086146591092,0.11129353703811222,-0.1754900484909611,-0.06180994798787842,34.66039409970983,3.6274691199115328,0.6969477736042526,3.292299307395152,-0.28783932153013486
,-0.7102304456092496,-2.4354490736287424,0.4285621548832907,-0.5625361015822685,-1.470974965593177,-0.8526467626082402,-1.0540226510320096,-0.6851332062248301,0.11482009122883767,11.266911167816104,6.425291601043255,0.7149411258657897,1.8010503298575853,-0.5858361811424251
,-1.2793253360631593,-1.4347082534776612,0.3162954818337756,-4.0799976401798705,-8.902959519305137,-0.8138689002398884,-1.1472207082615735,-0.23141051338583798,-0.5499780208012878,-2.003975906912548,4.024078910345681,0.30419068553211315,-1.778231265127799,-0.5214625796098215
,-0.9150710124939794,-0.6615574232788752,-0.7651580824650843,-0.1731944632939172,-12.022080120523654,0.04114027780362245,-0.5485245090996842,0.3151202280306677,-0.7069212266800545,31.073430652416718,5.871142551738671,0.052844132386200504,-0.2393642938530783,0.2734147896349841
,-0.11987245554133687,-0.7391445185228982,-0.872191971303059,2.3611714544466147,-10.104168510227431,0.5972737728041809,0.470571297326406,0.6008653756163005,0.015569290630472061,-7.979154696407962,11.242770765774083,0.38338800372541,1.4381811448199098,0.13224135885008126
,-0.10788876573476594,-1.2048410805280882,0.4738348854945666,2.0987972028319755,-5.221690305088017,0.23567514899479136,1.067089333338896,-0.12622266732557544,0.1739366759395333,6.508159628480901,4.365074623133141,-0.03633773596950965,1.5502908623534637,0.1366634084988798
,0.9414543439428256,-2.4983546746750034,0.17065690301467365,2.2621489685846505,-23.127448507878675,0.4716191588310199,0.9975579513949449,0.27478395329563005,-0.2632925705641685,39.99282238585347,-2.454467129647916,-0.10302082411571337,1.948409595188843,-0.3049382278540736
,0.9871515290432247,-3.446428263562906,0.40149600764123916,3.9836064462960756,-1.7917113732219871,0.038448050550693266,0.6728730886926485,0.05992472733018082,-1.0510677759802949,35.176987425029296,1.181070766958458,-0.03471852628682301,0.8293823334351089,0.40104935872127967
,-1.1244048896574852,-1.6026683248540534,0.3219044885885543,1.2981665531015507,-6.929401407936958,-0.4898861780808173,0.8352305004502972,0.6811871899253881,-0.21622561387187486,-18.382743731800687,3.9736240847413793,-0.019942624182955955,-0.07177311509565394,1.2029226862131597
,-2.010586326684643,-1.2359304235678517,0.09235308259551807,0.14089131826268708,8.19876704882372,-0.49517637767967987,-0.04474654964175258,0.148308226635585,-0.726411399215734,-56.1644965154498,-3.1991930465801444,-0.321959103454749,0.7051510268413159,0.4923191095591455
,-1.9693362247546027,0.23693520507594823,-1.012388545836337,-0.6760227174646575,1.1188265709328744,-0.2840144577600999,-0.18394360820607977,0.5970487189708761,-0.3656544301957928,22.42486360883223,-5.80690123068332,-0.32197817883056185,-0.013852149143291246,0.3197702013922293
,-1.4674138288014786,0.1752381068166179,-0.9600347551044629,-0.2316388724607234,-7.94642002678148,-0.3330426694300143,0.29120229844170087,-0.4182398271677452,-1.2739502480290101,55.54164537751886,1.6608889351862124,-0.4022452443033544,-1.8763027053613337,0.35543127498101407
,0.34939794997892015,1.1802910272846021,0.05321589614711092,0.10584064243084361,8.321388916427361,-0.32458643325560904,0.5738434278056298,-0.4903381698633515,-1.589766513597856,41.872177688889884,3.7471331566363317,0.623691903034574,-1.8169521086913951,0.493028975300248
,-0.5785288137725915,2.6772482292798787,1.0341363300113857,-0.15393968269683148,11.113313960430107,-0.43708943608205475,-0.5311791535678477,-0.6116142854887313,-0.8387899443220537,19.697564863105804,-2.07936671848396,1.2768380019396035,1.4240597858422779,0.2842265740773118
,-0.8005445445007715,1.3566438767653328,0.7119122590098231,2.0864881256574535,0.47756249378554655,-0.29569651030135435,-1.0495840398021867,-0.8811249248995926,-1.1594194200033143,-11.396966775034938,-3.6069448520417247,0.152022476019795,5.078093265047681,-0.5607507614509358
,0.21269283495049165,-0.22067397884913492,0.9292988212962211,0.9458344261740759,-8.288356024687035,0.4741750176896712,-0.2543165877124705,-1.0139965187632585,-1.0725190136115939,5.217550332509757,-4.422107092316456,0.09627989759586214,6.0018701211477055,-0.6775673096485129
,-1.2477709551090863,0.322846575223259,0.8775681831328057,0.5961264494280901,1.2811226309831047,0.9412866481488594,0.8930804978534013,-0.5967469244666441,-0.8029045388676376,21.1782023850843,-0.3181047542425105,0.5623996966121101,0.9023481129983124,-0.6925270800242773
,-0.7052202456723168,-0.21428246438874685,0.1196530202029228,0.6286763810505223,4.275881396493302,0.24687788529838692,1.1054046727140685,-1.4159259376520965,-0.39777933863568976,15.327533335547008,0.3216430099826854,0.09108897317357623,-0.2505942972642824,-1.8489918057299657
,0.49898307496764416,1.3543761213924512,-0.2076030664327731,-1.7357044601670057,0.8421007353125267,0.2030342970554918,-1.7018116200256663,-0.5935642208112561,0.11686542467582947,-1.536020361200165,-6.551458109626236,0.29728280205129065,0.9679795390025382,-3.025042118119564
,0.42864506320015044,-0.03369112215825233,-0.6957703074448658,-0.3654095738755302,-6.188010032605517,-0.685730031748871,-2.498518738710602,-0.21803551080903802,-0.027568275473769128,11.464106099827394,-6.472464137214666,-0.4640324173556096,1.065702121556807,-3.2598496421699745
,1.7831947340314518,-0.6947532244035833,-0.987989255015499,-1.3419341514276162,-5.776099616732918,-0.6537436464710676,-1.794585669583199,-0.5953587881561695,-0.7422962469902679,50.71249104155166,-3.734331247265419,-0.5281994691813352,-0.24193043618869375,-2.8043864191719656
,0.4165798752108755,1.1236077157208557,-0.3095265547428297,0.7239630266812522,-16.319789752835824,-0.37599791188078796,-1.120458499790968,-0.39249576110539564,0.07115625431034432,3.2618068382502083,-5.434224808753829,0.4148625780729672,1.2957674964165191,-2.127015783094696
,-0.24138240265419017,1.7471193158245324,-0.10165767622009884,0.8795516614803908,-11.867350827143179,0.549192304722358,0.3689424345468411,0.5898542877931858,-0.4146299681475414,-109.78623460122789,-7.14231875783283,0.7889278325920572,2.1603498623752926,-1.9044357043420657
,-1.2820672526642578,3.2386220565222876,0.4925627567269783,-0.2259902881015069,5.718354090801535,0.9905596013413568,0.9276759020158838,0.9669095925390173,-1.1069240309999109,-23.672715469918653,-9.427950591317149,0.64247424468946,3.6843380354470776,-1.4334129292653277
,-2.1239275446265005,-0.7397809635138739,0.36663044220367047,0.025884453907954665,27.244916570856365,0.374166195320628,1.759267085809104,0.06193595062955995,-1.3078098503962154,-15.692278285449676,-0.19732580111706868,0.48931274212607223,4.01756709924855,-0.4716940260495471
,-1.2802411362709623,-2.3020831582479615,0.12037878947237514,-2.0498220379735677,13.486532836220944,-0.1756699895581924,1.5329804658332753,1.0360587129504104,-0.24785244704032755,-7.87963598570727,1.0978272222884324,0.6174574347907283,2.620581635201819,-1.3001502042431974
,0.36023381976500235,-0.8811614649532781,0.32958599117714094,-0.48322969204337424,6.80579070509531,-0.346157334230545,-0.3728113314621838,0.576629278251732,-0.1591477728909321,3.522830967939365,-5.080871456377095,0.3427772057328674,4.211796234944982,-1.3886104630790923
,-0.08037370164857978,-1.382323437754649,0.4145751339521515,-1.395961087919047,12.430426769631884,0.08197015131515907,-1.1034913320966353,-0.22109516713836183,-1.0674062196228105,10.992399653446768,2.619383853383307,0.8118636766857726,0.5961418368813916,0.1980447839173152
,-0.7434179928513547,-2.178391538205117,0.10711882115720595,0.8718222509364023,7.26143836026893,0.5787184699651307,-0.28635695232974706,0.4421195730326926,0.012829883653595543,26.212064210577843,1.9714754107821941,0.6627834252812032,1.7113913138759178,-0.613817229517313
,-0.5316247318059153,-0.4591729097791531,0.1287494539994629,1.5903080552133004,-6.201926405740639,-0.13093571404682108,1.2487035266771995,0.7514575359224515,1.897939658383617,-2.5364711619817446,-5.032709829349858,0.8899331878114631,3.70434543345417,-0.9867739022728551
,-0.9308020520768971,0.9139400079209478,0.19899669334204909,3.127458292452841,10.943679266623812,-0.12053037497972705,-0.6135713957494072,1.1578880528934639,0.5608872356352604,-56.862236176881105,-5.781524967562923,-0.0954480519049526,5.4522049537564445,-0.2200878710670171
,-1.9240905968483255,-0.0008278398387661683,0.34829645323200487,7.651730015113738,13.799335685178763,-0.33334728684061565,-1.370603872264545,1.1147206016287297,-0.5759933832509315,18.56743605073692,-1.2325680236273906,-0.41066100100049735,-0.5599434265779922,0.2644771566969221
,-0.5635158844801841,-1.485064561152245,0.6368031742898694,10.537608453916251,-2.3999920843322933,-0.7353699818379985,-1.354467303654967,0.9123348183043868,0.017989639907142963,57.84478935272038,4.495715761411477,-0.5948303164291686,-1.725297690686549,0.39321896329168293
,-1.1373254075526114,-0.12175031291210386,0.10883827556512703,7.426579044344161,-9.374811262208432,-0.5512827679288457,-1.2290534234181274,0.46677594683446233,0.4733593403419114,18.549697392244443,3.7416219425980626,-0.47388868150263036,-0.5457644042929207,0.38634333982768243
,-1.0038784611386156,1.2709581560595504,-0.3465991547449817,5.654200973658381,9.499537832637635,-0.28104667783070747,-0.026377219225850655,0.9015075733295195,0.3047192174186969,-44.71156384855657,-2.0027226107372513,0.1817288697846468,-1.418892910948989,0.06926293922350124
,-0.5236128847958273,2.3147263475008546,-0.3101130471929456,6.142629826251831,6.670349651777256,-0.1284653379715543,-1.743914228843912,-0.5556745292284018,-1.1800602819861414,-17.924034405645223,-0.4888045853522746,-0.1868567268222745,2.383816085459964,0.4646286990745079
,-0.62888251108285,3.5495986140410776,0.03484550768201729,1.3743698565086147,9.838627340821445,-1.0392613539412388,-2.0691820799721232,-0.8433220794455021,-1.058108547474449,12.116219722019503,3.3028388126439343,-0.9388559485849127,2.422061758211881,0.42584935931007173
,-1.6905636834283193,-0.5126953245336517,0.05798097535059034,0.681790351749289,8.300608046297736,-0.8772686395575927,-1.1349759470200624,-0.0056265353435528045,-0.5204956595961642,-29.715565294404556,6.346298600034417,-0.7549665508507305,1.4020834620435239,0.2765017428138166
,-0.7546881849947993,-1.0239398155127741,0.5623359932337891,2.029308481101044,-3.3424302514970976,0.01562818956667461,-0.3404354703462535,0.10044066985089097,-0.34768446521483765,21.504848194867623,6.548243250316142,-0.49135433749433044,0.9997257947365332,0.24452084486595674
,-1.4838451002682325,0.8235723985741424,0.20260384906814757,4.125239379106145,16.180872335748813,0.9428864542883437,0.3180321552657829,0.17682810114640723,-0.5665696257675426,0.25170436830296694,0.3598275048750674,-0.2281551165504964,1.2264632213932054,-0.027596844759999094
,-2.277336763675537,-0.3616196485305914,-0.015179286546865458,4.694127746994148,7.2974962619033175,-0.03785398184713135,-0.445560906676573,0.8197238340801111,-0.617074800035781,-78.41963571782387,-4.223124769189096,0.5178007901566861,5.088584498597102,-0.40213664451683706
,-0.4247820620261685,-0.15599890767011684,0.21702387469095796,3.5871842292534377,-9.422753215947365,-0.21662020451678343,0.7156625217261656,0.5881443005712252,0.2154804344589177,-48.10891204570936,-4.575002533609501,1.4115607734363071,2.4457818982719783,0.6075296574322125
,-0.7625535854899417,-1.687935731802829,-0.09277929929531127,1.1359263482336384,4.953108594745173,-0.17511564150141373,0.5947148878657662,-0.23724621378906355,0.8122860078024008,-26.249355487465156,0.664335648176,0.1650287084946607,2.1671595660401497,0.04706848859756628
,-0.7746341253267623,-1.0479130590337609,0.06401396864182084,0.8645311951012067,3.8834519155269485,0.02042309253156499,0.2079223917532515,0.18766378865755262,0.5185608298870037,7.177717799470029,-4.4565516356524215,0.013227597978146773,2.237490663510909,-0.8578191451686166
,-1.5059431790660516,0.1760766692703797,-0.19651016344295102,1.1915197155509072,14.856806754555981,-0.2692172381230488,0.7638242173122797,0.5040279044482795,-0.13085555943634866,22.07960808593791,-3.7782348494013873,0.1938088255066638,-0.9751476488635816,-1.035978875642306
,-1.7126222094910262,0.13822841835448463,0.46614623874711253,1.9534462057616453,16.483485681209245,-0.2798357703227075,0.32435649172831993,-0.3219959735231061,-0.035133784327048063,29.014721267649136,-0.6497700383622161,-0.25327082543097873,-1.0748669336315098,-1.294471835241904
,-1.5363523908675802,-0.46179837432927373,-0.2589903994578435,3.8235940191366695,6.246129839326338,-0.7730920473263632,-0.9405289618708877,-0.21152011225580514,-0.7741209204627831,45.69529438886207,10.921219746652527,-0.24564275361464796,-0.22743922875888378,-0.6818034703536587
,-1.1554589399292727,1.4591837223009618,-0.616039342063508,2.0320672655203467,-1.3691928546851444,-0.14252408231274202,-1.1735503352392151,-0.038847890410514965,-1.4197970774954278,30.99040832062684,8.993539044849506,0.3029434703657958,-0.5839537486969879,-1.236141440818706
,-0.1836323957839672,-0.3369533344771912,-0.26356889059560135,0.8440880767650598,-30.736963569587573,0.21695230811748986,-1.0192055377048443,0.9027040630968521,-1.6283213151512363,25.006727542806754,2.276339638727794,0.005228020035602989,-1.4682634419540976,-0.6496174658852983
,-1.2474660446912071,-0.986124744470709,-0.32212478036646863,-0.8237332132249813,-6.846555080389482,-0.04791098222982067,-0.024961752790919615,-0.2914269223934537,-1.4107514590234331,29.35177759441913,6.581835558363957,-0.477135282643983,1.8346481691153256,0.6549300713056042
,-0.9068803070175708,-1.4259554384042494,-0.2733663975047694,0.660847577914868,7.7978077720832415,-0.055884175570349456,-0.7763277804620697,-0.9074226699442498,-1.372006270124741,23.609993983771275,6.860310249746605,-0.2882967723461748,2.0784886300737098,1.0061972156433845
,0.19413302787671344,-0.8966579051822645,-0.6182388044232459,3.016045359779357,8.10713964823919,-0.1439317166764288,0.4014091893676227,-0.7635267981734024,-0.96135440491969,35.017990627944585,2.6864582382740445,-0.2146461761399933,3.4349658923736386,1.211594960438955
,-0.9288121190199887,-0.044266203703081125,0.14546171756891957,1.8670930817301281,6.886903864579768,-0.7322959984593379,1.231522277405859,0.5735366349838246,-0.12175341685340499,45.441431726967686,1.0635868208621728,-0.6585795826912855,5.056326332814227,1.3654351388579153
,-1.253415908149688,0.09090372865362702,0.35938436044696315,-0.36879482150474363,7.391210283758843,-0.5332878209846935,1.262824212357586,0.9109108307633768,0.43717188440626176,0.37058788432689704,5.402427790707907,-0.876711911751838,2.6925968960133266,0.4257677335139382
,-0.9646282321720134,1.1806973942337489,0.16455697202373162,-0.47403806779026747,-2.6711713398790597,-0.13259482442352544,-0.6005212894838533,-0.27700868301470194,-0.6012240693007601,-2.7718501982092794,5.739149683174974,-0.8532364823210478,-0.27791879322510005,-2.1796153290344242
,-1.4270127479156431,0.922134895841613,-0.7100270533234023,-1.814486628223728,5.663293250872727,0.25257535234015754,-1.7729400432701987,-0.11442620051206957,-0.7532730853986515,38.57696335254204,1.2038128381833892,-0.4306561017669702,-0.7402878214193434,-1.9065319795244178
,-0.7444986111209899,-2.6350765605441353,-0.30827972211679233,2.8920853184615565,15.600227873306698,-0.04805863931559308,-0.5580211537920634,-0.2407713230287724,-0.5096988507317114,48.15100680191895,11.73899225614817,-0.426443753001238,-4.028936944109425,-0.25429258631330703
,-1.4470571900766307,-2.4003290553765964,-0.07029476041977564,2.5651870605198708,6.732078853389604,-0.9185120427969924,-0.0568249293762426,-0.6943002488073301,0.2539535192199704,53.164968204774006,10.579913388344275,-0.03193210719591936,-1.7336992385902883,0.7340937223785585
,-2.098109427984786,-2.3589986742936038,0.21316846064419337,0.6962780173808188,0.6296743613071635,-0.7195966206122194,0.009778809224059212,-0.3876534257076136,-0.8994107667068568,61.10854472220426,5.314401415418643,-0.43618164881074556,2.146152647160353,-0.14701055927798418
,-2.087021006397027,-1.826687746779102,0.5262783780684652,2.547853390454659,-9.143917900492276,-0.713475611964314,-2.3494045267408348,-0.49825725424155454,-1.3573177346046694,56.69025017652089,1.7007296848173843,-0.0459928356426616,3.2275673463854897,-0.055689074858406164
,-1.485887948961734,1.3402377047018443,0.11628027531878397,2.640010964837486,-6.899305537125449,-0.6507705445965237,-2.550797733761956,-0.8769850755489698,-1.7555893537961644,25.11195642023308,-0.6202648208143711,0.07834945598240393,-1.232232223187984,0.7368269031367902
,-0.4000809141544543,3.632554159397644,0.010226026055906001,-1.6194514136195262,-7.431360979885787,-0.1823878086331993,0.2737891570863393,0.027949378874499622,-0.5333435608371726,22.659918309874524,-5.458097778824273,1.0413097788916628,-2.455904829370604,-0.7341525331150005
,-0.08253182545852734,-0.006903575897453735,0.03472074907796279,-0.26351068769234737,-0.1135672635996726,0.030977326864511663,0.15409006161713473,0.4439572982003075,0.12371758577444834,39.58520591924456,-0.9243438348631928,0.236631271120169,0.7565372203750006,-0.42780270522137986
,-1.1967781941988405,-0.7552922394488917,-0.22177498691415642,-1.1687309150241156,3.0621914726736503,0.004465003703965292,-0.5191903743774966,1.2838615144574372,0.5304188970406849,9.516814495561992,0.05785858571517791,-0.04016552312644685,-1.368552270906686,-0.2741861676568696
,-1.2698113492290657,0.40446075102915124,-0.07787051614651161,-1.0720929076752244,2.7963872905433496,-0.37710491635363724,0.434635531112799,1.08250465813524,0.23974499854883494,-35.42513868985618,-1.126122612690521,0.006796031152846076,-2.713774649555113,0.27032972082446344
,-1.6227150968403,0.6212657177762614,-0.18083838935555577,-1.4094875716307496,-2.4535011679530627,-0.3741885344806742,0.6064320701121989,0.0789777125207093,-1.4354266461265521,-40.19643694147798,-0.8586622185531426,-0.23831763383186882,0.321948311939148,-0.2406043904125648
,-0.6052484621068225,1.9495338366648227,-1.136509262952046,-1.6598177798090623,9.147057632843522,-0.26365747145951596,0.2524163941431356,-0.3707218043016786,-1.3777508122821363,-28.06275763555475,1.027919046713971,-0.1409691401609782,1.0907982294278369,-0.0306634513202273
,-0.9775794072428675,-0.5385948512005148,-1.3755227584998893,-1.909912806902938,15.237492947953513,-0.009394238795983986,0.9279937616228074,-0.21818949221949693,-1.1486280239549587,-6.697587782175251,2.0252401924737176,0.3506840817924617,3.7206533273711653,1.2509655352227436
,-2.1056999610351803,-1.3398909539342487,-0.6808908380843285,-1.6949029415747159,6.389650001721932,-0.2996221605205695,1.2019648509823113,0.5334346461135984,0.381838269556027,49.86306669880736,5.114361640438999,0.8311000957921199,4.185134283102938,0.6452640024923818
,-2.183632030669619,0.666194798317598,-0.39542270740923,-0.6589155730817167,7.033080127774926,-0.3688591566638278,0.7856095780003455,0.6896736425447008,0.7123473723904452,52.101635625894595,3.551451491135705,0.442663972130141,3.6246652306863174,-0.3702995877618118
,-2.1582113642425904,1.1883923171990156,0.5302265272617153,0.8462423698690084,4.976629143235665,-0.5767285436278607,0.25373327299119763,0.6135960079309185,0.6247072820027896,16.243136017115955,1.159255145488013,0.0791767000589329,4.132319421263186,0.04505326454014679
,-0.74254707602892,-0.6560052146643963,0.27305016505438817,1.893304337994249,12.177040824298103,0.08813683615091372,0.4218207582643732,0.5621300006166425,0.7765420880685743,42.842887567515966,1.2138561692653493,-0.24459185289926474,3.0929676013689513,0.6640326460514681
,-1.0018614441572469,-2.7302713940811776,0.18424524754179616,0.292920455724208,21.514716366810173,0.26747670476257346,0.9644910611940088,0.07255443021725919,-0.028916576673969203,40.16235186814429,-1.600557020265124,0.12555073218122617,0.926917708094784,1.3297845314681804
,0.5966298101720819,-0.5000980048501551,0.21157195435429016,-2.115795949469234,23.542800532380173,0.022813982457880966,1.4537183917911725,0.7487397793097411,-0.130568934367063,-32.556107836775546,3.1090383772914105,-0.5501809551396982,1.906956326371489,0.11209934204305497
,0.9075524102280237,1.0960939222302757,-0.4151035482371495,-2.313080641389771,17.32638074907276,0.089137720218788,0.7026503194476382,1.5016361031478993,-0.8530355707422264,-49.01197325089476,5.682727747259314,-0.5823647331131588,2.5608570832308715,0.3571752903600567
,0.8370209852804896,2.2204454296865004,-0.30761935151086395,-0.27949578992930796,-0.42777987431142556,0.18406054984573983,1.14892125433201,1.5292597131259813,-1.5512029267694663,-3.6855763980620604,-2.747672418294075,-0.14037511310234096,4.315152187666778,0.295072115476712
,0.3161118029134422,2.0888997021523545,0.0354138028401574,3.2487478885471517,6.542987999020781,0.11477195891453791,1.0023128537121733,1.127785539503095,-0.0042062936412884805,-3.8216295498881427,-4.27647011926651,-0.07480220865210672,4.482425111010505,0.10079548532075795
D1,1.29835835783554,0.8915922318401824,0.33662632490530603,1.5191653950776571,-3.47751613666944,0.47616000870304276,1.1928892258329238,0.36196312941990955,-0.5764407233043576,12.677471204004938,0.8698204918052106,-0.34311797858876714,-1.3599255798329835,-0.8509998526141723
,1.498690730565702,0.40079318348366344,0.364707433276007,-2.8775400944713856,-7.885567915595495,0.15545917609742113,0.4748507933777351,0.5714263014958203,-1.700314027000685,-21.751582883404506,5.3839924346930985,-0.6302199122007548,-1.7263561165335362,-1.318807215931153
,0.3752146234275307,-0.052467228945423904,-0.039794617315986984,-0.1019889367295797,-5.716485896807736,-0.3477419446237342,-0.0721290161554989,0.058523780458730315,-2.885542110241607,-34.398048127514414,3.999062414487299,-0.6863000641877877,-0.5645040146727601,-1.4736345041005152
,1.7122956867319727,1.223503015040689,-0.10389179538929492,-1.637590050317936,-8.158325548462958,-0.038382666716280434,0.02145430234095853,0.286084501535702,-1.7158033044880965,-17.535794510894547,-0.9918890936154994,-0.05252209742655202,2.716923837746616,-2.33710410589108
,1.6182403930295222,0.9044666517605638,-0.23167922878556496,-3.6679719165569358,-17.41820652682186,-0.3044249014087312,0.07690096002720848,0.19157767833167294,-0.9029461519209314,-28.837839922052183,-4.541952702588955,0.1967967252334816,1.729155060170818,-1.7579880776960348
,-0.716718887835381,-1.5246864751147096,-0.0024516385381979115,-1.3392841012557648,-14.272582761320109,-0.6043341466425391,-0.36177846633140054,-0.9289179694998677,-1.581297731717883,-33.216034865674935,-3.3518293168073465,-0.08473598634895554,0.8659844871749101,0.03042376141996275
,-1.2730194715051697,-1.8348493999367599,0.5260323179955927,-2.15946359694383,-0.5460225159758841,-0.5553442168874402,-1.37123533351867,-0.3108314666444301,-0.5062161095065045,-32.95347065595159,-1.2277178905830588,0.06857551204555047,3.3675653706427013,0.9706972202119717
,0.027308878936755116,-1.062426163474193,1.0675383084407488,-4.729095936685521,2.106818790598144,0.012278591768643845,-1.1223802765376454,1.4702191602672576,0.26876081363630633,-94.86473630382686,-0.9602917060272572,0.4885525515019488,7.217224911761285,1.1434597113227347
,-0.31144846254472736,-0.9803659694263198,0.45688154449668983,-4.687508592485536,-2.0298441992112344,0.01053627213644462,0.1745187734346764,0.5786954032240723,0.5627628992918172,-16.499743936564403,7.975134137886189,0.09625004645520988,1.351944862520707,0.6642517326839877
,-0.7364234819759637,-0.046504769544614966,-0.11917191631750201,-2.8762863559118976,7.269540747976826,-0.2447742680588428,0.18909320212933006,0.29895162496676536,-0.03631139055522192,15.50569667530943,12.424530743052246,-0.5625606749526678,-3.2757648068676186,1.434462862808017
,-0.4099071930047105,-0.8346120900526579,-0.2995730050541466,-1.2121140037400333,-3.2701615444837886,-0.0964215231154928,0.3883457729079134,0.027999986098568786,-0.7254144393235726,27.254280685313162,2.582183014901206,-0.49084493108494354,-0.7125765658438711,1.1669651599639477
,0.2185158073420744,-1.35874284336033,-0.23872275233156837,0.416561096934531,-15.165992768865307,0.018434618373772336,-0.17284989435782203,0.3826107611410897,-0.21807924059367867,14.210623739112503,-1.4861919020045755,-0.29942327541151514,1.0330052168341841,-1.4860312373208908
,-1.03521033806194,-1.0828756935793746,-0.2979012966100628,-1.4232726134443523,-11.80485027290692,0.3720839591900983,-0.03052844718179627,0.17079981052618656,-0.29402187271350405,-16.637795648691203,-1.1908317787997598,-0.02685318407349214,1.5259453116913468,-0.9039460315987391
,-0.8670094928998724,0.6240334055073901,-0.5839570079604383,0.20557195601055434,-12.28526510482718,0.3360827483772737,-0.2528090793307137,0.635961087829418,-0.4072273249702575,3.869840410028741,-1.2039307278241405,-0.4619394042775915,0.6737487605685176,-1.3224801206932768
,1.0370590880600923,0.05355519684980132,0.2076632640560827,0.44978686783088345,-2.030226537930525,-0.3595723549675714,-1.3096485502069584,0.17428060609573306,-0.5870583316615121,-4.050583911020844,1.4599902784664462,-0.8655752873307136,1.7298411851115378,-1.0922845008620607
,0.8018461760052521,-2.1315400782923137,0.13982332720116045,-0.3223780678099933,9.366134427999368,-0.18775835940852614,-0.5535489384130258,-0.4066951647618908,-1.226007997568594,19.163497143746632,3.525354451291278,-0.7031712358124961,-0.5469082657671901,-0.04696442403242553
,-0.728436249488286,-1.4000433147708697,-0.326972061581947,-0.1581313727940192,14.725902564659124,-0.08148019891347058,-0.23481399903315806,-0.665828806055242,-1.282817614219144,28.10663136905415,0.9816030963963331,-0.842120980844367,0.1815182106994836,0.5631096121297641
,-1.863787398846179,-0.7938375380768808,0.3095662359114747,-0.5867625641214687,-2.428044595606662,-0.3932178175778287,-0.7243297752386635,-0.5347001834279784,-1.0209800881394862,-22.844836878919164,-7.532919939641753,-0.48059143951586697,4.9376051340448495,-0.6009372641796358
,-1.2424089960144271,-0.28596658375461564,0.888577662654892,1.1034340403160598,7.526090723800965,-0.48452331503635043,-1.0143665233364765,0.30741056639992503,-0.5131840648070439,-6.596918994840372,-5.944584381869317,0.2575284774914624,5.123313686672569,-1.597191287628041
,-0.23450095841663116,0.7137290936031301,0.35625527093961995,2.052535561846993,-2.396111183424717,-0.8087129020401198,-0.4884621055496854,0.47872896105051715,0.14825881159813128,-7.145150433250929,-0.10509800239752484,0.613131322882422,5.0993438682279635,-2.1156944060451486
,-0.9102835225252492,-0.4609541821953699,0.0385671502874269,1.533579155201198,7.257496299829201,-0.46016715882463494,0.2824024234146879,0.2196170449348118,0.8457676227901242,12.112654263849866,1.9726775050528953,1.090627786787598,5.3037225961939205,-2.3791051218795523
,-2.4085931842593653,0.2818368579137889,-0.0735239482690843,-3.054589961785642,6.408978725316743,-0.01970343255971896,-0.09905074384419879,0.709154882824697,1.7699741328816314,1.6169867119175154,0.7369939628502818,0.3428797716462167,6.705772006154688,-1.5892787619201778
,-0.9896060836216541,0.9084077138067573,0.6705383607899167,-3.9579769690880284,-18.59550364647285,0.1934093814093275,0.31209048027427516,1.027349769176434,0.8213992961000283,-20.337470256578868,6.968066075482732,0.34931844598418815,2.305296538782358,-1.3251195949300318
,0.7364779327961611,1.0327471577446634,0.9918847585062788,-1.0863292672292806,-10.090030950388737,-0.017508239936869376,0.3333717674441423,0.6647350507347326,-0.4746298933956877,23.03312819919423,9.153378998578468,0.2969180231550038,-0.2597809828626596,-2.015370550571086
,1.2040288689805183,0.8313978103446437,-0.12826311262978501,0.532769359869126,-10.19322735191077,0.0765084732948815,-0.22011479017908875,0.08703567052410652,0.08814103586424957,44.94499327236148,-1.2309504786346934,0.22535390617485782,-0.86732832769652,-2.315921846587765
,0.4385131800255898,1.3590545644505054,-0.5339581086461582,2.315727361286262,-15.497726587198517,-0.04796537014757903,-0.45217358166403476,0.2538170407148297,1.2678549765897504,27.928063919385586,-4.950700755102305,-0.10399910437033988,-0.25452217620381795,-1.333346880582093
,-0.9925504508746898,-0.3363966598668094,0.4621555468612995,4.109495023309833,-16.17683081942935,-0.013732541499877163,-0.7686473408090988,-0.018523358150603422,1.0410595619537846,23.19483871097128,0.4201352365358984,0.27554458345801625,-3.700511476619265,-0.5740821615043649
,-1.914577065932654,-0.9184040956674211,1.4745133017819874,1.022554132348992,-7.801898626992009,-0.74731954073115,-0.8214910639323546,-0.45008418668073075,0.050708772782401976,1.7922973398379929,4.6609296163024725,0.0012630680121837805,-5.924740268167894,0.49173432502064884
,-1.9493609292103946,-1.279953976509214,0.3124489974842147,-0.4612402862198811,7.964890446512486,-0.9109446515008354,-0.7680598062875491,-0.2843105277180713,0.19583565273917192,29.40471479315713,1.4537385866833028,-0.7102062731588826,-5.782585928060525,1.3569506031444238
,-0.7295481905373361,-2.0070972179344766,-0.07524256635830269,0.3433549143075939,16.474058080907277,-0.21739964368718273,-0.04275866136048125,-0.24319447387326706,-0.6779021637863981,-8.026524976965113,3.763163891246447,-0.819906649964598,-2.209824689152136,0.7649738083188957
,0.4363246296486111,-2.239260894746049,0.5248793468416652,2.4415050743361584,-4.111480778836019,-0.5609613480577508,-0.4943682702001414,-0.19083868307517207,-0.6958720644317323,2.427377060342512,0.8793062295469943,-0.23721821778013924,5.053936030754362,0.20631935652170424
,0.12192977882260037,-2.0216149665442993,0.13549680144315768,1.2131100406575241,0.2170084584892207,-0.4727819180100975,-0.3028946498946018,-0.07513267404630988,-0.11030202614600274,36.38419808999756,5.1441263611329,-0.2966810309825172,3.443580713110192,0.82082417874634
,0.15854730207671092,-1.7563052809367499,0.3962600824773426,-1.0501891005151245,23.27624120590157,0.12140013009108692,0.27721472211322906,-0.05818782416112611,-0.11833928007918006,-0.22023157323665782,10.444130032903603,0.1402327094030841,-2.5763261236401807,0.4365152090498339
,-0.7948894955905471,-2.439748347029444,1.5855923440777044,-2.260780620254663,13.17348423083862,0.02721720132888018,0.5152049698699821,0.5269595122014448,-0.11680240101334076,15.198194888787297,10.164767177583965,-0.0979398596120769,-3.751187371707588,-1.9584855089020392
,-0.7000919080848607,-0.4316122611590282,0.9493326854034289,-3.3162456364224835,-8.386110844209924,0.7154336561157647,1.8696136643991421,0.8068501610396074,0.45596272468018967,1.7157828625639233,11.8471102132084,0.1401644856710366,-1.6708137879209068,-4.53211021518069
,-0.9055921913496876,0.029908571545812248,1.0928690374271977,-0.820462707051202,-3.7804570493506016,0.08737229860253642,0.8456889886846745,-0.17969463067807326,0.6188538218611965,-11.515750643651138,9.89545711245157,-0.12373271684433239,-0.3081506620324937,-2.9408373111457964
,-1.1941069565604057,-0.3809464855254063,0.9772602396475115,0.5302926730576603,-1.706013404727937,0.36161961089276357,0.7643626248361298,-0.3271986559313531,2.2830760312544305,0.920327272355056,6.638252846394203,-0.3937236378396244,0.4754454489054766,-2.033723430781979
,-1.316107632268639,-0.7270281002317183,1.2291910600571179,1.209427377286022,10.166042871350875,0.5291091865838067,1.5207114281422747,0.3642233644079829,2.086380865390926,-2.296370497246155,-0.13633652125005702,-0.26246533642243514,0.5801845276500408,-2.0238606095337253
,-0.8038365328778285,-1.3200424084142144,0.28574036579849965,1.3861992956167914,13.112441076116621,0.0616272984558819,0.5964852665039089,0.17094421318054434,2.501229838763583,-17.748053254484343,2.6092289223939704,-0.8407581303495038,-0.31310201680329314,-1.3572170137666044
,-0.8144587181054886,-2.0515646845354287,-0.29325030559706866,-0.5540671370032384,-7.96732349436493,0.32502968166589524,-1.641881244387679,0.1622876413016388,1.3156598990169794,-2.702045126400469,-0.5261619665743716,-0.5199455376644504,1.9072894392448292,-1.7575203983684915
,-1.5221413558284895,-0.25245250318089235,-0.0871351585245106,-1.2541329468431057,-41.27027840123698,0.1970795885802155,-2.336681506995482,0.23959842276032217,0.6916272716651884,-5.398662057780723,-1.2611243438910316,-0.09836436358744116,3.8867198996985928,-1.6000887744698273
,-0.861162192346034,0.8899572400892789,-0.12295606322165431,0.18288382347478246,-24.070522627330295,-0.44114655980327794,-1.7495508633936154,0.4901093518109684,0.8775149966406202,5.245232691643275,3.8345258663873647,-0.5078296382894624,2.283713903901261,-0.8261621464729795
,0.22275672256423648,-2.0203373507626776,0.19592491953436328,4.616504284819311,-17.017251737456697,-0.334604351675252,-1.4944424333055875,-0.4064295299760047,-0.03563563903099809,-18.057826028781083,3.2837269187326177,-0.6749779197582446,3.3544538192602107,-1.429884687490862
,-0.6843600009549109,-2.2921518973010464,0.6415402317987293,3.1891142498032794,-23.537208709579343,-0.27417404917959987,0.21780921998810768,-0.591247299936813,-0.8298874839333108,16.686034747263598,-1.701650805370704,-0.6600422463886275,2.308590458198437,-2.197048072558277
,-1.8527366018989135,-1.2434054384103834,1.1166208939695,0.04229400969840876,-4.951775546682345,-0.529360044916795,-0.3906047557722384,-0.2546882851479044,-0.8684046711457394,33.482328953266844,-3.4440859139106146,-0.21275295010328094,-3.3688331270204475,-2.288748364020077
,-2.3145717278621682,-0.9858323176586239,0.13986684188542192,-0.4806656406834988,-2.6351307125120567,-0.41678964277324737,-0.827108107608555,-0.3251106196996587,-0.5000931035149613,9.53943956839014,-0.7407776478281627,0.5438171723753289,-1.7270187131141537,-3.4302515370892204
,-0.6876961139633283,-0.9563893978311286,-0.06671884809091845,0.8668165563496998,-13.27132779126955,-0.6266421966469031,-3.3844942476892297,-0.5001583989739936,0.07310752106562717,-12.405064252467993,2.902202165054346,0.19586441246252273,2.6307669130508464,-2.7819266906582034
,-0.26644757242754824,-0.8259955595528268,0.023704815145720818,0.4468905311578407,5.662500289005826,-0.38699484802444317,-2.9443195688033104,-0.6537897607925363,0.3711937392733338,-41.81848016550159,3.2754318870375103,-0.10893011492368813,3.4666172286474533,-1.5558958658883242
,0.641246646896311,-0.15482290067528873,-0.1765402239520582,-1.6002044097109458,-2.129306649116127,-0.00980615371727236,-0.6216292226632207,0.4916919499790213,0.561125890293722,-57.99101187046511,-0.10210814389224639,-0.36889834723436643,0.7855916239854782,-0.7693636215520477
,0.3174437788922133,-0.6077585041808709,0.3217647957886289,-1.3195425511463519,-9.559113019834927,0.0280432083203468,-0.3400624227286293,0.7057510788920317,0.41702850631314703,-29.6158115597527,-2.122260258579889,-0.9204954337772752,-2.8236342516187314,-0.2885496613120134
,-0.25175067339713214,0.1995230859935746,-0.2448958597104058,-1.4103055593934426,16.059649524003035,-0.058622752329802186,-0.22307272436555936,-0.058790780730898315,0.5791977301046287,2.2020070024799527,2.166433021297238,-0.5500427851184969,-1.7473415360174092,-1.3792369958582174
,0.03223151878970003,-0.6684552272712331,-0.9601172176537828,-1.1915905400607474,20.06354532333507,-0.5341766271319783,0.6139304249422026,0.537454357760205,1.4735242992388549,47.07984212709325,7.460452125954147,0.1046803867292889,-2.2780345640334443,-2.375672265785046
,0.20894087981849924,0.48646509114790937,-0.008179728892803604,-0.3105355615676068,18.140898101332706,-0.39075405380538775,1.4598797404215533,0.9086694384596873,0.5359705958117296,43.87833610861629,4.908125680423797,0.18052754621250958,2.0882489391629457,-2.5150015307699474
,0.06674300775060169,0.2926018151900892,0.6685865723239265,-0.33390247011209734,0.794747155785487,-0.3020432400543704,0.763822509664907,0.9377544305773923,0.26961588703064265,31.182912684468086,-3.682008160357791,0.43110873617353884,4.187544436997109,-1.60313585198198
,-0.49080834859008515,0.716499352405227,0.2651028127806069,-0.21395189605806947,-7.894161459007099,-0.5332760637138553,-0.11635342585717193,0.7132599721262759,0.5136929528090692,14.294470426369115,-5.036045601761076,0.6641570043301382,0.6993318115990145,-1.4748537880360093
,-0.8419944589867179,0.5884970142430814,-0.11678490898245615,-0.8618845118700893,-2.419777934871243,-0.5587961004619928,-0.5028935844535765,-0.30999306086946543,-0.35580809742605934,-8.379328843445219,-2.3797708091881904,-0.2424814653321438,-1.4328330254264325,-1.6599115783204346
,-0.8930885861073234,0.19574489481050228,0.4091749603872097,-1.5317968875487997,-4.153934629111365,-0.2390116471800463,-0.7093467305529689,-2.6399535218580747,-1.151663034292978,-14.26099731268443,2.853296151132189,-1.091727123941597,-0.9080472620510134,0.14678207262465154
,-0.08871155439074772,-1.6166656085366315,0.10002158434353924,-1.1344527543151297,-5.363691494504262,-0.3007053367671325,-1.7788249282879023,-3.234884814637361,-0.27512945907723174,40.439356425759925,3.9090842356709103,-1.4175807324586263,1.3851706544321523,0.6664927357756772
,1.0222197212527901,-1.3524715644212193,-0.31422035131631715,0.6825927719111868,5.3629440213916295,0.05852558935419147,-1.2074117085207474,-1.1400555420119274,0.2282158679749526,17.160247667243322,2.836307034950812,-0.4354274775723886,1.7592574129119638,-1.1604382424389046
,-0.2765713448060487,0.06002515924627835,0.264094423605491,-1.6061074293944277,19.88489579702334,0.09870719909318096,0.5821808718208833,0.21992864139369367,0.2331862968834691,36.48278976452453,2.9438231043556438,0.0675411011583796,1.5725044448851553,-1.0489850644032825
,-0.321800853531873,-1.7572566125162536,0.2675010790269181,-3.462101272809191,14.197731496560781,0.384534374544739,1.016961906344331,-0.21282118854853704,-0.3569793368965575,40.692657561130865,6.463513649911517,0.9160985780010238,-2.4319091640421986,-0.1347900239406938
,-0.6355483135747448,-3.151903944887673,-0.6420798098143707,0.5159375718911621,-3.820171691949813,0.3287466152450614,0.4730560246945719,-0.6525522471662036,0.07916531443264015,54.58081297777423,7.037232571423685,0.3562962646783459,0.031785651939074254,1.2237814074573115
,-0.9958555781406552,-2.499392060258191,-0.5422223301783681,2.793699131573531,7.214757334612124,-0.9385736380355219,-0.5412708910725222,-0.8286764310212101,-0.3651944221584779,42.205724055751816,7.989092957484527,-0.7238011167057045,-3.399449368351021,1.6573904038189406
,0.05378714669353002,-1.1341339811990834,-1.6944505030254824,2.724682262713553,5.0414940757005935,-0.5268600164278877,-0.44626013271927245,0.0903006410028652,-0.5568888553145432,-2.8804568926265235,6.887881320295317,-0.6679339369598286,-1.6852009206150642,0.1647185895110618
,1.0005928906209172,-1.170311493323718,-1.9903857200678579,1.7823665107854518,-8.921993197620292,0.07422632478886908,-1.1914158185059442,0.5495655090953435,0.671886247831799,25.11452446670907,3.7485329549823345,-0.20289339317953048,2.0095004606500173,0.08693588756227588
,0.7933786710177919,-1.8571308179674009,-1.5637814133545023,2.9414691304988874,-8.68443872187677,-0.08711278879456594,-0.8785172962121277,1.3779193457527799,1.7448503579066774,16.993009023614633,2.700042390635163,-0.521359558618016,-0.800554325242131,0.4498339533457759
,-1.2169544228287816,-4.042623978146193,-0.35975832397355334,0.638721569116219,11.851331399880392,0.34271078676513916,-0.14482764275905385,1.0582877925678937,0.6742328675205145,19.344931123648596,-3.1586718629568225,-0.5353090216397189,-0.9790670939340723,-0.9849317279697514
,-0.8212001041398413,-3.1570817971934755,0.6922856604815176,-0.5018218274135207,15.267401882882814,-0.13006095413206814,0.0983267480133983,1.032003592091855,1.090579009835942,-0.5875062678114052,-5.20541907646218,-0.212387848035832,-0.8440046283849865,-1.2642089278567368
,-0.7902670254108253,-2.7680168687248137,1.0874822285868904,-2.182448139053185,-7.530951272648515,-0.25174153116509373,-0.1301422080149171,-0.6881058627183219,-0.9419475497870123,-74.04555140529298,0.5886380752053163,0.10341233964934825,-0.8110190189290416,-0.3472543934753361
,-1.2093526110354658,-2.0348984002869708,0.25646272652619884,0.12067926095482558,6.534630145325144,-0.24618732567219917,-0.1734607182682391,-0.5157809380661679,-0.9538072228767946,-14.560002725444908,3.336129182755353,0.1432590857748678,-3.921240359185461,-0.6073012330889012
,-0.6084687057792652,-0.7146486596316481,0.1380297265182336,-0.33262329405804786,10.205319210139665,-0.12355899847012108,0.30062131852941654,0.9827588602769319,0.5639489363176166,3.7688532599283295,-0.6339391606628332,0.5618073991720482,-1.3494402780158965,-1.5290089689583735
,0.6514356210754477,1.0031928365647378,-0.09913366575318192,-0.7411945932358982,9.93501009174784,-0.06766741486904325,-0.8855809398507667,1.3108520191249604,0.9378614573616518,13.921778916263142,4.989392271663027,-0.5103576594876279,5.670240068373852,-1.1234760067893612
,-0.8661348537904039,0.9316249773964304,-0.42397005494611295,-1.3877821762377285,-13.231234064253751,-0.1985358978221295,-2.855385694382819,1.7381903683231887,0.29273321943554237,39.70772505489049,1.4754367752647908,-0.5412717940459129,12.953323536481193,-0.8342877050349607
,-0.2500445460102791,1.7451793309473496,-2.0560493036953864,-0.07481569238462749,-5.903230072081414,0.09190954513662727,-2.9640853242198975,0.9342957704761466,0.2726082872334952,17.989149269076304,-7.435447517615017,0.2549032474463947,6.944475124820904,1.2289126396766505
,0.7711318690329859,-0.2577504510031671,-2.09552069645375,1.2616175496328357,12.19487189245999,-0.4982049693900227,-1.1530075439350538,0.9199687103870012,0.6191421474212307,31.538717727691555,-2.406825191125806,-0.19908809548707107,1.421548410028678,1.8259404339973202
,-1.150265471410544,-1.89534798815385,-0.3755558926831136,0.4006442239159935,9.94830646143331,-0.38990679679862045,0.009982381385778973,0.9588065543132657,0.0658420783277191,40.37789519980556,4.032247848247781,-0.6237363610677746,-1.6230346292566986,0.4991839966590483
,-1.6581821400478112,-1.6618781376810725,-1.4982668846214924,-1.7682907782829693,4.394196859913842,-0.2888773122472292,0.6052124456820405,1.092288774126193,0.6670586883438465,25.03264017953495,5.828395076813965,-1.04794981764203,-0.4377932800804266,-0.1921169028978354
,-1.1219771004582297,-0.7528847545235988,-2.477217501166437,-2.1037086284332407,0.6831258268029412,0.5682675743826137,0.691281773035862,0.9319835600254252,1.66525691812836,-16.232073776859984,5.409357686075972,0.07050339323740858,4.865909303080592,-0.3024996072112015
,-0.42521807742413054,0.1144756780506994,-2.1424946197872328,-1.4501762514650753,-13.760071623796826,0.4136690038791998,0.8352276356988942,0.7198719504813526,0.206579842428735,-17.655726559345148,2.877873795437892,-0.13652650053801824,4.7488706406063335,-1.5001373756445595
,1.1118769944589673,-1.0267092636797022,-0.459414328428464,-3.380822218974896,-13.68078906398251,-0.11455530669854487,-1.9737291946841473,0.35735577215759967,0.5309043684089526,-47.54595878163229,-2.1265417649293994,-0.2849835543165766,0.15836587075695205,-2.837687603883758
,-0.1736170280516463,-0.5507707445340136,0.4251373605484027,-0.05369078139303512,-14.812074064263818,-0.7593845350084878,-2.6885063687120865,0.40170485354725133,1.6522378158429263,-78.61752877101968,-3.4334812111417228,0.12325036762074591,1.2578907202135157,-1.2825723302801668
,0.002928868441777197,-0.23982600007977134,-0.1386418097467743,0.9998661319468625,-2.1763859031010915,-0.3070274214227357,-0.7642149911929791,-0.43684180168343184,-0.1705345824087496,24.35196489260123,-5.157409610393133,-0.07801581638605966,-0.22608295955491417,-0.6177807692926882
,-0.34112623952429666,-1.941197162189753,-0.5057182623969236,0.5571452957885581,6.41153302223277,-0.5300758387949884,-0.3963745164089273,-0.008810850007622537,-0.2870217312172092,78.43981667885912,-5.336782158845573,-0.5377476040424112,-3.142379463101713,0.39748445634172563
,-0.21000755697350174,-1.815825484649943,0.25820275607188325,2.08287931180198,3.9472078911123014,-0.8804830843626028,-1.4157003080910289,0.3820325069747451,-0.7100606962879586,30.603459302798118,3.264640184347448,-0.39817655112355216,0.23096474634262296,1.2683172459162761
,0.7643341152183754,-2.0323231948774985,0.9037936998014595,2.3937546274288612,-15.315017589120142,-0.35793182686204306,-1.8530289697778242,-0.0003697029643857846,-0.6281145121107513,-68.93356716965111,4.647885386728038,-0.3964089829699969,-1.465663979802518,0.7432060311929459
,0.6111031111108324,-0.2855075562057312,0.9622934711039693,-0.27508580781295694,-19.833388727603943,0.18615998204396123,-0.4316646707400353,0.47365943237889047,-0.025096781196030014,-47.1237916926798,2.6513588073507677,0.11036622093790173,-2.0292948272992217,-0.2266887649672314
,-1.6079374145530057,-0.5377375629711534,-0.27359050077332453,-0.9089119424863231,6.693153509558087,0.14505623898413567,-1.2027811251251714,-0.06558621473473084,-0.3498721865500452,22.729865225063094,1.9304909598882287,0.2883695645685216,-3.633953606857402,1.3953131708514088
,-0.7818350374425105,-2.052776286132795,-1.1262740091794943,-2.573184656782163,2.5417201868931,-0.47319204138549903,-1.929527456687254,-0.2808621042049416,-0.12785429552362204,47.84176408996201,4.569288461800001,0.11583354808267406,-1.2653736939267473,0.3501045508400135
,1.4802355180555091,-3.1831412863917716,-1.0063900050591106,-1.3429461842735433,-1.6024346745430798,-0.8346916737609285,-1.2221801037332298,-0.43959273081351713,-0.8716970483191662,43.86524019843499,9.705465196225541,-0.19048786452198663,-0.9926705946782209,-0.5953776047186131
,1.0833034392581067,-1.8016094210820073,-0.2385460598856018,0.11580532626978476,-17.108981749886564,-0.28008364772777194,0.40599568048823664,-0.2150805592992456,-0.6164682299381786,8.359987025805593,13.460315038401864,-0.32048000705137764,-1.521320436574141,1.0151693368645145
,0.04706219927543598,0.46256155776912244,-0.355087923282676,2.552589395195472,-0.2600175091213916,0.10093588720520733,1.0019168879233094,-0.005192022922519971,-0.28214342495611083,34.952658876103854,11.616075850960783,-0.3428669009245017,-4.415276599616793,0.8428871715221031
,-1.372815730259616,0.6739009407369012,-0.6561505833850388,-1.8145050879587306,15.124372893786294,-0.33326196128857444,1.3486486333506742,0.38869805901578613,0.049442736960592544,38.18476788361593,-0.9352604906488141,-0.13549054353364332,-1.5217321917790119,-0.10728026387673867
,-1.4630347176580645,-1.0519531258120611,-0.2247802057716252,-2.930506654263653,16.33066185319344,-0.2918964334157074,1.5236086666781274,0.602592190760239,-0.02236494438938168,4.120931839518583,-3.4192846001077615,-0.16545363410242184,1.618517348284916,-0.0028455118893933144
