event,eeg.af3,eeg.f7,eeg.f3,eeg.fc5,eeg.t7,eeg.p7,eeg.o1,eeg.o2,eeg.p8,eeg.t8,eeg.fc6,eeg.f4,eeg.f8,eeg.af4
,-0.8277957950440674,298.7779553283831,0.09971973436314385,-0.14135725022697163,368.17716527226395,-0.6271933382640928,-0.8429390528619481,3.4146802060877732,4.4927702681948904,-0.012646729810604865,2.6883844737121123,0.29378647828879745,-2.792814285010878,3.253176237978396
,-0.28982207110565705,176.03579695336077,0.4376717237334445,-0.38352761259423535,51.99196370263783,-0.5952106998583366,-1.4978897631695327,3.261886732179482,3.051690881515882,-0.4177612668042901,7.12610541363526,0.278301822640177,-1.048166996099523,0.890100742341721
,1.3624620711561097,249.4399354685363,-0.5549863292342314,-0.4336718506136547,-93.51979837280031,-0.16191081460487836,-0.3037435411735007,-1.7441859286578636,2.018282219426035,-0.9057943085708526,-2.7782519240099135,-0.6475603373356107,0.37204222858422703,-0.362229528974723
,-2.2356111169429562,368.08759421783645,0.39799290824921785,-0.27870697818420226,-101.13462868649472,-1.2103979571716614,-1.0120298446166363,-5.121265380525113,1.3590599227282976,-0.6486945614038508,-12.595416335236209,-1.6666870867168995,-1.6645805576131882,1.6922266929615142
,-4.973563946195705,-14.639174503034516,1.1542251376917243,-0.6306691225427585,-95.83519586685968,-1.6870496337761145,-2.1105549336957568,-3.2059590635653143,4.056621063229757,-0.26004799586413746,0.8485896398030144,-1.0844844505345625,-6.32737703399492,2.344400393588893
,-4.61793834407182,-297.33285275061826,0.36363393267796273,-1.2610978895271747,-0.8538459192962974,-1.182222826557742,-1.1820775633336424,0.5175983102100218,5.278862575513193,0.18652274092270743,-33.32981769141014,0.25718406397175414,-4.525829271123157,3.1463878218383514
,-3.6579631277451874,-569.8952581748608,-0.3796295298457099,-1.3294994000460958,158.30296521528652,-1.5696716220789957,-1.2217609852754026,3.392351434737715,0.9248131371016676,-0.056526511800414014,-19.052157689893953,-0.023078191002501344,-2.4675743571702973,2.0629630395267693
,-7.555299783536422,-223.82234005738678,1.0927655522923032,-0.5068909211423661,273.05417190389625,0.10598387397359689,-1.2519887655864435,2.164298448964743,-0.6667634139715484,0.8585600148046204,39.140789600099026,-0.4620124516584836,-2.8823049023321796,1.9314731415869855
,-2.8477859739193425,105.03250599209679,0.3993294956481923,-0.3657084952046666,595.4167384315053,0.9207832658965818,-0.7716566883132002,0.5614030359389931,3.2926442546993715,0.11698671345333937,28.30527981033362,0.23424724168606986,-4.5355222562748825,4.179943686104488
,0.3069576974277107,104.64998408688511,-2.5042377246416363,-0.30855710816200377,951.344732133702,-0.8580178367536342,-1.4732576329504217,1.2102586684571905,6.2807060017407865,-1.4667166216499963,-3.0663699458875624,-0.47848895787095774,-2.9572118716388798,3.631700564892566
,0.6079198396073767,206.50894346349446,-2.9930381611794856,-0.18054688287775641,773.4803913130906,-0.5486708294572087,-0.5977631729817552,0.9520478828799339,7.7920283908259185,-1.0078267561692569,-22.525670664701543,-0.762526426218272,-1.9129076472743953,3.1676473689856874
,-3.2207722473565483,327.3087760090723,-0.7849876736471028,-0.21432953499638702,-50.173121386753984,0.03567320764308109,0.45999762891970786,0.7797418001313396,5.668249903227321,-1.1880999311457692,-28.673125101560327,-0.663886523067198,-1.9630280574384094,4.154811478826504
,-2.5702150660722243,137.07893830486915,0.854583288393736,-0.38241560188124846,261.3756463298627,-0.9747505452803736,-0.8887181633801914,1.5071674047800745,15.98883266174711,-1.6669922722561288,-14.683894629417775,-0.5597167568332287,0.04931396780001848,4.585497518763146
,-0.4743428173937652,310.0291335664303,0.7081602620895178,-0.5857719357950208,605.0967062405658,-0.6015753262842753,-0.9242968671052291,0.756326391113355,11.92715878916314,-0.7559840413335523,-3.484647047946416,-0.6525630206890668,2.309089638632184,3.1236038490678104
,2.3214500525187014,44.962002291830345,-0.5907586385814875,-0.7434564963453931,428.5597536385911,-0.2793146196587756,0.6106735000285943,3.9685312743791106,4.9919070209087275,0.1776476970562738,-12.731428038888495,-0.38104755003989804,4.147135306457783,1.5952950913614004
,-0.5718976284909942,-135.52886663021556,0.05586871097568842,-0.9789410196709102,570.5459266799343,0.454419668319879,0.35577002540912217,4.0225403826017985,5.6198708656575445,-0.8224257316158329,-17.591352444100913,0.16515923718577707,1.699303918311767,2.1443524943899845
,-2.2760587434597483,-44.284901153337,0.8863290926870662,-0.7629162866184995,889.8185161944616,0.30393467805205027,-0.5566213613991197,1.7586305506731579,3.8696402812466832,-0.4703879761724835,0.31326316324269615,0.9684801744656317,1.5380836957754378,2.4666142411684886
,-1.7766419662063373,-323.0043052943083,1.128291541141303,-0.5798530502373049,196.23999155759606,0.5580093076013101,0.6574928230329624,0.7977403186606618,4.420796604199686,-0.4776104557863364,17.791407998323425,0.6136956230509506,0.04754321170813907,3.0084129118718272
,1.1831898739525772,-11.036375655111742,0.5710185393892124,-0.95465672223213,-624.3275515278581,0.08339905247079518,0.29806846019133443,-0.32831369535407456,0.87271422280819,-0.6916577877167266,-14.062695525691016,0.30177943349710573,-2.086064565604733,4.704618565161821
,1.186157600672885,40.17703616368306,1.0490239829565446,-0.7334242634670529,-725.8611929117199,0.9225888870300872,1.1347943441453774,0.2290075793034733,-0.7686274394453588,0.016373382883348744,4.286797334675281,0.05898189097734274,-1.810016112674207,3.66698165095288
,-0.2624831332291961,227.26642439026386,0.05983678178977265,-0.6033512170646976,-376.133439510389,0.1874916583689509,1.657876549649795,1.684691536712251,4.642929051295965,1.0517777420199583,-7.168196991531632,0.47618681745347674,1.0689231550826126,3.1556856371220157
,-0.026221860780134772,124.35986955432706,0.5462910145785832,-0.48037742103176945,342.93633556225905,-0.47659936116849366,0.47903586767653894,1.526039466842117,7.74832659660998,1.2803300681695722,-22.468067086832832,0.37508969296784345,-0.48518166751396863,0.8512929075337071
,1.8771527860146462,-114.02525454363285,1.3777318761002086,-1.354517211737096,2.586100107755643,0.6632538862796842,-0.25849742135097753,1.5731864490914984,7.6605845977061175,0.0686215693616101,-11.826073537294779,-0.1220431748932802,1.8689720485617705,2.453191268400739
,2.740040970043105,-68.41415214473822,0.4946034544198033,-0.9811019433317096,-16.64647581438892,-0.34149631766055877,-0.6806678214638187,1.1437517934219152,5.996073542998269,0.8648233211162835,14.171875556030232,0.5416418698014382,2.4301502888840063,1.9441762904916626
,1.1240672470817614,-6.8584556445072336,-1.4356269706362617,-0.764607667771214,-6.333403019869549,-0.7288723223438375,-1.1420377028245698,-1.0823486069252624,-2.0539066267897423,0.4306990641014085,-9.945641124698708,0.4991278104798997,-0.8298158992600883,3.497267108272887
,-3.6404467056086656,52.3563686054975,-1.60173742811831,-1.3150681540938403,-336.6312627292654,1.1868471491837873,-0.564368780527978,-3.0140233344269287,-2.6183031170900244,0.7408740546820586,-17.74401018538074,-0.6677855354918691,-0.20893552053216954,2.653609521306425
,-3.066100133298143,-376.59789047213997,-0.20857834880788362,-1.122119936151138,-905.4267438403349,0.5332952534659008,-0.7607534057867642,-4.646459383136897,2.2011252751153068,1.675335789864907,-45.5203206904406,-0.16571145475142107,0.5479484145104585,1.5790687455738757
,2.47944246019825,209.2267807783958,1.4742737491533424,-0.4663900654277428,-342.00512730239,-0.2179132179205555,-0.874270274610662,-6.008389995360684,5.026693895356923,1.4696501137955804,-74.48706984147485,-0.782097738212195,-3.099843088575261,2.257251706707025
,2.471395648494707,281.29972610956236,1.5289280988934935,-0.32415737289904933,309.0464789884685,-0.11884956988628795,-1.381382493194144,-4.972967365616847,9.081296510455449,0.48306439772943666,-39.34273421317858,-0.514365471253503,-0.7126071802449998,3.7807544328447973
,0.5456574136248858,416.1923221783665,-0.016026958558293,-0.31247664743197223,473.095199696878,-0.5488326754593179,-3.8244585123595503,-3.8885300301721917,3.079918277069475,1.1449661419345054,-24.377033058601555,-0.8581885729797305,2.599187278464068,3.430698321369394
,-1.4471621861144426,317.4436615628855,0.24206050391651687,-0.5530782275207831,183.4287168877225,-0.12052186153517296,-3.0078122748944143,0.3639589703623727,3.2718148443946236,0.30367446641607937,-14.610968170977344,-0.29134732608590697,-1.0319669653624586,2.843560987706863
,-5.462068877257804,-73.44176008773762,1.702201861303278,-0.5929201546349877,-170.33542688337482,-0.6745658510339821,-0.7484039136513094,1.8188610425631044,6.769894992507077,1.1673604837825036,8.97676974355171,-0.6002546255986176,-0.3033479339164282,3.156075261938649
,-2.4572859301316923,-103.28728165676681,1.6557199574555284,-0.42876735282641854,-43.8784400500137,-0.5014681731145513,-1.1345621811963458,1.4661498269755247,4.053015693107134,1.6572942688810222,21.86738922789879,-0.709126501824685,-0.6305264759169167,3.668360392217614
,-0.0971967560911481,-29.138181490249146,0.8483083203915979,-0.6821549156929276,-177.5703335329472,1.6652954711991674,0.6651938176799592,-0.5885750521346057,2.846828906729137,0.7681956979094813,9.716433722096543,0.7877973819813552,-0.4553481189299019,4.961456508824127
,-1.8885089391900827,-276.73931610851156,0.24846245653345292,-0.8590199017940835,-239.28342666060556,1.672352585692648,0.2430036789541246,1.8179728015602135,1.5909495266398737,0.5538751668329686,-24.090073572363085,0.27898845669021277,2.7453821543645636,5.551365542281697
,-0.7828994360350093,-120.9032447946586,0.6393296294503967,-0.26996305970085666,-84.18154068685152,1.0547066179691953,-0.3878377862082014,1.0055901346403417,3.389019569718686,0.5125602669201972,-28.666480084895273,0.4942317458218793,0.9175820070183821,5.259090818215817
,3.7795397105350945,15.29855704769905,0.031241209452482533,-0.39740031799359204,136.29251153798012,-0.216270119667839,0.7825895325524248,-2.8031233903378907,5.219893253169175,1.4495735218427095,-24.371796110327576,0.1682597112747908,-2.571846556795236,5.249664408645
,0.564165106225362,90.28979885561517,-0.8986947512334877,-0.4082892722676378,366.202670234809,-0.43395647524506914,1.7102605384263707,-1.825624106293461,2.1503706144030152,1.6006779643923965,-5.451475732484049,-0.501581245861387,-1.4195714148630032,4.0859694580260255
,-2.649284626541766,206.06262859789305,0.09192173548396829,-0.2649259891826531,-489.5557234079512,0.4280913180821608,1.3572660366274691,0.844129472016833,1.9021319708372948,1.3473173627289121,11.21258115814711,-0.8596774165032094,1.3428688027478108,4.1878320805171265
,3.123624367929595,59.08406333185058,-0.5748485908818389,-0.8225285336429105,-621.1502654808462,1.5328423994429337,0.42050441923578685,0.1646370376787628,4.141837459079021,0.07741880728039573,-10.110534911060379,-0.7873464020456646,3.287754883229783,4.9677311269727715
,1.932116274793625,184.0005393710432,0.46472546766540995,-0.8534995665000243,-432.08651892647276,0.9566103696773474,0.7359537233865563,-0.3734755244613505,7.555358286006128,0.10558733708019824,-10.901131029208512,0.58021596679093,3.887174864753966,2.142046404758151
,-1.5457651817669946,249.37350007599747,1.1778344326848869,-0.7500717103971027,-992.5736726587911,0.46419286449442837,-0.07022050539712815,0.9422040801921324,7.122783745414261,0.8189415340213406,-3.974965131380674,0.878190107086214,1.645323936873648,3.4909309767098513
,-0.16491604635626753,374.97782558260485,0.3269603715537252,-1.194981881947838,30.79522921550138,1.919457574627139,0.628995950122144,0.6302924505275239,1.6756109681378237,0.9174079395154616,-14.864793004501463,0.24174860055220745,1.3793971674435377,1.796153839752615
,-3.8706327764535886,706.6222435990906,0.7947831142649493,-0.7406598952532817,426.93805148516446,1.462127882173169,1.1681530744580386,-0.7968658582849104,-3.35966432874347,-0.6401470374265896,-8.425307981345789,-0.12997867405114666,-1.111931981989723,-0.6024878915556828
,-4.179034509138303,704.9788555910015,2.28381124666936,-0.7014158274516676,251.78980288419743,0.6394666103033559,-0.3958057414094645,0.33413309369879884,-2.0515155126497877,-0.7579494698335953,-1.5542648635075524,0.06349704995655746,-2.7503789366576794,0.6686488251043754
,1.1755096345801765,412.0562500438612,1.942487390701443,-0.7099159042808864,310.1879871967202,-0.028219374362518028,-0.7632636827218114,2.4608381329785045,6.024828086063396,-0.7630699230331123,-22.007332828727943,0.6249691765094751,-0.7833589519647718,0.2571413473396432
,1.5813700853984147,312.0860923243013,-0.2042976898982515,-0.5083314242139181,96.96734962972992,-0.764330426846315,0.9914159955342662,3.301199244205372,8.002929725859047,0.2648672366321895,-11.020426754299583,0.3065465782338115,-1.2474098353077332,0.06403071254266346
,2.906014116768756,265.9015017769694,-0.11064260441975907,-0.44689703646355133,280.76385894621376,-0.49494153916535577,0.1936640273127801,1.1364602296575412,2.382006598697162,-0.6970677589546813,1.463603914587644,0.37374822099295096,-1.7242283701424066,0.6307256324341587
,2.0415346950660953,-259.10917077288525,1.7086472118808798,-0.5022724297767611,76.21460416839383,-0.6744165725320611,0.1793223919327494,1.2549269779356043,3.820663343202093,-0.6721031405073755,-13.520684584097605,0.8928910696474638,-2.693755287932988,-0.5075642685812654
,-0.7347150110646308,-99.34557458656452,1.9308798046453963,-0.6995106487744128,129.79135359809305,-0.42048159778089383,-1.4228583891249151,3.551958555041476,10.240278909867303,1.0846560596365016,-39.749398603977916,0.34840856730581604,-1.8333629542970558,-2.1845351064772927
,-6.767687137469931,304.2255619477534,0.6723882051256375,-0.8952774786427845,197.19441485382424,-0.03623348070098677,-3.0261854798279386,2.599504247895335,11.483277161412218,-0.23259251064553962,-62.07710651425808,-0.14002417406598347,1.4099623073392933,-1.7550658124678429
,-5.912347679286189,211.63264347307936,0.1039293487203557,-0.8482556735239979,-58.26718202787458,0.6110295505913709,-1.3724438934393368,2.8019709979400003,5.453779183068231,-0.6502766588168003,-26.925599275177333,-0.9788299813223704,-2.8566151394235075,-0.8549625927052901
,-5.867902731546457,-57.01225392350613,1.2697352691636932,-1.0774197205399227,-49.30452505352863,1.2205143033328543,1.0593684999608548,1.257386113667123,5.082945851717758,-0.8732210300241865,1.6007805839138545,-0.3588775491010999,-2.294101716861428,1.0398667410931421
,-6.24955634483034,158.5802003838616,2.786211200952921,-0.8805592615827444,-284.9871028906834,0.8754358583598086,0.6220269623756991,1.3893361095554535,10.172152247398273,-1.7844040015260747,24.701744011073288,0.8506071265463171,2.447298865279769,-1.4529100612807457
,-8.301669895519355,98.15632879503258,2.214276793184801,-0.835616935764033,-434.25936783386146,0.7830892289209589,-0.2956475606540699,-0.1799026990381117,1.9809737307873323,-1.2578158828339778,43.59430017383254,0.41170265515280746,0.013444537401942893,-6.528304018095494
,-7.5907435323066155,-96.53188579216393,1.4623226823741795,-0.631059174128377,211.33079616978674,1.832390838877942,0.569455511000908,0.7139958605971493,4.183553609606366,-0.4453063855289545,-0.9164817462223449,1.1308261802768418,2.3131567605973946,-3.637214144903116
,-3.531271285437956,298.7237488668931,-0.2898390908733685,-0.07729524336018039,62.5538692515709,0.16401231316783194,0.4700985586797665,2.4684284877642133,0.47049604369459885,-0.9106745385962713,-25.070900049827642,0.6587612102489206,-3.6801587018495177,-0.7601383592324794
,-1.6956981867675442,378.3180133451221,-1.255833007892883,-0.08969574517331615,672.0479738097067,-0.40619743427108335,0.1564005235339625,0.9823935555962345,5.72659488228708,-0.25005468976225764,-26.468517155648282,0.13384912200697568,-5.34425940788437,-0.48221990190065406
,3.13743063525148,39.055458845510906,0.5916867604847357,-0.03991300912313757,473.2901413785701,0.43134270260714214,1.0594057299310677,0.30689090088623433,6.649979225283949,0.971000665694982,-25.919931455512085,0.4172222593479301,0.9769834998907132,0.8024397406340406
,2.300235009270411,-408.4153649912682,2.441818416848211,0.3815927612832666,208.8688321923582,0.8641256023284634,1.073207341677299,1.6650480980756979,1.6349770033733664,1.3078978607798954,-34.808515757947355,0.1935526457921904,1.7397437097062924,0.38775383103944355
,-5.834477781423244,-658.1608961872313,1.740196974803386,-0.5830995125492332,-136.5936076611438,1.1271359385799116,-0.7207268215558282,1.7168805621804637,1.876380657110875,0.6286805838251779,-2.5075809385812886,0.364596026729388,-1.1066732547533475,-0.35430294592308764
,-6.638829553893932,-362.1010159421179,1.6550378257256348,-0.8225607846512136,-337.72653395811136,1.5670997645799083,-2.034841160699174,-0.18991325900908604,3.0806084207491358,0.21201169592876154,11.02474030920657,0.41044618501906815,-1.8792868495723098,-2.166238436305555
,-9.030850369178967,-72.89514865829508,-0.19722527094438766,-0.31660561557399236,497.40906903881375,0.04137830340342681,-0.5642824396286107,1.0410539562317287,6.03841347505999,-1.2854044138469318,9.982108864509431,-0.32415337203764377,1.1503483995038393,-4.91419977706871
,-3.733127257184238,52.145658483939215,0.004774511285371998,-0.3245706680420981,572.8069351716885,0.15628631638305054,-0.18177159782776095,0.2016366927557627,1.1606936274767157,-0.8300474092758849,23.19570581287433,-0.5984546831698268,-1.0747377577082402,-4.189743244475873
,0.22952425416601768,132.87911252425644,-0.31441935915985264,-1.0998121998815025,-8.921385206649736,-0.4693837643932356,-0.3188056630687749,-0.18750862992639056,-1.2662548827189766,-0.39241763961799275,-41.58286872328404,-1.5705639741905624,-7.468203580737013,-0.6030269670466458
,-0.16206334284428192,-332.8466222915334,-0.24304433149701996,-1.1704428137428804,-375.4506513755979,-0.2450575699774466,0.5425985728577818,2.149225957231561,3.077782296416366,-0.5906445262894869,-95.41329496004646,-0.97931083504536,-5.573080094360262,0.24007870322096972
,-6.778109635692592,-243.04404976715378,-0.5174695605227289,-1.1471524006543747,25.040369206834992,0.6329860196949908,1.218057007754597,4.399736971362516,3.3310388394882153,-0.2674470553895477,-73.79923164469677,0.19846533057192717,-3.939504059535291,0.038884157861970185
,-3.174643336893776,63.55791019723121,-0.4597761580537095,-1.4855159798034616,304.95943691746754,-0.41000535857597664,-0.30543043142140186,1.9921260943810122,2.5894343016326014,-0.4795785009975225,29.68403456881521,0.5837003481271084,-0.570492286686927,-3.799494145671801
,-1.4830407139181145,-260.2754091758636,1.920064844976443,-0.6225399927568075,772.8636095278786,-0.7755568466263895,-1.0636275412256615,0.7497097806530986,4.035476138142851,-1.8433356187982948,19.369921042743975,0.6178264388878462,-1.3829197892710934,-3.551024917947386
,-2.684432072380478,-319.24968235833796,3.737792373426411,-0.7379002083511371,414.3248524899096,1.0500793341922192,0.6514452703323461,1.827486087389407,4.928889159051892,-1.8842349628087882,4.193116177314929,0.27224976624424535,0.9635087952230188,-4.91289787276422
,-0.9832259373932449,-285.321672300764,2.5593795657636185,-0.6040189073467874,500.8257160558096,0.7888183241866196,2.2196002920478017,2.93218902397606,-3.1425834052241735,-1.1891512291957897,-7.592606815814257,0.18737528968012368,-0.5009525551313626,-1.7433915663123556
,-3.559633178812004,161.32276838044754,0.06690286199312248,-0.7998938078251694,292.1945306606535,0.9068756337004369,0.4240523362328025,0.9374896580162123,-2.250005955135524,-1.0347647613265143,14.194495137946777,-0.0761467012655698,-3.2817536369690044,-0.3855446498443789
,-7.995082277235905,340.42911204209383,-0.609371732690855,-1.8732088635514788,519.3953649798361,0.11949237882692504,-0.27213625440002814,-2.8149040460415042,7.191522948189883,-1.0795457783036462,20.773323307050187,-0.6145828270911243,-0.678736806488125,4.851670659759676
,-0.6396217290663992,29.039629528002422,0.30967225836644025,-1.5037955435879569,815.9460241197794,0.5430105435829305,-0.19116039410242694,-4.147131240815225,5.610404917891238,0.15503153450093843,-3.0666398452952772,-0.6201055505271359,1.0686880948330486,6.111715769081463
,2.8073599628403696,-83.43273949587496,1.3114499540270328,-1.0869885865570854,208.9428719225488,0.7427236898524707,-0.5056571289612821,-0.5854315833512869,3.1879846787173047,-0.3115968920963957,-12.569840325642218,-0.20355379624335734,1.6720077785225873,2.3122666976577295
,2.643337539573959,-40.750395095971975,0.7881343219739274,-0.6719443346168846,-488.5518289338858,0.10868349545256091,-2.749223069065403,0.18193659803037526,5.1557298960240665,-0.6949987170427748,-7.892405092616145,0.08964837630775285,2.4466678661556585,-1.958055982879779
,4.073680610820149,233.00932926255646,0.3730581055550502,-0.7307683696521794,-80.66915043888297,-0.310582460238295,-2.728035927067406,2.1659002463247887,9.027798968638892,-0.6792535327888048,-20.114826388036036,-0.1373682231012294,0.1598026632384528,-0.7316625943957357
,0.887939966886845,-108.29794214319541,0.46477552965623903,-0.29727720973689475,-407.89988817292954,0.39903689127791764,-0.1338673981141184,3.274144296048978,4.665987939895701,-2.17588206234562,-14.622885947012676,0.14389018344632187,0.6936737224043801,-0.951101026273342
,-6.462408927661764,248.98511136628926,1.361314732286767,-0.595046787091442,2.865956814067767,1.1373811375179896,-0.2871865218306278,2.3247017553241225,1.0820264396124304,-1.6268243023912494,-2.7067213552122187,-0.5764726782109121,-1.2947672693327195,-6.424343604026609
,-4.667948282314428,83.82502822469603,0.8760889989656303,-0.636082161250287,163.2271832887306,0.5034083816878352,-1.3019175074226996,2.017052855389602,-0.9447723621008799,-3.044321811852792,-13.60635005176866,-0.1347819592591516,0.34821950431782767,-6.246486281378333
,-0.6615610904981751,-79.55075248627631,1.2498609726467687,-0.953211704362757,153.20329726391523,0.8005956407215803,-1.8421390478713566,1.5981501087980603,3.168575186333471,-2.8552114396097488,-13.163743091322491,0.6218270569985831,4.874186013822816,-5.748167279109995
,0.10092384015087127,30.855821001968554,0.5814053693693693,-0.7922166015714843,-84.95944681819725,0.3104940834473693,-1.4416394294262633,1.3666115876465101,4.249385774936217,-1.92592604890487,-26.896621942324966,-0.24229285763006084,0.8522393164248101,-6.046751339321186
,-8.588248041084366,-134.17760672221613,-0.0313761986143602,-0.490209133682101,-84.57735455476156,0.02962433987213727,-0.6916969816254731,2.0046196813130166,7.336259624917746,-2.02737277536346,11.217197030668139,-0.2922078595054031,2.569829137114684,-6.712401917071558
,-9.43941394859226,-162.65313022636485,1.1769494219682148,0.08347773074991663,122.49292060629494,0.30019820428784966,-1.103436625479068,1.2901376225804804,-3.075383140857256,-0.7185939885781489,9.62842533548522,0.27929251540608147,0.27153990963927344,-3.652972384910272
,-1.6153036546389852,-226.83311319384208,1.4271597705981833,0.034951374196125984,-25.228842335210988,-0.09985622054162055,-1.1110989011440713,-1.2971556948894276,-0.754662787438865,0.33151823801310054,18.048445552831467,-0.11411088692316351,0.9836563812317716,-2.0476545727512367
,2.5915141819972707,-114.00083086330177,0.7401473237759515,0.13228696996358075,-416.3982633244252,-0.14216250903087063,0.9956773914452675,-4.430446286894602,2.433803300529507,1.7152360903382602,0.9317564147546855,-0.4602849535502378,-1.6502552748074033,0.97399286619919
,2.025548213275187,-207.1794715340173,-1.2229325115291034,0.3758751946903099,41.14935368661166,-0.35172670979648163,-0.13379144099879528,-4.704189935187853,2.4624951576523397,0.42587838082539053,13.11933114291408,-1.1487589763700705,-3.294557358921026,2.280214656426001
,3.434372188428262,-657.6624052261012,-1.3278339143520694,-0.20430767581887377,-365.84064716824815,0.650266738586465,-0.905035751770343,-3.7565886457010373,1.5438544225546877,-0.5452686786774964,6.194646500487015,-0.5786988993473619,1.437916031015169,0.9488083674103566
,0.7922523587116178,-965.2149100188605,0.5585141513966084,-0.12021192995733737,-277.5090491011306,0.24199440035006486,-1.534903390994384,-2.410058988061104,2.3592487558930997,0.07121073967586164,-5.1646636534470085,-0.4655974452782031,6.437493089776392,0.42698661506666
,-3.598304671338729,-773.3290685205682,0.6900067373990068,0.43583596750528564,98.75670376105694,0.7136308860865335,-1.0031529488159154,-2.6426197428588525,4.9870196144461865,0.28428902290544267,-4.7629679753825895,-0.5145338426588428,3.9222847505848004,-2.811977860796968
,0.8135545797686281,-333.1919576268013,0.8934256155777378,0.037114633700458664,632.2059905296749,0.48477391138899223,-1.2564876538764052,-5.114062750184464,3.7870699537166854,1.0093949429616509,0.7677804569668025,-1.1881970118914968,3.6492802446483923,-1.6571883079355882
,0.6463065635538509,90.87101621922042,0.8784693789806394,-0.3112729870155279,155.36568001158415,1.336242334564021,-1.082106780131292,-2.327078471179523,4.869199914958169,1.7270491914983284,26.214108873533522,-0.18005659860901618,3.492900173023548,-1.0203205459591076
,-4.635319768007127,332.01113779424605,1.1857415638781306,-0.26723944385143744,522.903691423546,0.2045001986896143,-0.45878032919199857,0.8789936702122502,7.122247817873153,1.071159816097573,7.214877839219737,0.6958936407091619,1.7436443515027185,-1.3517487442924694
,0.2302888818697404,337.55063800860086,0.34854855260470796,-0.49219814995125216,785.036721054843,-0.5806845522477412,0.040540866355768646,-5.76100339738993,3.311575150862111,-0.27107810545253136,10.343243284302085,-0.059829639088130486,-1.0542562830843938,-0.3759725487089094
,-0.6096304334724363,139.2063327719099,0.5221639299627371,-1.1082914920530351,-49.137835148022994,0.26257176142830635,-0.15198784995759074,-7.461229988432026,4.636518467552252,0.8287955765827607,29.05070929787345,-0.7806503986769396,-1.5553892138162704,0.02984683565298909
,-1.4404985703673068,221.8376226305973,-0.8671142326217821,-0.9456924458884387,505.9862472666176,-0.8222631154147746,-0.13771709717062916,-6.180730821695515,4.460325078079851,-0.754356693064609,-1.1317696703208044,-1.7724905833482898,1.1587701785507283,1.789850092940082
,0.2914684322839264,86.68670586323456,-0.9650987225675284,-0.410490672205056,691.4674308391037,-1.2525626788325894,-0.5850577261981097,-5.6666278594602915,3.0391620138375073,0.07376435958844946,-1.8709923646448394,-1.5862642014065675,-2.061345417139111,0.9843506624536149
,-1.3412490563272494,20.707484291070916,0.5608198258191267,-0.24619654244212294,751.3534376912339,-1.3880410446251894,-1.0591799529085886,-2.1889393619904496,-1.065264593267179,-0.24724179741333382,1.8860938364944695,-0.2541259598650542,-7.195930646132392,3.8144115671355894
,-0.2702769941712558,88.80545287589763,-0.16341054530804924,0.050636433678034255,701.9003489931584,-0.51413843459746,-0.47621877081622743,-0.272700088807398,-2.3934097557241607,-1.2985428513614636,-8.887281660231013,-1.0212591572425258,-5.199982700703904,7.3318167277201995
,-0.9759482822801065,178.93506291680245,-0.4591307812236394,0.09429714683883307,1206.2401538835,-0.08712749247579178,0.052139605083897395,-1.011225907849759,-8.877366790449882,-0.0556872704619233,-4.3572018365185,-0.5069182881985431,-5.443438064535138,5.856496871296819
,-0.3097004162809203,317.6647530665169,-0.654129932389142,-0.5666274536276068,1017.2993309952607,-0.37122055093309186,-0.10942114532900861,0.6340685426581221,-2.341200276456618,1.010823035281806,-3.148583456011023,-0.48840017332341285,-1.92199650711692,5.111723566202891
,-2.0797676844152937,114.0930578875233,-0.047451728570755684,-1.0341907924936822,561.9463423112036,-0.12519824702863488,0.27951115971453344,4.778808495530611,8.012572905256166,-0.12792272311859942,-10.034037143820719,-0.47649368058675057,0.6004760361592477,2.0615856853356367
,0.8690313784314377,-206.42692048493484,1.157707036541944,-0.8799636404842404,463.39983089892354,-0.16530801100101392,0.2585927460209053,-2.6437446954658523,7.859888215762521,0.19777845323472643,4.9655223320852775,-0.2268357128657005,4.312159324502902,2.3221372850200424
,2.4544105930273976,-642.2743858798367,1.4984589297445923,-0.2900219609015981,17.083686469366977,-0.29323758988095106,-0.1888838445864411,-5.859065249799485,7.7478139582540395,1.1928607221893004,-0.6471196529525088,-1.070892654723937,0.5862783704049247,2.656791620321448
,-1.424243375662176,-300.10841731115596,1.4765404699296796,-0.23166436143696498,-354.3748867447626,0.3096501230912301,-0.1922335545963269,-6.030131728696068,3.567698199461675,0.49888397707412513,10.344062147143168,-1.2777265650094687,-2.922909045187241,-0.5277351820495915
,-5.283170141719199,-63.78441608289966,0.9034469016748592,-0.5444149602393854,-371.1992625811859,0.6812656802678405,0.43033439317816197,-3.470418749057696,1.1115533056817655,-0.01019723364549961,20.667291899155245,-0.2596555998259354,-1.0569400678861878,-0.7313113462749719
,0.9623730796594429,-54.82815434692493,0.7120920638340132,-0.38731399969948066,460.6244766220222,0.5597969218192368,0.1730081215383251,-5.278132718478023,3.716073870201455,-0.3651568632987773,-23.063108972601658,-1.4340412363335733,2.047788805962628,-0.36745444649420256
,-0.5325995386607847,57.42625427103677,0.778146960726069,-0.3090716245864889,525.9845988829978,0.30942645407238445,0.9929606564755347,-2.4291043826302734,2.4569079524334976,-0.48213036856878705,-25.22177660376387,-0.5257227506992488,2.8381902182113214,1.7443981647942073
,0.9574338651101809,-223.48452349035958,-0.15071857408434503,-0.6488706382859436,592.8849669138726,0.17100548954818368,0.7645811201169526,3.276809875860165,5.123120248046375,-0.3599924771092719,17.130777439209414,0.12197489065796983,1.1782339214901572,3.7883582420979143
,-1.6825654737095472,-29.436333611051225,-0.1187305109479545,-0.41517606187752126,246.1951813405291,0.8111465819363628,-0.6576821230716761,2.904675076709534,5.042608312387481,0.11407628392465614,42.31673892460493,0.13668208730940104,2.499950752340701,3.5554587438797416
,-1.9347840213314051,172.37491957171645,0.18330608081271255,-0.8844932970708126,103.94165268227219,0.4744352234792092,-0.3063858156094088,2.0001075623495397,4.80283482605159,0.0030016937800313934,29.092099310830697,0.3623627118635368,-2.5761455292397493,-1.6040354950512976
,-0.5717597034104085,-12.274427491702257,1.594558555265477,-1.0094523060083878,-205.40359249006565,0.4010653195011342,0.683759862114465,1.499921698080855,4.016598490757608,-0.7420594104005611,20.389781994330292,0.3105485237423513,-0.9858956697677183,-3.7149462421850994
,0.6193827539100608,-162.3416212642257,2.492139615073541,-0.7224817377493185,420.0531538423633,0.664395979695036,-0.5659642172232007,1.4235043396848175,1.7440221369793958,-0.3934761134647241,9.640184424780603,0.5906100907860764,3.341901564890423,-0.18058771392140613
,1.4116293347298834,-313.12699650282894,2.1962560550369803,-0.3605319100662531,659.1908557435527,-0.43440538940507645,-1.6179475264928471,3.7378562030101654,6.317997941875002,0.9164296391562758,-21.430225806906723,0.686354839317927,0.7253182970458402,0.7692273511430885
,-0.5156626281700134,-577.7933577711203,2.2157940824374602,-0.9034402354160054,634.0152512261903,-0.12133159940709173,-0.3314155493868553,2.195235499043665,6.596943800287364,0.09997969782674246,-45.56774218983393,0.34150730405671514,1.4079098879562157,1.7088165929381967
,-4.908698084750162,-96.24954982089321,0.13569610153550193,-0.6836603637122712,327.6026686670907,0.33587336588549843,0.02659156634130681,1.0824367533917998,3.01213242218903,-1.6766246583712423,-36.5944256272712,0.34517608709116643,-1.4778658341536663,4.565491127902352
,-2.9252386935906145,294.4579930345428,-0.7444455507787701,0.3102739824615623,20.613751953000662,0.6953474742458811,-2.748445763205428,1.0382309215884706,6.932717523687011,-0.7711475142552598,-39.16430207411752,-0.6966990024434006,-3.5025253604376023,5.3096497360240695
,-0.8520739006141659,267.9657887012172,0.6841234700003515,-0.09516820740459116,-57.889211684965986,1.0907373748164242,-2.140036717049233,2.009213475651358,4.212123358396304,0.1792832916155809,-30.94165107053058,-0.23974612379714663,-1.2831866678022912,2.9865027098994537
,1.6360925535216502,-124.77301448944934,1.2854600121800035,-0.30131004053202964,-605.2905221734211,0.581176548977082,1.447819676871054,2.5028842931054185,8.714789915804095,-0.7966564899193244,-28.05511432899259,0.03141555241330952,-1.1423885140188288,0.6943753610529252
,2.124928627705863,-531.5974174161295,0.3976158545614816,-0.721981234988974,150.6042134623235,0.043192854858310877,0.5431555385484855,1.4559561036884912,5.612462476733722,-0.726254718302228,-5.170401549014738,0.5061260214284302,1.2065974302395535,2.5728100322124887
,-2.9293750212820298,-394.0041417121949,-0.20090839021901405,-0.484078135650154,437.4728705607342,-0.2586758661174478,-0.4112925262723044,-0.7348412494660096,1.2352843840835308,0.36966289754812565,-2.44202672013199,-0.5477328229389,2.3348518522131636,1.3940855411351207
,-2.062805325375824,214.97321089633562,0.42852310886660744,0.1810535340518534,775.2218291907387,-1.026773277700522,-0.926943894213914,-1.4224534936415847,0.35105407937615074,0.871462561829793,3.32865592781917,-0.6944847369206084,-0.25153293695837997,2.249036017613485
,-1.5523447959555916,243.1360920497491,-0.25502671394222337,0.17424875128829026,957.5628712542455,-1.120831539030965,-1.5802518478085499,-0.6271645205853785,1.9281450310740176,-0.04674698246653865,-11.208078228508871,-0.8902763561100849,0.2488934658519015,1.9554656115843707
,1.6268968706452513,-237.7650135658093,0.9179325579634897,-0.12700872841298105,549.0183956875779,-0.6015944073101847,-1.157646095075228,-2.451410683403086,0.742019119837959,-1.0169855832509647,3.2909333799329037,-0.5724306662097075,0.42906074973195657,0.567269640197109
,-0.5703746807082255,105.88698470327593,1.012854878443591,-0.17144452261824408,639.0484473600086,-0.40786868786219066,-0.3087238140922396,-2.7427954596287893,-3.1603259118444678,-1.3718833898967941,-5.042071984124504,-0.4248375513237534,0.5287466879683804,0.3879451554234482
,-2.6300135883026745,343.42397686335926,0.4764837172064063,-0.2420732263623111,215.4380713212422,-0.831247253326259,-0.46772992431669397,-0.8333432721893214,-1.6545658928975495,-1.1768752983792128,-19.787746971130137,-0.5319380450069487,0.6084359184786989,3.112064941762691
,-0.7973467944550392,255.52351938239335,-0.6073513804006573,-0.4176261877114557,132.92905155963763,-1.2861085507477317,-0.6458434413870792,0.15116272186450505,2.997546819066034,-1.523044119497086,-12.422141727093502,-0.4819884958731979,-0.07926261905512431,5.271331846409554
,2.4367833276102737,-111.83306732309251,-0.9775823712455951,-0.3427227339956408,20.939902091545946,0.21933432237898082,0.8490140154278505,2.91438355742924,10.35675859500384,-1.0434646139305728,-19.590689188945156,-0.1676800784033411,3.2029602137331863,1.6397378717865068
,4.200100776045539,202.116314213617,0.6043274243452491,-0.5882666130628746,-612.406695355306,2.2390617781900013,1.0467638038782545,3.2939110297842378,2.9517379095947445,-0.8053723318501952,-16.868909492334776,0.07435414619784232,-0.6183110336782418,-0.9826904280537799
,0.9602319286601653,251.73769666160493,0.6799566652222269,-0.9125791598340467,-454.8085050090639,1.5198486848459005,0.2540919092097049,2.3283782750031983,3.2297018567982083,0.15207366058592267,-14.580581568583156,0.6386924116118441,-1.1856211412608144,-0.8316213730255357
,2.2913988380016908,85.94274608615358,2.489355252027519,-1.0694873152884286,-215.78895918165043,0.8376625409995048,0.0038781020201207553,0.5748053201621381,-0.730758792852119,1.1492549058099604,-25.91979662729333,0.998501992539246,0.676868486017054,-1.8342691446614339
,1.4806830270190152,342.6245009605082,1.7933044112930367,0.05247778019499118,92.03146007521535,1.1395992645795388,-1.3255790594078287,-0.7425688205846043,-3.4247626353924687,1.6126271071023397,-23.025082118528044,0.5842798233355627,-2.263735866820369,-1.4236044047788172
,-1.458366148088439,130.2794867825627,1.577910828381983,0.3360255505351879,331.51984276616406,1.5578618767142183,-3.5965075208205977,0.28590798593744027,-3.4432615002665434,0.020509768534721067,-14.38619343124251,0.29426168262456465,-5.147984792012512,0.1396418702771118
,1.8520962482622387,218.7572710923296,2.0462239067610417,0.23791594068550817,23.342834533354697,0.971216487603137,-3.5270386381932175,1.6223643482468042,0.45423917019402565,0.298978527488233,-1.7934419360525955,0.15649242964080273,-3.7929774239522196,0.6054578112550868
,4.839529968925414,180.15776688858656,0.8878547388180245,-0.24035315604784488,726.5729894920311,0.5562732367019424,-0.9793647184750602,0.29948325706895407,7.638511975292166,1.195075575617728,11.80529563656807,0.22003661532697608,-2.654398108418259,-2.3906045351181238
,-0.14443241796385947,-236.22388662339114,1.099012544206274,0.044010034730978184,1097.3097465272858,-0.0809828877816713,0.3319265321002563,2.1831840161137928,5.0459569745692665,1.5398652104801136,13.875846238651162,0.2376272386151081,3.732746381719501,-3.1179736425425
,0.6247896209802254,-66.91214998667667,1.216356382494676,0.013538619261696161,139.61058008542471,-0.1678560392918497,-0.6127948769807782,1.2108024207937362,5.674821936944369,1.314132688439689,7.430357956676646,0.033463068286899426,5.1385664574263,-3.711421244343626
,2.5110197212948555,34.62041716460884,1.1285779261554827,0.29142854924217254,442.7265649931374,0.15949936876100607,-0.594366238581256,1.2565006204951352,10.747868299640222,1.027642610649685,-7.700107671926034,0.09318540447379414,-0.6987722200016291,-2.7931276781653764
,-1.52320077907461,35.32789721061527,1.4282386553661617,0.28897974531796233,736.9009722878238,0.4097995575182626,-0.20720498864666773,2.6715896421700447,-8.572153062654195,0.30263566458808444,-28.597886089792965,0.3436465958323905,-2.2953547798313623,-1.860382034188471
,-2.7637142425588865,-31.11751040129172,2.433293028218151,-0.02613346949707034,321.9659297945286,1.5099583912331287,0.5717548602686149,2.1169436348176323,-11.853331881343287,0.9853915899691958,-21.895691739646615,0.6755229097698272,0.9073381168988738,-0.3494848034290265
,1.470717046829933,156.83919080587427,1.3930405522758287,0.23973963317202493,162.00357268533827,1.5027028035866667,0.4966858478327558,2.073889066027259,-3.179784953784808,1.617784751622899,-29.388760525336103,0.673088884451698,2.0294859548131745,3.60746555948118
,2.8264572594394313,-44.01869067760497,0.4551013706066826,-0.07449279886821518,-178.9397837324698,0.6070886690620991,-0.309069772240639,2.546023349282253,-0.7532814398185095,0.38123851403649345,-40.819482304580305,-0.45650580200629093,0.03791347172661228,2.469559909579999
,3.0784583844123223,-347.8990655338269,0.8844075833647289,-0.6287081999273267,-309.14328632210726,0.08804317293858765,-0.28648019744223346,2.140292450513851,2.2487150286878106,0.003411981477709857,-41.16058342370001,0.11153440397697263,-4.401125687333931,3.1378787278364872
,1.8215687281860926,-271.5124017837747,0.8743583631698959,-0.8132894858349684,-107.58264211935659,0.4887150128210393,0.24080310064879995,1.0533276689623243,6.792584779104848,-0.3438269043205966,-13.27999411791699,0.44074429432167445,-3.7269696600687516,4.074477477267014
,3.8766578561422382,-90.60864467157197,0.20615604991624664,-0.5392440169928572,475.98172354354864,0.6250604010700411,0.47047220817600044,1.3163302734572913,3.4125028522965164,0.559926137757708,-24.371159926145396,0.9664843785218421,-2.1855632340416062,1.353086186008026
,0.2643045154190573,-129.79269297966198,1.1293678507707636,0.1797404220877058,609.3875930272054,-0.4351791265115782,-0.6538645461476305,-0.10313255599825605,0.19592132254841468,1.490347903647672,-9.982910679377712,0.23630758509686298,-0.4551505415150367,-1.1702981062705478
,-0.6046584723108648,-213.52834483945273,2.780481509486749,0.4521694274979843,385.5370331838922,-1.0813904287500395,-1.4897990980538398,-0.4220509928345366,8.322393391161938,0.9549870569883582,9.657450072328631,-0.15909940936267378,-2.1990153676714863,-2.6965542722832896
,4.260473579507201,-84.0387619968456,0.887354796257833,0.3139316875954585,196.56481626359903,0.22218507367069384,-0.006912089973278122,0.7771127956860295,3.6649801099980914,-0.02857221046964869,15.716099371874854,0.502960198435537,-1.8120394231152632,-2.453130958463351
,3.602705301228997,-83.46134653323158,-0.5081662002335742,1.3319278496931126,-105.90364380425443,0.7909959019832692,0.3566685970157516,2.1795920233622628,-0.5202839852084681,-0.6517538773413416,-19.172812724317918,-0.19883869735952045,-1.8010153384289782,-1.3243006405475437
,1.8998103553564358,-151.99786170393597,0.7467787593097678,0.963840914128403,566.7548361925055,0.9887535934027417,0.46227546490168026,2.275162495818546,6.474732639776403,0.13072402549281925,-23.066052105911105,-0.4934899573311084,-2.8325657671472597,1.6635130312078537
,1.0007497906717024,-11.290433146176209,-0.2757508323676084,-0.3272360022604393,58.359271813697255,1.6099389977889367,1.6750190305557766,3.1137590546755316,9.741242314391583,-0.17636335920932622,-8.434772211481578,-0.6833907503665482,-2.5408982344117423,1.7190954836653347
,2.863109436640397,188.93437461280422,-0.6850043104268334,-0.5723165204795986,85.45456340568282,1.2963249845314022,1.5619565336105554,2.065420143469609,1.6713937216359005,1.0788735302557275,5.329697467037097,-0.8101307357606592,-0.013307658332232993,-1.7505265280803628
,-0.831330620856909,439.84985043254244,-2.2341543256380367,-0.68340038624524,-119.79375567237574,0.7542618529430779,0.894372919106948,1.6562494168765307,0.054045790962398886,-0.24374682866302994,24.15186615047506,-0.8941600693221966,-0.36810819810155615,-0.7437090683290847
,-1.534174581793076,18.547878574029696,-1.28236646581309,-0.6883824028749761,17.43154958244154,-0.28635419887577274,-0.1912141315723202,2.3095271595201514,1.23630193703005,-0.4081467843641441,34.029992644603055,-0.236920544598862,0.8766993195803837,0.5568092729397718
,-2.0077665457966276,-278.44019198962724,0.6187040901685833,-0.5359968051318144,242.8990007441498,0.7235006579205291,-0.6359095900617618,3.0253483532116165,3.420923125478337,0.2859735636206127,34.31310950663307,-0.6353000778509618,2.7875649178682678,-2.051144497401252
,-1.7297045139306109,-87.08284871033759,1.198986500844671,-1.2313204208296846,233.39219343976515,1.0585239922377334,0.15521406897212053,2.9759555836860265,1.3990314764006604,1.4307626349433102,4.880083811181207,0.06677359841249605,-1.9002204597387624,-2.844694108515851
,-3.012105913158692,-33.50348186952393,1.8441956620141642,-1.5555272547820775,-80.17189029334092,1.2686642987573775,1.9301517313794576,1.686780362826629,0.4891001408925717,0.9353751449762084,1.2787860878827222,0.5225170987809744,-1.1856544171176926,-0.8379747822191266
,-3.9681344308867663,95.18483397763161,1.2942872189627608,-0.7933873971870701,83.44183370092017,0.32209495180159065,1.0576157079671622,2.119023201695688,2.756851699095936,1.23832371331029,7.769781605354597,-0.40373160524389107,-1.8510820004372885,1.6272628668876645
,-1.36392001884564,-7.126239650731937,1.167983696421425,-0.8241276656197272,98.36738206396018,-0.18010865337183987,0.47085581749026534,1.6402193855355642,4.074696127002293,1.0663326251512377,8.732559434012927,-0.12595374700872503,-1.0728787507434183,0.027343138750813928
,1.5368734235806065,-254.11656537157634,1.4722758747757234,-0.5780406180883583,195.90901917871878,-0.009387593236166664,0.7007713287205484,1.5992112074608444,3.5219225428126433,1.4724695146996518,-8.622034868990436,-0.5969307637002761,1.403555012836992,-2.260833483137099
,-1.9202121692529253,-186.58685358466968,0.06022485325383183,0.004393983566265397,345.4647995068977,-0.47614621146379654,-0.25675647885221303,2.588265342404135,-3.895022194569865,1.1846849949421643,-20.07137606936933,-0.39700083183466783,-1.7354612969040566,-1.72573466519903
,-2.754551095339802,139.18227390943346,-0.10137859872752547,0.15149560157935718,43.213202726576576,-0.7934964102567312,-0.9273325581998173,2.1287291630845604,-0.2332491756834361,1.242852719476678,-1.6273095766686279,-0.318743426368396,-1.2150170355872665,-1.5364559683787367
,0.8309811951349282,-14.717860625738798,-0.03862783629713421,0.6694881197595012,178.2597320087854,-0.45056567392319236,-0.6821163775179542,0.661342499150209,-0.7563864876079662,1.6004644400809342,-5.050777686502746,-0.07236744345371374,2.248420968147587,-2.85640704679928
,-1.38036056502378,-269.03337100521674,0.09699207319083877,0.378737453883236,316.29235582355676,0.8883362792654264,0.39451901105876447,-0.9033532467001322,-2.9559410505134385,1.000475795775992,23.104708413790437,0.162212427669383,6.8753075873651115,-1.8579456552078195
,-1.9284882416427989,-208.08713247811477,-0.28669617623863053,0.16623818196410012,363.3703676778833,0.9589051446305382,2.00774077717156,-5.486410978251064,-5.567608633489671,0.6157721885415998,38.95810933855539,-0.5626408141228945,2.560121874145692,-3.569701274187629
,-1.9166013384786942,-47.46213086057577,-0.3866337193242055,0.32950152870370886,-466.43042719699577,0.16837048186767384,1.156673619289506,-4.229599429705654,-1.4506121791838744,0.491872514243502,41.2201578556031,-0.1818604697434346,-0.9333467131858315,-5.447415204798699
,3.14369096231552,78.94149109931358,0.9474517673003817,0.45245715947199533,-265.67711260169233,-0.4894838815874054,0.3462961640065015,1.0098808447954148,4.25039747967219,0.5013057403510899,42.43244483978494,1.0354932136635717,-3.285939431722891,-3.2438211150001894
,2.0358462413746854,156.8862539018698,0.4736880664582386,-0.20976889018002268,-267.0469167970971,0.8449649898781285,1.1622428334990245,1.1599462325639,2.7262465597108783,-0.8330665606346532,5.940669179563648,0.2503110208955613,-3.18873185582717,1.5373145692878607
,-0.4274251700822795,-82.72235919917249,0.17458909755050517,-0.606868163055281,-1005.3913024696307,0.8433240832427892,-0.9723104355184479,2.2833982157620376,2.2993013536056486,-0.33182315719325034,-5.574690136130372,-0.08461555220578762,-1.0395824356191639,1.091897927498516
,1.1265712753680484,169.68570719556476,-0.17280362810838445,-0.5978418217328142,-410.0864933244152,0.1334501134609392,-1.080123408699286,-0.11328812107626075,3.652374597900575,-0.9408931403001141,1.9676116017257983,0.1298452243848302,-2.1219042687352934,-0.6814566908070478
,2.167673868657463,75.04063194465488,0.7210894761495337,-0.14657342523830166,341.3314455891415,0.10963979509306021,-0.608772963904747,-0.9086296872831437,4.528785615497007,-0.15567674395954437,-5.323360926166395,-0.5753317563260757,1.4202851204762685,5.271579391729225
,-0.8357531677368915,-142.16818463992368,1.0684842648294957,0.31433874870123407,683.8931709034375,-0.21133433334159438,-0.8555029424408304,-1.8539948997371694,0.5982228964887304,0.44263438279819745,0.8542724814084597,-0.8729187719562128,1.8378901607284888,4.288358532999249
,-0.8509323082870852,-135.61665443160655,-0.35784909031241524,0.04949813731034281,765.8875943905219,-0.5075053609032151,0.3907117665141009,-0.11339917542671965,-2.4402910437201886,0.06309340023931304,-13.568484981410524,0.9112914853458453,0.2833946855038821,2.165834692912227
,-0.2829753859953283,-54.79390303949682,-0.8473713400108881,0.31409921606437935,319.322676730229,-0.7944048824039971,0.911758377662637,-1.9670880330288012,-2.1074248562661184,-0.390504234419145,-39.5548134943484,0.40886055233802115,-0.6038020289096812,2.267787042292633
,1.1367070181898438,-125.88801231221613,-0.6945272008584021,0.4404766156199828,-471.84240610600756,0.11336078887113282,1.5699779858063028,-2.9614776543584362,0.9002374380250476,-0.7080715193771252,-22.32188558669676,0.389435108388798,1.1804954401783396,1.42658266118635
,-2.330131387633327,-8.019016696112752,-0.09036914980409802,-0.13744318145751352,-263.93179496773644,0.268346195795366,0.10576159015097529,-0.17295687475990154,-2.9957796236118908,-0.18133577735832698,-28.161782856717256,-0.002761358507423741,0.24830343525777354,1.2306142927488453
,-0.7472862228649315,253.29942732269365,0.35463002958987616,-0.49512793736180993,-590.5682952877789,1.1670639633773805,0.34053095199770816,2.341997794795157,-5.9798980334764735,-0.5974552974689907,-21.102537493774747,-0.28929156531863137,0.23843406541503404,-1.6324045369381175
,2.1534815077946896,148.46857177736604,0.7607692546124508,-0.008529693029892628,-781.4351548800272,-0.533876810733071,-1.1382383878284106,2.4790510331550952,-0.02656589116671858,-1.5324463830414148,-5.193231273437483,0.27698308129504695,0.3013306503052076,0.9233370727512414
,2.232383883585263,165.97616285152458,-0.8989215679517808,-0.1113555142212593,435.2449243205278,-0.6980315649272064,-1.6760558298804897,1.5149539940708032,4.370441459228003,-0.821619010715362,17.563866067876056,0.6113273728150889,-1.8371302573093913,1.7457399133140366
,0.5473810999173979,87.61495887042338,-0.7827405753016852,-0.957216120347212,730.1296339538239,-0.5409167059422301,-0.1890036943148905,2.5426329805459718,5.082771769161561,-0.6502643519815426,-4.491589697085182,-0.8182274969589055,-1.2330686637226371,0.6022960605963653
R,3.656231099638195,133.56631824813695,-0.5906488191311933,-0.7465092103668882,354.0926496810452,0.11822483568695259,0.8770456299382158,2.540960501279356,1.983820464378289,0.46629897114187385,-37.82542908493136,-0.9672484543809177,2.176208120265011,0.12757959250491482
,2.4896891889627715,357.5430520925102,0.08410034994650187,-0.5069663651306109,603.3651144700398,0.9194978246643725,0.6108430450330836,1.1551430718851157,-1.209237939235635,0.43948438860142686,-30.79291143307994,-0.17319687391520094,0.5303158559919867,0.14872694554948482
,-3.1947912853497056,120.43558799219366,-0.009572060742653658,-0.05306168241697685,469.98317253576295,0.5576010606626007,-0.06287600333055339,-0.8045873882806974,-1.8632261964456858,-0.37948896497669127,-27.11050906370243,-0.00014505412340065998,-2.1089106316110215,-0.6167784466013
,0.39429708074564723,-92.70809747600707,0.8761400094393161,-0.334702053083932,480.3244547148309,-0.9937410456630015,-0.9541601992835699,-0.9610647026254877,1.1614372988721442,-0.4247582532414577,-32.1254506490924,-0.41199625008776564,-0.01722978774767162,0.3955853071166163
,1.7930242468109279,-348.02293211532117,1.7719972601499554,-0.25245504370354505,210.7140888404953,-1.1352186576412417,-0.9052560070263327,1.7988512542515815,2.703903711736319,0.12176386889830623,-2.573833780520643,-0.6182473052126932,1.7497473608561847,1.3814496031470875
,-1.4319386300717214,-473.1981079564442,1.0565216050923758,0.276658036228716,292.90028429592076,-0.7675559970448326,-1.0170352546492931,2.244618975885478,1.139353127655128,1.4587491867540574,-1.233290114363151,-0.4677261045882261,-2.3998432551803544,2.4051438637945965
,-5.5485884481961465,40.66960155326618,0.5127646720939916,0.2715905161834169,224.1173525953603,-0.497766123631714,-1.0397206351343196,0.5640093356447816,3.759582783612476,0.5383540710499753,-32.98483181996665,0.1767708152640053,-2.796755368657305,4.5118684675178145
,-2.384412150332846,246.3446755745055,1.2100527834680876,-0.004706941871182896,546.8075589828325,-0.30729143717703394,-0.5148497505682461,0.8261808239362275,7.707883707655469,-0.750880325402368,-23.968016827589377,0.017102802381592796,1.1858552742832178,3.942261459894358
,-0.8285218186882755,-263.369080086886,2.823007593420166,0.0963142619908838,306.76396379899165,-0.5888926855371613,-0.27520319787195174,-0.11120374696495802,0.7391637119971607,-0.5972563526265408,19.404478465471218,-0.3515468656348257,3.381893024838379,0.8631541328117429
,-4.66886591217012,-841.0713567964182,0.49853130024685466,0.005511500426397752,-289.2987760539955,-0.9932472532957172,-1.0691610523966713,-0.013425493617304765,3.1487128045864394,-1.33939315865301,16.50656597426415,-1.0226481074139717,3.372788524552951,3.1453880643409633
,-0.7097213167132194,-474.40619067700425,0.038224817838753346,0.01348528205968593,414.56118129746113,-1.6063921157452425,-1.7016026926436674,2.0193344810940883,13.119346853171749,-0.4509987618786602,-28.79743192181494,-1.2564806677037827,1.0482722190637217,3.493781823798949
,-1.8915900025425294,-277.83743093454996,-0.06533982471318665,-0.5646129532321096,473.43220649044605,-0.5517879953492875,-0.8257580182975904,1.010845549571878,9.85692540827563,0.5924574866761947,-30.045456389639263,-1.0374622044840456,1.5772097956372615,4.375229559566957
,-1.5089512129288067,20.426223309071105,-0.9635669686714645,-0.5312499846583543,775.3745846818088,-0.4745878937933772,-1.3333353153003134,-0.25174142313720543,3.9209992093336816,1.5443763779266877,-15.492665088724424,-1.7564828880150591,1.2480479369975301,5.264085382189616
,-1.265623913738757,158.05242814615377,-0.7900317098872657,-1.0297668069594483,686.4190400250228,-0.5329282560995665,-1.483321047733122,-3.0609215606925226,2.742536620028252,1.5263434518425125,-18.137076952456958,-1.7308330117910609,-1.8251237008047005,4.553375647446127
,-0.29530709544139316,149.84357415186682,-1.319223778939878,-0.2756163416883792,527.2225419112028,-0.8325954129151133,-0.8754402179288843,-2.6182718570711674,1.4791424662240633,0.17862364770239533,-10.7495268943299,-1.0290817877666054,-3.1840978935958133,5.490811717092494
,-1.5584390518045108,5.316189798106558,-0.026325702266446326,0.21104931333459487,262.8643114302112,-0.7515198201921546,-0.7147922344046853,1.696133285769907,5.033716857403414,-1.7158251732666299,-51.248766564049056,-0.6473705890645033,-2.649167164728071,3.4573608193508725
,-0.04294582087929137,-208.8885210438781,1.2578951618432415,0.2542080022370531,472.6339231992555,-0.1518698332545266,-0.13443523950076736,1.4365574475960072,2.2098808667802485,-2.310479462142206,-94.73492604645625,-0.6637819200151904,-3.5148844412110707,1.860400011406397
,1.1509215227050706,-234.03346027336562,0.46183342500329194,-0.1714554002862583,246.93699838290073,0.5718527282416253,0.9480963595714791,1.3059685535077954,0.43895646895206597,-1.494576915636529,-65.11818893481359,-0.14572813869618356,-2.524380169007498,2.0130443969079
,-1.540360847971622,-89.1986784774344,1.2023134497764283,-0.15162049607065867,-428.12425568510906,0.0006767683589860076,0.593522139852588,2.9006349709815993,4.372704303269978,0.27953621339739215,-21.388925103296838,0.32129876948605113,-4.513647415281656,0.5223481629745917
,0.5687647396141027,-35.501240183902596,2.256486246523664,-0.15568614333988925,-317.7086604369006,-0.6272624677467412,-0.42950161039215706,0.5731605975510373,4.462399629407031,1.0626653249048892,11.323461966978623,0.2271794455552385,-3.4577464478370485,0.5724359393674867
,3.4664519829570084,70.75123766195614,2.3652573671305523,0.0012097539049240838,-648.5290403078841,-1.3668668748958375,-0.2962458558623337,1.4393670345378584,7.398037884224036,1.1154939475697447,21.163227693534957,1.008910891182449,-0.5769989068776986,2.625897968585661
,2.517979568152394,81.78267813263044,0.7808680498319975,-0.07379721121562072,-417.4812481834156,-0.06690793505604097,0.7498801868952198,1.2683134066845692,-1.3858446154247623,0.3888681161261981,10.03447720382264,1.4238190822845367,-0.9082266870811594,5.022846851423982
,4.149721907726715,-134.57719403457082,0.8712689446257409,-0.07416636145983208,29.742539510270557,0.384203277550847,0.2810062464617987,-3.901809058420502,-7.318897480247356,-0.7962269294809818,-22.880771389648896,-0.21329355105092657,0.6036862728053919,4.662985482627813
,-0.07337632179255849,334.8869928683229,-0.15088491825434713,0.45326077931195863,602.9402957842103,-0.09002224260793934,0.19320994875327396,-2.6570761021602802,6.340110215941754,-1.0947570543274119,-28.528457756796218,-0.7653547885708026,-1.5833119367455413,5.297495603000345
,-1.1294792284033917,371.45703824948674,-0.7821127206304369,0.25854266703552403,595.5955020678424,0.22986792547501989,-0.039858297293844804,2.6833830946487085,7.7963917003536,-0.6143037013523016,-16.102981333806017,-0.42045937979117454,-1.0466582180769082,4.489806558249698
,1.0407614808300463,170.88509380415795,-0.4500872123720664,-0.5234467850265034,817.2477834330474,-0.49730494908761674,0.6053941549975546,1.7202081166918182,5.681245856117916,-0.52646746026043,-15.347797546956166,-0.42306763955300475,0.7128917040122676,3.8430678365512536
,-1.0355213974050526,65.2871786653193,-0.3997336833294193,-0.34947541988473785,693.9294732586894,-0.37738958717195437,0.6336704444718361,1.1678777679777217,5.165043069459326,0.2734144318119718,-24.306829935164405,-0.38961721153676643,3.5130068980926783,3.1899620641551745
,0.21365875490328137,-191.50808301835673,-0.004013230480441522,-0.6415973525669089,215.90039038011588,0.33827811327507,-0.16630918549495194,0.06300043442763706,4.0533563851232906,0.5349974113078296,-57.618966692162715,-0.3260588418809506,3.9049790470013277,2.038404949935449
,1.0710509670861785,103.78082846091786,-0.6795074412067498,-0.1770770077114975,155.95925524910868,-0.8863202153747057,-0.5610539154568946,0.6162990945479383,2.8333786626501367,0.2597213868730612,-64.05485481493521,-1.3079487885426364,2.8256380130369303,-0.635631503369453
,3.3649159358532907,285.26927770367746,0.311292714774686,-0.2923531465824246,760.1468727292039,-1.1448853243825141,-0.7517927370209879,2.192533827452931,1.7507632327186167,0.5498532002474827,-24.55452938492562,-0.8653135239430592,-1.170560198164361,1.4335198822265327
,3.0755949162588614,75.90162339336476,0.4470225893460384,-0.8219947984224473,657.1225747814913,-1.1532672460939477,-1.4056579481906333,0.6805358377373487,0.9414810727978005,-0.03339918497534201,15.269155825119714,-0.1307148356090414,-5.3134077890775275,2.8647765096937094
,-0.7909482590607091,258.5178786471944,0.21882051377350697,-0.73920562604349,505.4772568833039,-0.6972802519817972,-0.6525305584416528,2.07830673769602,1.4899175156006919,0.18702074170904273,-2.9297393268616974,-0.07972951752280243,-5.351449173796582,2.654937764476063
,-1.2547775306480435,181.3918537574181,-0.14502507605188666,-0.2354004481467047,698.8653888498869,-1.0487821651979943,-0.2092527877351616,1.4562271389486794,0.6879974801765895,-0.10754411494017425,-31.9592685073576,-0.8321334133083081,-4.317250970593049,2.790786474027494
,2.281888722189371,280.5699610970731,-0.13106635942695816,-0.478924288269982,630.1575156454588,-0.38074763792631033,0.4757426118456784,0.6744320825708064,2.581046980950765,0.7925920822239183,-10.428131415552652,-0.21327705558511892,-0.034103294322556016,4.545355038914034
,0.11992175954935369,212.40017058875517,0.8132857547368965,-0.2728161394816349,425.3679652572138,0.8737217150726883,-0.187042540939508,1.6061364344876419,5.7684284006099995,0.4827974356808345,-2.7305198920248728,0.1685177750475446,2.129040867419737,5.007669161631177
,-2.437371824851619,-37.83412463136374,1.474068476608293,-0.8246289119086806,709.9083356240889,0.5876681664213802,-0.40422865528178764,1.3548603954308647,6.590186682140398,0.18567099684099636,-8.744110934533209,-0.38006487994548305,3.483568159443201,4.1410671667247145
,2.3970347489089363,-108.07266330836192,1.909576841783273,-0.9281824176579038,894.9180439119278,-0.33135435798087015,-0.6056830362793529,0.8502634897008164,6.690926269605929,-0.09968222532958222,2.6968241256725523,-0.0007678981317751885,1.5345974381154392,5.440797563542922
,3.466185134906304,145.01818251753943,1.4741358662879191,-0.278957952826649,-283.4520034315164,0.3199312222643174,-0.6811188402999626,-3.0715084999928,-0.051831839003235076,-0.6470164202073516,-36.1047926484285,1.1143846133652666,3.6748275773188457,4.650082848124763
,2.2433834027274777,-251.66543709172706,1.5007957004457793,-0.7540532962952268,109.37845976985628,0.2538974999645136,-0.2898346979796553,-2.5540343349001113,1.566183353439973,0.46252686812412325,-59.232534287124764,-0.4785829962203033,0.8067066429171191,3.6552214383395296
,3.5330517633724696,-381.92263367084917,0.4287190579399269,-0.4482622696256948,232.9603557970064,-0.3793978055196992,-0.623732952085492,0.9023617831939545,4.952660750401356,-0.28470683220066295,-41.87103722835659,-1.2173720396205447,-0.5459140561510448,2.514862286250812
,1.1175476228606507,260.73345586084304,-0.7537788886680421,-0.478347969029733,324.43182553573456,-0.32906364726954357,-0.0925392364246867,1.3224605561625222,3.0016212038202243,0.8965726120196754,-28.32842815496759,-0.36018392950088113,-0.4334674171455531,1.4437959737039
,-0.6156838806606455,-51.13565968679805,-0.1377568349434099,-0.3236199063671667,201.61961276047512,-0.5654990419935072,0.2518824099575886,1.5360084276449313,2.408023205638008,1.0382247098994113,-32.91554419703319,0.9046754030779238,0.7905390943540389,0.7040111699310115
,-2.7673565368937147,-202.6456979520423,0.5409726875392912,-0.251870315585501,300.90775334216323,-0.06083885336642017,-0.0899516941227061,2.4100356874241684,0.7603803620309006,1.9815638805802454,-13.782985254982135,0.4236501001359471,4.655034299598032,0.2585665487397328
,-2.625852442070388,-146.82047196800295,1.9558549515056252,-0.23172119009181927,524.1829552037765,0.6713195225762365,-0.44934980754994497,2.008359077759879,1.0322684215774198,1.2704017338589297,9.929066058867623,0.9610159939254606,3.680389327863248,2.400847467855889
,-1.9066473459045907,138.69100686544343,0.3504548291572348,0.3807618212293712,826.1129782942502,-0.6519703621195575,-1.218474641081375,-0.6178820359002257,3.9011165368002256,1.3334026729418966,-31.531898445044735,0.05959390523614875,2.6603693599522167,2.5451518869888985
,-2.78544595040899,32.98485040687043,0.34162565138661966,0.2314191843089438,516.3513069122054,-0.8543339144392188,-0.8781767016117553,-0.7532503511509882,7.055046532560084,0.9448801122526821,-29.403078175178692,-0.4311754449818953,2.053344278526224,1.009186041835013
,-3.4545999183945986,-218.63688830249336,2.846266756353617,0.22672384931692513,232.45278177915355,0.5888364849996752,0.6078848062322606,-1.7010505994968637,4.523403907404397,0.6972107780880785,-15.639299932515009,0.031219212392355446,-4.4379525608981005,2.588307122064269
,-2.1297686472488646,-178.94401261324595,1.7137476608682858,0.9655875696810803,492.2012751414663,0.6374209424926444,1.8507242428149204,0.9711137202965767,1.499273082712585,0.41793805777912796,-27.029474670546545,0.25213207088526485,-2.2118582728697196,2.8931645148853287
,1.3444698947561606,281.9658035044492,0.07799135723120641,1.099987012635682,704.6238341146461,0.07158984527132259,0.9625430290961609,0.6393666026861413,-2.4339215945217285,-0.020651066355708975,-51.629357042296114,-0.37360201298785267,-1.1837345951918883,-1.3083297197569415
,-1.564210844451021,587.9236180387308,0.35322978829543866,0.6296192461012585,757.6094015391852,0.20651521937472841,0.76293729582319,-0.21478593775626087,-4.313396922896674,-0.012484446056216035,-40.36732460729986,-0.14348467993232913,-1.9479364080145338,-0.966113801588004
,-1.795338699443469,456.25988426428063,1.7541208793285787,0.1256616639984801,423.1865322559584,0.821452386581508,0.9659300075160678,0.2588069986232946,-2.5404327649467895,-1.1930973002643612,-36.68329390282123,1.0950703533232982,-2.7232004086502366,-0.9118003475947736
,-7.275704103973752,-47.35353348181186,2.0200277321530975,-0.2949924744000505,-216.22452912201626,0.3162789843651203,-1.652544250874767,0.9796724193258364,2.9618844138546145,0.6706896162899726,-12.96248904694059,0.3336199843644407,-3.731976026896833,-0.442924409974063
,-6.446119674988106,-29.568868614568565,2.8436826859394126,-0.4130772805032681,-329.8400706623565,0.7014690671242552,-1.0856075942049548,2.4118908802851777,2.5686805459219855,0.9558747406249358,-11.198232635948022,0.39818887925171986,2.571615936670384,2.1031820528269383
,-1.4504373178271335,-429.7564592116928,2.251089228654369,-0.1295759644402205,-74.38971780646432,1.4292503628113893,1.2120810945427725,3.118017421705213,0.9522805022404628,-0.8584466788778929,-23.947256333921057,0.10627609607521823,1.7882849789801416,3.36956595141337
,-6.843060591246592,-706.2522202482578,1.6038026706486415,-0.3217404096914789,-61.18976440133041,1.0198161124602416,0.08412427090668524,1.713757308711141,-0.37387047761431896,0.05553450580355176,-51.90885588779608,0.42392335879990606,0.538666208426759,3.245263117832803
,-7.902101130205194,86.69173784203,1.4693451490805143,-0.6595248543237731,-345.36006038089494,0.23798819088773204,0.41162786095959525,1.0514365156209946,1.418449374642628,-0.4522614206731969,-43.54492810275731,0.6333218421788979,-1.4086117866951489,2.267492572240456
,-5.917812144734081,207.71316484223144,0.6017231859572825,-0.7435090385451654,-32.00787183709917,0.5111592301441085,0.5641971518297754,1.5116294613764043,3.809558277787773,-0.5894466788626691,-51.00445997619223,0.1307781068238503,-0.41522831963104956,-0.6817392334854472
,-7.2687379068236195,160.95235200034443,0.5387944716864612,-0.34958544300712985,484.71951991800364,1.6781778609913698,0.37314068380673115,1.470034394810438,0.07651940721375802,-0.17907933227774844,-100.73136150582981,0.2734357474830499,-2.596164399356064,1.7102439224936252
,-4.661016188199966,336.711229410504,1.2132211970869056,0.7891803870827524,23.578813893041723,0.5681806617588963,-0.5393217202325824,1.1009002226053481,-0.7574022888287459,0.11672566882614847,-73.27714146000652,0.7454777182080573,-0.40818308096377837,6.0623352996430215
,-0.09218714067053374,58.89637194293124,1.0051074237268294,0.7309765099307391,-179.61058683770477,0.6753396547624606,-1.0403276629572848,2.0737904486959837,2.1602988837247956,0.005041179282229032,-14.332298918585508,1.1539849094240275,4.052608438632247,5.773942430619296
,1.1702031485865618,-221.4191188616437,1.068390380202366,-0.16655271833188928,-411.12986085839,0.7228020621591081,0.8983289686192367,2.5641265837912077,2.93441762100683,-0.3404172847092717,-7.473902216167912,0.14308666644966203,0.8760095719346948,5.459952441242921
,0.14718454950255372,-238.05350539053472,1.4138273264489454,0.28959211323923034,-375.23933653817295,0.9423144426097048,0.5675583409599212,0.5883820718542171,3.876245071368769,-0.5251835525899198,-31.531106058158322,-0.6545756876687523,-1.0390809397131944,4.487443187446279
,-3.1430278910686233,42.51474709369714,0.851654710264947,0.09242304115734709,696.6156634643905,0.18870380881200524,0.39839197827628153,-0.5920130586715385,6.308747020818132,0.33042049318071626,-7.084626696617559,-0.42621437901223275,-1.6129516118781397,4.239538190489388
,-1.309190458544741,-250.9110495690934,-0.17438311646703428,-0.4434495981644507,647.5303942711696,0.7159211092821043,0.28989635234785927,-0.2631141010065723,6.381656742348926,-0.21549924403302448,15.490906730920909,-0.09560069930695116,-3.5816236601154343,4.262291744427475
,-0.4513060308414318,-301.56813270595484,-0.7300728300956364,-0.893933936480093,-312.20798305313565,0.37215274826083566,-0.1324014497620048,-0.34219326839397674,-1.4984109867263955,0.5208476541609983,-2.0566655057675094,0.27345728735803043,-0.9622027574160956,3.786849539042588
,1.0673188556998556,-194.48945484950866,-1.9851066629735075,-0.6380781615347181,-61.796895677525185,1.4807671194048517,0.7592920600367593,-1.0877423437047529,-4.444282465877375,1.7931539435559298,-11.174412898815204,0.3771050070192949,1.6792835457441397,5.89496184085928
,0.06872784764586312,-281.7492486247201,-0.41808556007294395,-0.7939958932121386,167.99314514183988,0.3185481904269076,0.5792776998332244,0.1835001569113038,-0.8520886614999883,1.2047841067765575,-18.28618033948273,0.20392471545954136,-0.7114008734244005,5.457860928379126
,0.011292360406886987,-247.5329516965096,0.025822149990507675,-0.715266957749819,606.8617832030318,-0.01984239718556531,-0.13520632854659465,-0.12222816970099028,1.469656459371987,1.1796196802533332,-31.921045877144778,-0.2771258804173927,2.3704210855437484,4.044639323367659
,0.10874281975135706,-273.33046785617336,-0.8358302618954486,-0.3491010776430135,692.4453531394117,0.511229360475408,0.2086849754337534,1.587877488790486,0.4808683904368102,0.6340683424571005,-19.59041375403385,0.6740201197007475,3.307551741402357,3.6961765216901967
,-0.7022926030506347,-316.71660640916025,-0.0076673288055927255,-0.4012942677638227,522.7264751646327,0.14808045965302913,0.22996849017046056,2.7149295572345666,-1.5276420745977357,0.3049796408689863,-13.387036383347677,0.32590422204246655,4.155290538529537,3.825826908663503
,-4.237190484489115,149.5719577434633,-0.4283047065365604,-0.732405812561084,398.66146005158737,-0.007678521907026699,-0.02947262020875283,1.9301655245801077,-2.9728982583825587,1.0373112400584104,-12.058353278232875,-0.1803209856930029,1.2794523017563246,4.676911809874087
,-3.14663264767411,406.4948774345366,0.5562889502186502,-0.008946052616192508,-32.79882090719381,0.08220356122514108,0.20728705290025592,1.7247849037084964,-5.727943111443731,0.759494041613019,-10.173707357788546,-0.36661886275826816,-1.1519685662924637,4.462126385973437
,1.5708253599505357,-135.98973540454458,0.9704522551539698,0.40273857841661076,-946.6001786317925,-0.7801600988081738,-0.7755069463003527,1.5267876012355293,-0.9494778570722527,0.5072156086428352,-16.68391756299073,-0.9697552728197522,0.05064672115207672,1.7974815773105646
,1.9696285193116572,-337.7392083118812,-0.3904347004573568,-0.5434356404256653,-464.27292166470323,-0.7571039589854782,-0.48522424605162473,1.5590726791756049,2.841955976384734,-0.3433525322748511,-50.52311710050032,-1.0500713610576873,3.9773403035601276,2.750807961716271
,-0.29870154064284027,88.3920652530086,-2.4007385900191975,-1.0259188590774804,124.56061372549723,1.3927208217759826,-2.095061662105376,-0.11487949664933549,4.712416945462858,-0.8819090553890813,-43.08661082184451,-0.006554939644802989,2.2316897481840368,2.2680050338169524
,1.1386055194468891,-95.77879234479639,-0.9399252877319961,-0.4319126057096143,496.80257686110866,1.6620895302799166,-2.980511886394277,0.05480696612828597,2.00720419638215,-0.6379578325676104,7.746605335255568,-0.10510205317485526,-1.6627917193500967,0.8231590215135448
,-1.3739845927613934,-74.09744134922839,0.8939031739901144,-0.9598433935107091,164.44384037010732,1.804492509011397,-1.3936761020752642,0.8702211158509856,-0.5083474756450553,0.2382531948363428,6.378885711676269,0.5165396236214774,-4.847102424641669,1.4560111243498781
,-2.1272256490685186,51.40428318356922,0.7217465973548151,-0.8719847686490976,-453.52228638123034,1.6524693642045822,-2.019277022949114,0.6169568780746334,4.110061893053911,-0.2967923819282718,-9.195391733819976,0.8082495896982559,-2.1137183459941222,4.1252603747635135
,-1.9588947636300404,-81.19776876647057,1.4124204536534006,-0.8226030226782589,42.645018307170865,0.872880883066274,-0.07029338335443765,2.1239562387799884,9.376139658358031,-1.5178956399849353,-7.5703231293755575,0.28787259859607384,6.79749826373294,3.0553287836064795
,-0.378300135353529,-289.36585553805816,0.3639173729746198,-0.2088928321217208,87.92114821311102,1.0355501410887127,1.311872372917326,1.9939625833686145,-2.124868560868208,-0.7748964845384663,-0.7041949164224033,-0.43690496024306147,4.8476506726516435,3.445179337649627
,-1.257406653576032,-673.5589026691096,0.2613037771937053,-0.18146419909481484,-713.8161682428208,1.1062979244705664,1.079618274342742,0.31594584197961784,-7.9983473276959565,0.7214213677074531,-7.088733223989256,-0.26431068801529223,-1.1976619485808488,4.496434149444182
,-0.2746249265935874,-902.8630285609931,0.3977176897796129,-0.23760817620537278,-1055.392029342835,0.7607243629674132,0.5377971101094084,1.199818710179237,0.787519268648842,0.678411891914705,-10.045228247939935,-0.1798859458503181,-0.07323394795132612,3.451301718560032
,-1.1509020177937526,-169.14450796376747,0.4258893336129469,-0.12667751096690266,-635.818355721122,0.10997208466647397,0.4321620876709198,0.5064381685247081,1.9641622235831355,-0.15414826245487362,0.8243280823980809,0.272826865404497,-0.3372152925284664,0.7584221681104293
,-1.9648732997515281,-30.48457260958695,0.4179159952311767,-0.1658311931132722,171.13377473632352,-0.18200685103397196,0.9991737004527564,1.1575410565939497,-0.28916914280691647,-0.8407859085240774,16.44348771790277,0.007661377686369715,-2.6839279729852263,-0.7801958436314909
,-0.5715019549798821,5.890446560861585,0.08524976454094763,-0.6641850008754726,431.7215069790245,0.27636039736547285,1.2607818898861003,1.0966883798263354,2.667091840038576,0.1865533493427317,-26.25597160061165,-0.4308940279690736,-1.5720591159560706,0.5927216561946528
,-5.595395266424041,481.2871718614746,-1.8530124692255003,-0.33191010141752164,339.6065740880054,0.5954744945372985,1.316053699633433,0.4659328677197563,-3.8064622886180968,-0.2368288922555012,-8.094213715178205,-0.6272251144100791,0.28969688522349313,0.4591303984861963
,-8.009579233866546,207.1482660768092,-1.4150944567036314,-0.8279849898088907,167.28834378793334,0.5509380272955497,-0.9217796126714264,0.4014019022020455,-1.7565745751206192,-1.2143132846280507,9.852731793628932,-0.6897626581235129,-2.104657387144845,0.39589906187549534
,-9.61040257391287,56.75456502376835,-0.0007059713874008674,0.11593071823176694,226.47558813442404,-0.07415304001546154,-2.540757850318042,-0.12241967415546927,5.39157379911365,-1.4323844882680385,-10.605505398418915,-1.4018167753609279,-2.6174770906385447,-0.06284611557370821
,-4.375215775077221,-103.92507701231254,0.14238361574517835,-0.29766129704892325,220.57930166569258,0.2708594359570364,-2.915272900233118,2.739046627787509,8.34893580889723,-1.4517682205315643,-1.5968925181713738,-2.0758572481510384,-3.0976927182513387,-0.3542098772659246
,-2.0263977899037284,-461.1689213521422,0.6718035206772351,-0.5700957582091892,102.69102472650111,0.24490664533660467,-0.5444715815440302,-0.20097619843197104,3.243025846210691,-0.11102715176234113,3.045911925477253,-1.8282925557788645,-0.5150726471230654,-1.8500566310182451
,1.0029967971996123,-266.71360526812936,0.812710086251676,-0.8838337287240282,661.5893320746853,0.7489207568172411,1.6374359000210412,-0.9401590945927615,2.8574863810483193,0.624216105012866,3.9679302531366867,-0.5545664284691477,-2.158512865519223,-1.1978769238184628
,4.357648974971084,-36.24933880164921,0.1784240614045167,-1.0792300106977968,643.0948772045604,0.05452340280505929,1.01269291585161,1.9255346869262588,1.723071870282933,-0.7827441863338631,7.488307151421756,0.6556536192085357,-1.6373694758185415,-3.216481338443408
,1.5450927954546403,-121.8116030536126,0.5104379173728308,-0.2657464355017075,330.24881378112536,-0.5399507620356202,0.07514721510003419,3.7656843284165897,-0.9857090175685854,0.30354349209757875,5.763230144208161,0.5579647604270155,-1.151173653004797,-4.785549190886373
,-2.2644859402082567,-75.79817885712433,0.565986131236776,-0.4866417025500614,327.9346330060916,0.2509005330652028,0.31869237314777743,1.8100016897744404,-1.760789442659725,0.009290216492312037,20.448879194657263,-0.11418949610498742,-0.013192033949147176,-1.6953764697820561
,-1.6273462544856327,452.9026890917732,0.16269059328479848,0.15945137579697333,244.29746378843836,-0.3456810673044169,-0.5608100517122397,-0.5996066087967268,-4.107074876201821,0.8413060386590703,-1.6326384573445119,-0.955077796683864,1.3645535863122773,3.5383028102083
,0.6136040661419313,599.6253972686202,0.4445572414614413,0.712848360400458,552.3211533195389,0.186654796760835,-0.7322254293223734,-0.2492603054693732,-0.2934189991471626,0.7245163876488141,-11.643716423327257,-0.48649775199685535,-2.7342982305749794,3.637347769253322
,2.2248192657956527,175.89686331599702,0.8805845708584246,-0.25830075339483927,139.45587002865415,0.21304669923378744,-0.7519424075527216,1.2582772768156312,-2.2547390389617226,-1.4571834631270653,-4.761472413461503,0.011202891422564698,-1.9522687745336398,3.095697055862837
,4.4185051521212335,52.98427700423677,0.6507910237573855,-0.8392887906719237,-847.4533400064024,0.09265793071116964,-0.026048694544567794,2.538816322337918,-0.6092845521429932,-1.6049475609798383,0.15926650757562047,1.2608902890479274,0.5681821379326962,1.57001538013963
,0.2201312623704865,-216.03287815911833,-0.04784892429955524,-0.8091731387868244,-427.4872346123932,0.2087156129108331,0.9135698879097508,1.6861812978269044,-4.91192256122332,-1.8872598518233008,-16.140276016450947,1.632609127879156,-2.598941371420319,2.7988187320976285
,1.5243188450255793,-572.2860962121065,0.5067314052904834,-1.3106162190792097,346.760618030149,0.48401736231118664,1.2093807883159917,0.7507715184870505,-4.805420959896852,-1.7834145526932577,5.796687199982989,1.0162768846996748,-0.9370888680299185,0.6080253225943553
,-0.4410988491863962,-488.23111862882376,1.5587722457350408,-0.9382236344247515,832.867158799577,1.6436515180545932,1.7238203639166543,1.332972775995398,7.72537614243213,-1.0456075820813762,-19.22759453270594,0.6373637785483498,0.9766841845254547,0.45099697379465814
,-1.2380925347757676,-97.50325192904818,1.5896158979564634,-0.6616642916787681,484.6087158901901,1.0735347801205708,1.275284200460214,1.2099148490664948,4.889992700011936,-1.1430651856647354,-42.21419776755397,0.4829385707105576,0.6770594123142667,-1.028615683797295
,-1.2049955739957485,102.96087283849053,1.4770279422673873,-1.1914669478587978,207.55965934797487,0.03989379435934394,0.5832493907855874,-0.7082849577862577,-1.4561570754170183,-0.8940106332797964,-16.734641561220513,-0.10871908773269061,4.370018847694498,-1.5914780676950224
,-2.3186591888577017,-147.73881657222339,0.8830582195990372,-1.8983960007433693,39.181100808392955,0.005303063051030573,0.21613311203777374,0.01816240757687579,-0.8315287991960506,0.19380736134950796,-6.058258686202741,-0.19132080728864853,3.0147694767336035,2.7144781683815764
,1.5689265626156896,-62.03087778862829,1.7909970142005405,-1.6444525195566413,-82.8653766858768,0.49129397311394096,1.1865025770841189,-0.07611461987644154,-2.2172727614862757,-0.5978716855616982,-18.63790578377077,-0.20605215847130784,2.0414199357115184,2.8177001169107863
,2.0295725341672792,74.36100194196473,0.8928060006303921,-0.7505091644156084,518.9063355745004,0.5647427591744333,0.5175110996483337,0.9102863816838391,-1.1465148427418608,1.3905452304585224,-16.1404295165045,0.6287196436584096,4.179350672537626,4.254195992848773
,0.9591681079984556,254.58810213606833,0.10571980809278479,-0.22293956506714507,890.519976952954,0.3651790571729894,0.30451440136781766,1.673137834705738,5.813368176859261,1.9438923309501739,13.102713263765748,1.0770363828532734,4.303019901080725,3.946133785732176
,2.3427613269860466,360.81297729953485,0.7814409637299834,-0.5210185530730305,1001.1665102695349,0.6932172566177894,0.2923296888478941,1.1215043353233463,3.837964395690232,1.4692306522029515,-23.71991319987943,0.8543868246502886,0.6129405472538276,4.1289041020181925
,1.7364450746694282,164.88473483534236,-1.1488163567687697,-0.8034350478545873,598.4555985781745,-0.7449804718977404,-0.9681837377590674,2.085377592036217,-0.14293350713596595,0.07647103055100875,-13.458460834890811,-0.5134041935134402,-6.078710082041749,2.3973988941089557
,3.799299740397785,-300.09989824297287,-3.27518213893551,-1.0550548355279754,654.2094381475699,-1.4669639508689813,-1.852455815694715,0.9365472944285332,-2.177476672388512,0.960104069295098,-13.696981212250787,-1.2122333474867006,-6.910292959996761,0.6924341674623263
,2.9893012884825705,-42.36881814387218,-2.78547117777206,-0.7470001349309796,945.6189228031559,-1.2519389790207445,-1.7801393362339517,-1.4002069648431623,-2.0969331024355973,0.22266422526834823,-27.53321255209874,-0.13682467033379953,2.1177227571296116,4.609766237360386
,-1.1677672582710534,-210.75525945867986,-0.46783091591651427,-0.6282235589367255,1033.088825884085,-0.7114968028770655,-1.3618656931099997,0.42115224904795756,-3.734437871820622,0.055986327832159795,-19.16086239625181,-0.5017446907012376,-0.35175684188178785,5.088238366557917
,4.587869742891364,33.75455401704492,-1.451990537666772,-0.7664465229557148,485.4649815144154,0.7840806923103321,-0.3165345425845764,1.9966102350500385,-6.065991066708449,-1.6461100766388934,-29.544449731591044,-1.574833203322184,-3.4405810387299294,4.33550397019938
,2.9957282716334803,164.6774990819419,-1.9402711003925333,-0.43361208962729664,203.55074885392787,0.18024537588716694,-0.8139260891795127,0.11398242751226931,0.3785769706088583,-1.3552596570787374,-14.586931242663688,-0.9475663349005954,-2.7400105501877023,1.7104206220535414
,-4.545355938461842,106.4601053432857,-0.1951695790855403,-0.10068774764911462,72.6804122891602,0.34064904592414386,-1.1326918247536244,0.4021185317585648,4.885402320452732,-0.47774009430507125,-7.139336479655603,-0.23323724296245313,-0.5361725440353442,0.5282609668088654
,-0.2985601705599233,-56.78409678733665,-0.6760849547917475,-0.8907671162599873,-243.9551242408132,1.626846860058467,0.12596270725905426,2.190111168349862,3.6425817255317225,-1.6860801284925895,2.504305908672133,-1.50763442290368,2.0055972230608328,-1.379587381215353
,2.908688162913761,-79.49792529575429,-1.6344223873628594,-0.8172353840921602,-138.03817685904318,1.6474280536546662,-0.3583236433362354,1.5704036650429445,1.812381478291543,-1.5155374574918337,20.780432257009284,-1.6698522636642177,0.19642597161383962,0.3338957595168646
,1.942184248981818,-170.49197999297724,-0.412890892909979,-0.2640778451134503,476.422788875117,0.9583322162630691,-4.481290594063697,0.8483818943130549,5.116443349973922,-0.34589948534526743,0.12243462795411685,-1.4697411244710474,1.5197623843588235,1.32947762195174
,3.28761187130394,89.12971419155647,0.8354584801506308,-0.021399840543084313,670.632967264334,-0.087592411513369,-4.7176837581928295,0.9712618720148684,-0.21956139569681177,0.4039192646377055,-6.961320946392131,-1.4093387407767264,1.5190802789409787,1.6280084772449772
,-0.5824726516212626,-37.03818906716077,0.43148503091368245,-0.3041798907632336,581.6645107320991,-0.8829550753636167,-1.2542000176146113,0.5454509706644844,1.5920867097718356,0.34737933240111707,0.17250148119037387,-1.4014220564921807,-0.09101734591917342,1.1208365893262409
,-3.98868953796615,-198.0340028678295,0.4074243703776619,-0.6617502460516127,295.8372384384135,-1.3216642337966176,-0.2613733600182822,1.1938514105657336,9.468993471255486,0.6029756259332942,14.850179613825086,-0.5922732850895202,0.9419549553945,2.0248722591170725
,-1.9175836947464937,-289.0473420176885,0.5779120457658106,-0.05455929909673724,296.6408138180058,-0.2834301097425973,-0.10411180513936939,2.2884068734280056,5.058375861954051,1.1265914899237701,27.511965644460318,-0.3948506561653801,-1.5105313550500121,1.1698400364287367
,2.0246098395054135,331.52966522703554,0.5762155095237784,-0.3240096651461031,-246.7579677048196,1.030194585804705,0.346119735619714,0.8853353669234416,0.9372782561848991,0.629475505062286,23.97400381150354,-0.974363939769391,-5.3825837591461845,2.3061614752976407
,2.3059135439645697,348.9004047791391,-1.1064845241934826,-0.5377980303576,93.12339168005809,1.0501760815956704,-1.031439164329462,1.2447795276949756,3.34174403589183,-1.0138458218565667,-3.6324666225554894,-1.003953589859946,-5.5483667865263255,1.7743905619529476
,1.7122412463041723,206.77809910124978,-0.27688354668239273,-0.799014978183454,379.1206463571268,0.06832425595120444,-2.031393710135591,2.0158451840810856,3.7575798551624473,-0.7203219372133546,-1.504292184511079,-0.7717712177347087,1.0890478789470095,2.500312435395397
,0.14864040238449755,299.1508278965655,-0.35358943806435256,-0.7008604633989303,616.3393429760199,0.6084504547443049,-0.2993992566854178,2.456935062075637,2.8888152082707164,-0.09355482074812527,-11.1228984407597,-0.14077172936553234,-0.41492468590143133,2.8345882646733105
,-2.8662192595361375,72.30688584377319,-2.0366580008478956,-0.849052039386365,631.8757232289483,0.3011080695659243,0.26317022280374236,3.4166265298846135,1.5650019041563452,0.59298835839333,-33.58424680316274,0.1833160512443113,2.0698547762078974,1.5680842679250375
,-2.5960832544753587,26.170374040482116,-1.3999842844637658,-0.810018244317385,289.640432386333,0.655466566393296,0.35972086723516594,2.8943133675617516,-1.7617474757199096,0.7660517441474316,-12.432491440986551,0.12306434614406492,9.45877668707113,1.5943822566230612
,4.195279865248291,196.2132251157368,1.0034389899090073,-0.9129876169910088,371.22113763595667,0.8731561414678631,0.56150514024048,1.9348910989676573,1.5512369471321303,1.584864462071565,-18.18659067839468,0.29834959152986623,2.6196770877736557,2.788503942399698
,1.1144045189869332,208.97365876489718,0.566972898351378,-0.9473675539242645,305.8091130589545,0.2577406387425224,-3.5138292652156213,3.455759913250658,10.069112078499115,1.931862464822226,-11.728055718343798,0.00023761411987662637,0.5482974007203131,4.408997085773637
,2.509977037301894,27.980507837278804,0.3751502819966837,-0.6848721062157316,414.98998040482337,1.1283327302247903,-3.8202668384126994,3.4572229512047974,6.772243993247632,1.2243643328638114,-3.0711584055570107,-0.5842998156924856,-2.632617294464915,3.9541148773492054
,1.06975377374048,0.16085374695208812,1.4819116018923981,-0.35144723889336216,74.39902389236558,2.2163658415010272,-1.0003045526338505,2.608845461403875,0.18848016496027442,0.7712538249418669,3.7001723680769274,-0.23381875364826316,0.8651514571295336,5.105974682450615
,1.6775633486575259,45.64718900975531,0.8654375198053704,-1.0146044333339463,220.33509286391413,0.6031307239147095,0.7823915603054544,1.352207818934469,1.653100751583218,0.11006671972464306,21.194804039905872,-0.1119264725615757,1.0617008979245977,3.123384077367079
,1.8057503082089108,-46.16506447831373,0.6886983717933465,-1.5299321421845697,411.40351711617177,0.10150008523034702,0.10568580846427124,0.24627732080139395,4.582800516238036,-0.29287496139452596,-10.336567830756332,-0.4428711554871021,0.24135370692778702,5.016236085792607
,6.281568632633226,120.06646954199614,0.16956787252406189,-1.0543445868613956,819.5127739143231,-0.4401991558630484,-0.4490894009192006,-0.8508380165954673,6.141604482873424,0.32507311358643537,-28.979445988677185,-1.0120107071899127,-1.1982862869637405,4.11204232163715
,3.0095276175022154,114.40862399025553,0.4809705453642584,-0.14297298899782024,582.0447235996079,0.18232864835511825,-0.3434053108652026,-1.368491251942951,4.83791434489357,0.4871454638194214,-31.07858389061502,-0.8130638401458234,-3.4809623196829693,4.534882651314348
,-4.324103265587489,164.26790848923136,0.00735389400765019,-0.1411031972347607,497.05179010130075,-0.944788076410356,-0.3709390884809779,-1.6822781246219785,2.798198165043222,-0.2938911490142334,-51.06132950367131,-0.8217732997765494,-6.350944162366386,4.998967553821446
,-1.5623081632479758,13.628136199735247,-0.8434782704092465,0.08565005340287302,272.96172348465876,-0.4485465709297427,-0.37845447111230845,0.32366966427164273,4.609628201472876,0.06696836400067911,-35.820039578761005,-0.6528703536841655,-7.054611599847249,4.626105973966949
,-1.0390586736038148,-32.52617043948127,-1.3934514648061636,0.24554520059802507,-231.41599892655296,1.1225692089286592,0.035211186634075846,1.9097123002384908,2.7241191367228352,0.12148639672309806,-32.61016792678848,-0.43903603036063965,-6.221051493954848,5.1501437129080925
,2.205950726123226,98.40022424726867,-1.6270911665810737,-0.40961013189188905,-505.44010128916614,0.4344698146572414,0.37557887607574153,1.0284044613225602,3.628803570910319,-0.5277193446576862,-44.85636616813087,-0.832079417062775,-0.7674828477500688,0.29603196216490363
,0.5159606857954407,15.872575540336733,-1.7718277168741106,-0.9540865687981925,-10.649016893877171,0.35970022537199625,-0.11966094468172972,-0.16752927860157352,-2.822531473790333,0.6621251895615288,-41.359000151114664,-1.5840624088128383,2.6941842867787864,-1.214839537633215
,-0.30854617579068516,-220.55864471580614,-0.8696876836603598,-0.49347375625199386,185.25059495291643,0.47740834999259635,1.071832104987664,0.16385770566956048,-1.154489527716615,0.4338921352077774,-30.236451517602386,-1.2781823922800113,-2.9510122083146175,1.5938032984740595
,0.7860169134589042,-7.78157577152389,0.44299717234265734,-0.1896801960872173,553.3813378406766,0.5782921283601639,1.2085854669329443,-0.8166928831675637,-0.8178001744524879,-1.4274112252480222,-9.54895318137919,-0.6559065228849386,-4.583486699255799,3.7671860098892282
,1.3671183246098768,-17.186318696679486,0.7264208179410101,-0.6322309587201383,303.46405690034373,0.35344994678488206,0.20045621256388413,0.14522953626673316,1.1543529028466566,-0.7996667060833937,-27.330190146694274,-0.378820201329409,-4.575002306287547,2.702861336794307
,0.19652836193837514,44.82818979673197,0.33561408748938,-0.3290168934881806,298.0454159109734,0.7494107464812125,-0.12384210940160484,0.5817140667597965,-0.31383174360160904,-0.610965483769934,-19.936826188894027,-0.24913727678764835,0.6093597927065392,2.1171574308923793
,-0.4619874762481176,169.31222446281714,1.0769405387303532,-0.33040151109865395,274.0890086807142,1.6809604719659423,0.3225675748185413,0.8833562926923332,0.7223797008759147,0.07186511728477682,-6.772022045366558,-0.3433047425689165,-1.0933900468133497,2.829193894132037
,0.02548651673475831,7.435172772408715,0.1657624103267734,-0.3106403006279715,365.960696479503,1.1256953229403763,0.394307495232129,0.6173408282985933,1.1446067756682456,0.18438249686663644,-6.48159811772403,-0.2619705511041271,-0.00038909336409380927,3.5126304742380356
,1.0859828626502492,-5.489442191983745,-1.0905726643017903,-0.6251402243501036,163.03520504170413,0.5698967114682143,1.2278993270447545,0.656839277177042,4.33308757502238,1.7398651388567044,-26.316069773673313,0.39209426569663774,0.16650973990823345,5.832761294383179
,-0.4775733261023362,159.85103285052872,0.389494363769929,-1.1034109907373193,-71.28392329383736,0.7226204040784486,0.8087134133743205,1.4148781370394494,11.329721092004437,1.769157614244348,-24.725471707208946,0.20805621015034703,-2.721230715972144,4.809440621988521
,2.1158701369807056,171.85509210482084,2.0096208827278867,-0.788024325289666,46.52021535760034,0.6272513908320776,1.0341072085543428,1.3267009575191129,6.7150499807844355,0.20878623585029024,-15.590748113417524,-0.2501617886560411,-2.1890426487590706,1.7714876801444517
,-0.7549613545368712,41.1129329551464,2.9585133212606607,-0.857653705588544,-359.4208884394934,0.31218342506924973,0.3611492881104919,1.641490781923993,-0.14043109981729063,-0.7061931515014447,5.5161029091589215,0.053649889298696275,0.6558527115149287,3.6798517485138516
,-1.1175436591905985,-378.20275337217606,0.2964290774838449,-0.8705799007458527,-381.82157393607946,0.740794303978259,-1.054873255286611,-1.2578955241837344,1.6527787737565869,-1.0906333239902533,-4.370564002035371,-0.11440473434269385,-0.35397715515363587,2.7816642217099394
,-3.170326129841877,-241.61204136557754,-0.7437563762955252,-0.47934248664601137,92.39054477073441,-0.25695978819213716,-0.8976808295673561,-1.671645779835285,1.5357115216728958,0.06780844391592307,-30.9008251197099,-0.5487636260670106,-2.2958434657021893,2.0414329694488154
,-1.9330717399791468,-235.62061593477128,-0.6332046563703223,-0.47266564260200117,395.64192535777397,-0.9958457226722115,0.25129649910053076,2.3774398735649527,3.724064667156658,0.918927890606498,-38.71240827029824,-0.5390207549781991,1.066986210662194,2.0885753005469647
,-1.1909493061322947,8.214945050985245,0.21477813487390934,0.2043858036140946,291.9522982028279,-0.6459594360113164,0.6971217802032297,0.6690280075036037,3.6205034782508445,1.4421864138252045,-42.101342558932636,-0.009545557485220835,3.875729103641039,2.0328146145459702
,-1.9885771399920933,-140.62948053840026,-0.06750793332069793,-0.2641771986838279,-74.6889179470154,0.7775326798802754,0.36786621947001885,-0.558396676801738,1.7023959149128294,-0.7671537677928707,-24.477323443861582,0.45115448889495147,1.6744019129319228,2.8298057772251433
,-1.4384578448695684,-234.57727307719904,1.0896443973029637,-0.2805307420430987,-843.5417041835486,1.874990107876795,0.7178858832201376,0.6002664635746872,1.8935697638347146,-1.0079318476777417,-20.055363477549385,0.5777770874935232,-0.6726821403654456,2.849438772598357
,2.3061088745515397,-283.0511685381539,0.26236563324607154,-0.6929603162713363,-851.5216138281406,1.2210229365958476,0.8303135881798399,2.9378102279015725,10.612177726030785,1.2418549669146124,-26.554484324861246,-0.11369094360589463,-3.2411166136424696,4.588172018880378
,3.9178602211410523,-249.10548403046866,0.3985403954666556,-0.8723473400829101,133.72685881255407,0.22803061816619533,0.8791515015257851,0.7751812914219287,-3.764932121379577,1.8141229882447145,-23.667435200010253,0.03645840360270638,-1.8557056089093862,2.442253254535118
,4.022823955978563,-343.55422726643945,-0.06350485947005784,-0.1717734416053324,278.62830165907474,-0.034599909203149364,0.3734526717893579,-0.12653133179478437,-6.1203250096858905,0.8445255671740467,-16.715776370702137,-0.7645684664268415,-2.896355910765992,4.189661247724136
,0.43957549046479405,-258.93993845631445,1.165545630279771,-0.36401602400122224,198.74607209462658,1.3371802715683108,1.68224921585208,1.547179362944934,0.9618506338431345,0.5629250814724824,3.499400784174605,-0.4850673004437515,-3.9122102086128283,3.8861263115306146
,0.24758996738798875,-139.10072215837994,0.9921947581123123,-1.2835682392520498,234.59144159428487,0.9839433771105487,2.533818643570972,-0.24518981000450596,4.9923012773803155,0.7392197411038881,2.047965713609612,-0.3592056799896641,-0.4558554182915745,1.0750550448015217
,1.6122530733817808,-133.24984247074548,1.2919063564445468,-1.028940396004341,472.14144187956697,-0.3037653312019199,0.007324439082345079,-0.9973414176860627,4.780967749244394,1.4001067117679777,-53.726648258109165,-0.32248725281488877,-0.2582136491326597,3.5940011070440736
,0.4907996607787259,-417.7431335473019,0.6632616030330601,-0.252443639321714,132.0999695983171,-0.5000202893214952,-0.5119536751317587,0.4486696323722211,1.5659697215513504,0.9765323912164924,-77.6078194973368,0.28816599402902243,0.9964618948384736,6.697192871371836
,0.08705668718569097,-554.0894818534457,1.2432181534811482,0.16934133397948228,-159.1647374139506,0.202248135448535,0.2090612569028858,0.6405266071426876,-1.3968057813224029,0.5611022115079027,-53.236048002453416,0.0598116220444297,-1.9877697859897485,4.364082270681574
,2.74606744741115,-361.12988546788495,1.088471784232664,-0.37155384113946394,-182.86759438650543,-0.005911650740359903,0.703269064665919,1.8883521076817027,0.896939532525242,0.2506426077549138,-27.93806309439506,0.651338965197109,1.8492143893966502,3.257518458883493
,-0.29246380456543297,19.738004724513196,0.535401814340621,-0.8170681775606433,-117.31684124750367,0.7117269607631287,0.12254183489973784,0.5360041984068677,-3.39579801349812,0.969109453446274,-21.464514878592844,0.8136603333520226,2.3280468449537213,5.78530638813887
,0.7982794300057959,132.3822484275365,0.5975598554095276,-0.5386413793193313,63.41790896082574,0.4554716806334117,0.6217278024173928,0.7358764309218147,-2.694475207775838,0.08042996920560785,-30.17297159491388,0.17163574116787636,1.7900626985511396,4.7864952288148075
,-3.169831151016614,-57.45128998647544,1.2351388857062042,-0.5857394098181942,58.43340923556096,0.9635454137971616,0.41755056958705905,1.8919189933528315,-3.2344465340243262,0.26739001440142457,-30.906970825582206,-0.04210921026292993,-1.4983236952996721,6.681267989373347
,-3.0812085301468595,-215.23488122552675,0.6089684776983288,-0.7208833475040044,231.03547621237553,1.2479911223823765,-0.0035309169625665784,3.7371476824607446,-6.474110123740388,0.02485054776873145,-36.925980432968345,0.1995920472556042,-4.014965646708435,4.307409408577818
,2.4563801201428914,225.88172143033967,-0.24541675062347748,-0.7144961183170313,52.34773148213092,0.7521514517823323,0.5078601241722813,3.777198425017362,-3.267899157872044,-0.12168052203060743,-7.104437394349025,-0.06357457014149048,-0.1445725178258653,3.540126674906095
,-0.004272969078464063,354.6207678305812,0.9839772444566907,-1.0775667976099987,-207.79827722145023,1.01187811626874,0.2555043340111774,2.239223332437373,-3.9773843572699232,0.526087499449575,-4.519862559248082,0.319651474944092,1.4205661571029216,3.8327140826779496
,-2.3528584040306155,3.6029753602824597,1.6065427089123854,-0.3369823592782123,280.00369964534735,0.5457767256673269,-0.7758436142828279,0.2828140028936505,-2.9048080770986173,0.44455290006367376,-33.63277145512431,0.7837143556435587,-1.5375487134314734,4.199760636098407
,-2.351252312579207,-278.73349945235077,1.324724065354864,-0.016128837813942483,128.86065465583562,-0.07325847873672146,-0.23549777470557762,-1.2502746019747437,-2.0328121457189314,0.5825056251424998,-29.295297108886842,-0.29850963778304174,-0.7834511356678711,2.499248815200596
,0.20523043038306124,-274.9442186904928,1.1204819935044912,-0.07887153071528832,-605.3102668194392,0.045104086739759304,-0.13870566447674504,-3.397501092311704,-1.4306065413281808,0.9404342156058457,-24.102712988552625,-1.0903577641804998,0.5595467634427634,0.9536869387933115
,2.1786495027915893,-290.7264427364339,0.17374095163663836,-0.28919549609522754,-467.99102552846836,0.08655529920714185,0.5322307924618613,-1.1282114420461322,-2.642143805568534,-1.2320818443683859,-43.46108169672498,-0.20675665567542356,-1.1305906146564193,-0.2667183242518852
,3.5980206624360154,-209.93311664867988,0.46034142467106964,-0.48257742534152387,12.206495018343585,1.5251459718309808,2.1385920082439154,2.818768922613457,0.8634638850497762,-0.39792413971217366,-28.370947977376563,-0.27457531599054213,0.8989306404836473,0.010918937733032043
,4.223702861518326,-544.1008022568259,1.0391510511832147,0.49494067606943276,280.1196561247647,1.8871295150133665,0.9297028911448427,2.317228783760055,5.700274781804658,1.2407073750001585,-0.07587172162852993,0.059062139640683665,-0.6080158588249222,1.8793540864893092
,1.1720924370756831,-316.87284315617586,0.14121032595780997,0.7692964177605301,-0.5432610050160519,0.7668021561348762,0.10396831348271297,1.4270603939831248,7.598371792270669,0.9921398514006375,4.07741278168541,0.33968645810468334,-3.9499816394976706,3.3489007802884605
,0.2531047388629319,-223.33154806659846,-0.3763581376089642,0.2832840078520641,-298.46627588315715,0.7182363697805311,0.5778470245228523,2.3621781724899553,6.149779537868217,1.322986066924713,7.910847151102799,0.30238426462925977,-5.475915122338159,5.269979756369604
,0.47210448792505266,-395.2217749984479,-0.17790506046848512,0.15383839124062335,8.440459801112304,0.7011335749116794,0.6460190589328241,1.589377779447524,-1.3937588749605696,0.8476215023276994,-8.523472104788185,0.66961007257077,-0.47606898287771215,4.142677095158493
,-1.0068707945135489,-567.5671872965826,0.18804554497511775,-0.5145553125917557,143.04827764698226,-0.4503804742205229,-2.2368827886841545,0.011875825126070867,-7.515493535282378,0.6018537317065891,-31.873718824500862,0.7803378629066721,-2.6655504816154463,3.6286625265503947
,-0.10565919923047065,-248.03607195944923,1.1837638711350449,-0.2871456684858197,138.8085171702948,-0.24745390636201164,-3.654100162510464,0.5438191483152058,-5.7313040314426535,0.8452166404255131,-45.015108608745024,0.34905202468601343,-3.3005117531171466,1.2066216404468137
,-1.92513104236594,-147.75907926593572,1.5172484591764193,-0.7394828516056204,-168.57709712293456,-0.5744732472228598,-2.452187083927702,1.6198363880278028,5.218432508703236,1.3040259335508098,-15.384796171272303,0.21884081809610886,1.4855933065312186,0.48941864577776545
,0.31116329629524825,-97.5007073251241,1.1154645054420784,-0.7935175144687558,-302.09676258247293,0.40610615435319825,0.5059076071582683,1.8718198298523492,9.137797390425291,0.48719235833634295,-13.36809259142832,0.6042223031902998,-2.520765486436714,2.789633644454958
,0.6434727350433227,-135.649331861852,1.1949273343934839,-0.7860628270586352,59.45036786151043,0.5366912497997677,0.4278476016754046,1.2293106832401395,4.064607544340233,-0.40054480225186473,-12.768859167974773,0.3192695847462128,-2.7053910752384427,4.959855799557738
,1.316035524750624,2.688369376974782,0.7349578121357436,-0.7453760216252118,26.1769914617334,0.6016208711402182,-0.10177797855167228,0.894481948695975,-1.4689737691259843,-0.26674190029127576,-22.258801830175067,-0.5275973129080958,-2.585022426373743,5.179589374624622
,3.519968285619036,144.90940388010904,0.7284976662835546,-1.264499353246568,419.43560435984114,-0.3422947574119912,-0.29292943416848166,0.9192958088274905,-2.899852051759188,-0.14842036289770955,-28.506346493909078,-0.9550165228493014,1.106806956178186,4.182547369446962
,5.234977678829758,163.72452156359532,1.3729742916776007,-1.0445016043912811,391.9752136386652,0.020824660668800687,0.2804290793796451,1.6765594859790787,-3.335938235306986,-0.5157012258092125,-18.175150992232076,-0.20311559349007471,1.5948202208578537,3.1166668581032075
,1.4823318386071251,-267.19563292295095,0.457254041018573,-0.4077945395858371,357.8007614692611,1.0274655894644065,0.10427310579065803,0.9240810467331434,1.2384733720442047,-0.6920336034995529,-34.7937539759942,-0.30729460806982684,2.929476978615053,3.5984820964934103
,-0.07720112677910682,-527.7260176428673,0.7419083933428595,-0.9013591328015442,380.0769405979423,0.41610878318977734,-0.4105171347318924,1.3049854873871958,0.40623489006508845,-2.3055679521504095,-24.801561989985863,-0.011227918239511003,1.1777188804963337,1.8604375597340783
,-0.8243644999949996,-757.9392537999344,1.1789958964166403,-1.0115135969819704,-210.94612462799446,0.9949835818188981,-0.631939099560565,0.4707843761334451,-2.8524085852451724,-1.759791450607466,-9.772093291296052,-0.251385565310698,-0.7650543287115502,4.751715321540713
,0.5022834313876793,-153.33084896029428,1.9257529921864163,-0.5131676159666942,-29.43102688925807,1.459596292871656,0.14697410985581738,0.5309463321480146,-5.215714071185522,-1.0080295136856883,17.13574425469757,-0.3811088188117652,-0.5295852302370142,5.9832442099144805
,3.466865347669828,309.76437168069293,1.4205114443911286,-0.1690812271388452,700.0844334525381,0.36666810105583586,-0.38187296226122147,1.0192959558195391,-5.033189234466744,-0.1581452179072589,1.8114423182830313,-0.2783275141174637,0.7818303044193433,4.415426843751205
,1.7944619597722367,192.2283017187622,1.2610715061195155,-0.616417535466771,676.9911856972539,-0.30666222526343406,-0.2984290893824865,0.3715742842356456,-4.50100360214383,-0.3070371293907959,-29.764828251792505,-0.15706762898152166,-4.644006051234616,2.933172100477829
,-2.505480814187736,77.10866970412935,0.09288765012731429,-0.3294151111049138,-47.61791979403611,-0.16312498228256933,0.5380902837110522,0.5967981431099539,-0.8022076930400603,1.3576721894142532,-35.77407443593083,0.21809261925925805,-7.6785070220279446,3.535801555594898
,0.930565469216119,-324.02121126645284,-0.126751911957139,-0.7656265471826265,204.80665773770673,1.9230741889358207,0.5370342776489899,0.1977011006764078,0.2997612517834117,0.9610403237661277,-17.237536380167796,0.13280394256882647,-5.329807242195757,4.589894958589735
,2.275232657588634,-145.16326318345767,1.217246141320549,-1.1609031640824228,-93.25060230082478,1.8471656740595832,-0.17084561384897015,2.207216743973156,-1.2114459381615978,-0.1584152296874435,-2.515151338290726,0.20169035391891504,-2.4133167525668826,2.47763376416493
,-0.2531382506881512,89.71300334571553,2.339565284027067,-1.681188631206821,325.8881321209266,1.1975548115387127,0.5510799491643704,3.134785459317688,2.10557754510471,-1.1877407641197468,-1.087821622910654,0.0827736843485522,-4.3749861265806365,0.3340147962913119
,-2.8931985791125823,67.79270980033832,1.9180610904727173,-1.2061491696425888,506.5201154554128,0.6031904585370835,1.0583846944016915,5.22103114555286,2.4505178202870423,-0.8637953316120622,-11.77693688690625,-0.5877146003638546,-3.9258069995973868,3.867754417940474
,-2.1288722912170277,-61.973538866070314,1.0131744706376697,-0.26259589541701245,-59.1334513404658,0.37101227378069,1.258886397031179,4.216457234296916,3.7456408906479823,-1.6528406976146428,-24.761360913840498,-0.5462698755223745,-1.2962889459441533,3.888443904768996
,-1.1836438322246883,-214.9699575169315,0.45036038169193887,-0.17345722649110756,233.8747359489033,1.3000105200599414,0.6559231250742142,4.69819934866102,3.4656660855631927,-2.713588523391468,-41.73279986469577,0.3833887256611275,-0.6363353783290828,1.776242081575274
,-0.8412391376136448,-680.9507012027682,-0.8950646558012774,0.09943593101314682,111.37059628873845,0.5996199451158154,0.849384932914988,1.6777263455116833,4.442677798408978,0.17931275026287685,-50.68369482637519,-0.09802201554635566,-2.95769319885954,1.4901737095165148
,-0.4986835503747373,-510.1611439302331,0.06707388249673243,0.28233186578258285,-186.48699558033118,-0.007931246910524005,1.34825554620838,-2.7834089213933098,4.317752323462539,0.818242136743246,-20.179294937215385,-0.4511600562842478,0.28592152467162135,2.5786113103633017
,-0.8186592401469455,-256.56964795980946,1.8498974940982187,-0.43026433814820564,-195.2381744776242,0.35763721561936906,1.4869959936661314,-2.0130330876133837,-2.1373972382775213,-0.46893840282020954,0.6541462369848645,0.16497203017774648,0.8410147265180091,3.6085999465765615
,-1.536547472077021,-186.5773967198767,1.9456515738882612,-1.0670994351987357,-141.62257829504256,0.6742457510506812,0.9278948520148306,2.7579042912942984,-0.2778818842609781,-0.3347659052956862,-10.452039492654611,0.645210997329142,2.4224164207884606,5.353660111966407
,-3.7559338813729504,-79.6996998365266,2.5393369124434413,-0.8375719334035067,-72.33525101951741,1.0020655975730612,0.8143895713927289,1.3624412821703038,10.458811144051355,0.34896355434926146,-8.67386435341014,0.5099927965756506,4.490491073255891,4.86655640715959
,-4.485987707941266,-148.64007649129914,2.165139417324177,-0.9237220570585671,39.0499163255721,0.9875764834374973,0.8674150746495846,1.3538198269777715,6.441936731792203,0.26693721386336394,-24.257802568911984,-0.2840860206198015,2.0643423871751665,2.7224900062633663
,-2.8152874150472353,-435.6983899047391,1.0885756945173095,-1.0481903914960073,-293.2046106527315,-0.16807888722316086,-0.026552288395858593,2.4500874905334022,5.122501704670137,0.4722918508259844,-21.574583601544838,-0.3470855070804631,-1.7782931202988546,1.6193583375392369
,-2.9493586162145866,-223.89889166934097,0.6695853805004904,-1.4632088285115015,-210.4976059616973,1.0047186711424452,0.7356992654089037,1.0055247621830372,7.575323813922593,0.9430548282940611,-32.40879265634814,0.38774486573351075,-2.7232772277266277,-0.8049694067666628
,-1.8396418787335975,-203.1781670740531,1.4439759914623211,-1.4898357436241063,299.98911190032464,0.9456485770361647,0.638560277536793,2.367333017048933,5.801801814771108,0.6464795101886518,-22.382846988612815,0.7432717975595693,0.7421999085328875,2.078064762372728
,0.7255158650166854,-160.0954740993426,1.9683755733975994,-0.8179909583330593,226.41071457428717,1.0698116775266306,-1.5364938358130154,0.8889423750668216,-1.8325876537566341,0.4471199502247787,-31.231761961351385,0.5582888412831266,1.6648113054902052,4.001453563378177
,-1.5180506908361133,180.30661580866334,0.32601943612662826,-0.6247007545195,-58.03491114442618,1.0181076970414975,-2.192589759135285,-0.42071448277927903,-12.950259325142929,-0.43369376055666803,-64.40710033034054,0.6308771558754754,-2.2299013394002816,4.197574753758559
,-1.5618705346053547,277.70691240260436,0.3981359900200326,0.08090473229544697,-210.65512058916624,-0.3445921451393886,-0.8552425532377538,-1.20836168164404,-9.766003609966823,-0.25078985803327536,-22.868120207706927,0.025819911555143852,-1.1295523234953024,3.334899178238486
,-0.021027094030185448,193.8196612812483,-0.5867105347150302,0.04060998335856113,-254.59064532832525,-0.41324855570787,0.4480824567775491,0.44725574426915105,3.86059608998885,-0.9256736471395101,-14.929340858096188,-0.3663605727192349,0.22388969796027033,2.8961582466528775
,-4.2801254303397505,-79.40478581862429,-3.279324992629885,0.0714777348348937,-446.6505799373213,-0.15173803713900316,-0.8690330900193893,-0.019277969872416707,1.2918955334672155,0.02143347450735561,-10.38469618975854,0.15550194591545702,2.066023506931467,3.7927996698813753
,-3.829772030494605,-188.8813572276287,-2.4763138762509618,-0.5125148088460139,22.97498242712082,0.10109882894807827,-2.8357281293078755,-0.41409114658442936,2.1327814811838994,0.48211546871071775,2.7849825122578737,0.3313699747701263,-1.776446478670721,4.679277224040928
,-4.34344924894716,-627.3436153268377,-0.6270510517543926,-0.6939679646395555,171.20831449456082,0.21141562578868983,-1.8458222345731485,2.638771035459949,6.445817823808,-0.445616081517487,0.7614683977028777,0.2921140423758631,-1.7527596640654521,1.6894646334176038
,-0.2233654623025631,-376.59558453037835,-0.17251004459068314,-0.3160073905001898,88.20834588668133,0.03765037730003526,-0.4508542866334531,1.4835361481529241,6.275028137517446,1.0825821636602986,-42.795769903735604,-1.2686777581694757,-0.3419705477859769,1.0261209819502053
,2.531516145773675,-100.88601753157552,-2.689024015693744,-0.6300804530546139,-16.98363511874823,0.405703397020975,-2.2977724882907267,0.8746489166502103,6.318516816328139,1.4128342160671672,-41.55734209839558,-0.9703228019796075,0.2704185750779757,2.5286248332942125
,-6.985733544913682,-155.93032398613852,-2.232060115050944,-0.799659611165831,-0.9266896021379297,0.1736548219617161,-1.538880122855246,1.3850946729892755,9.005584155987936,1.2387451949190138,-62.17195116366528,0.43338899524018704,1.43387840690658,1.6055348525714126
,-4.086813123305993,-117.05360391584284,0.08283353543467355,-0.8438385443055055,85.55586807128181,1.8901908561902805,0.40826259406377957,-0.012344492023699956,2.41288744639008,1.896050216046575,-87.38604247817109,0.5793577510337627,1.101736522062434,3.177425534732603
,-2.525121430602185,-187.89292315283186,1.6918760915860727,-0.03706626930882083,-22.464378549373677,1.0296276629048022,0.5452104639284328,-0.6258624284827567,4.951750195858629,0.9591451949579998,-51.06590163673109,0.449292025034217,3.474603067087509,3.9316092170883965
,-3.2477530895879068,223.21271559394484,2.0813026809285455,0.1565721836015075,-123.95275165006072,0.1851512274083647,-0.5077415235044289,0.37434790688456876,4.831579378356208,0.28341294359714597,-16.71367096645445,0.8242693253676351,2.5255762158770074,4.5020548925303645
,0.42631095477573844,12.734344348766824,1.1672839564303246,0.822526411494213,158.55592009193379,1.5014588534713076,-1.022961265966538,3.9739497766784586,-0.58476702280173,0.7606140170262811,-15.690770979817648,0.3609818241895019,-4.506442966255818,4.055330292888048
,1.5331131523529946,-480.46975768455104,1.1625803426379675,1.1786722367925455,165.17916121472874,1.6525800630168115,-0.675766962741924,1.2083906830518283,1.3925588626930454,1.4336868276286618,-27.926902337228782,0.17734331079437665,-6.687697006227586,3.623761043022971
,-5.15377901032192,51.3629905127785,0.7569060803675219,0.32248943317452494,225.66332947461183,0.5260243745070985,-0.4448800146626547,0.17212948873330694,4.497526871026508,1.4886986986092037,-31.842744881655427,0.1097050700940191,-2.999017220686256,3.1498437016672396
,-5.484783950080589,299.78980279071504,1.4923115432138185,-0.48049596759422203,-240.49568352836593,0.26406585720888354,1.6962731846394261,1.4150452922830246,4.161834891724663,2.0946963032177615,-1.6985538424047293,0.7496659846195848,-2.148866345534653,-0.10470687226026747
,-3.1465909828198306,79.71021466549203,0.9461479890135379,-0.418770729031535,19.822085342027165,0.9048407004597993,2.984301338888635,0.6946540400141766,3.4392259236401443,1.7724452922000724,-3.085323610646957,0.1304145057936359,-4.42028136406283,3.3625761503159137
,-5.378011620119303,40.2881853075248,1.2349355879230743,-0.27808719808313803,-69.30377645394498,1.2678092101631449,1.6288589075995568,0.14526392053716325,-1.1068555179776287,1.2815774892550438,7.961684565809774,-0.013642699651903983,0.3559082292498867,5.775410586838814
,-7.91516686352146,-269.352722817097,1.2994477768110455,-0.0535829952099684,201.99901654730294,0.424956883075794,1.4885161384115038,0.6740646475833634,-7.568566016649521,0.8414113199408084,-9.398861544201914,0.021367187778088395,-0.6058026276014613,5.238029292224377
,-6.08580550488235,139.16101850357444,0.5436720430707176,0.44476530992958857,-169.5702553462813,-0.1593489953918971,1.3582661793682143,-2.0739401271849642,-2.8954914818227757,-0.5542297910311064,-10.865966726336222,-0.5789364617256361,-3.787442062975642,2.924002579827117
D,0.6646024152211978,383.2770467390888,1.4342609394012122,0.11827125544476291,-353.4471137015524,0.15135228414930735,0.2526251101832179,-5.6189965781461835,2.033986111882687,-1.0600279649814515,-7.699064838247361,-1.399848814286619,-3.377365888668931,2.375654360139794
,-0.800187410258351,-86.6277265931728,0.4616199094472717,-0.03746364259391327,66.6539084684431,-0.34621344020252526,-1.3880141858725021,-4.177278631704044,-2.8590911924273827,-0.19128007400285965,-19.2063739818305,-1.0123184838536334,-1.2588665989006393,2.981028420392856
,-4.023854247917009,-115.26228426136073,0.5177069761756895,-0.9390628048515536,573.9563823335347,-1.2438377417938684,-3.158835489487482,-2.8418075515487478,1.6842400386613732,0.18536236117152816,-31.588218576656583,-1.0388757960058617,-0.2091313241851953,-0.27958137640736236
,-7.960519853653324,2.9326143770715216,1.3132355710233443,-0.8500992248633374,604.3067929593475,-1.4098914519889345,-2.3775704167121687,-5.565983418976638,2.178607493226494,0.9595635729175855,-7.768982925615991,-0.5457795550840956,-1.3605193383233334,-0.3891946415564519
,-5.954445907947592,-73.02503189460958,1.2721671836828143,-0.5386546266419074,464.97640231111336,-0.9915826887293687,-0.6776482123953856,-3.0843481389365395,8.61653059399512,0.26989666771344745,-23.080569995880406,-0.2969710041369521,-1.2322486075252856,1.177127259490459
,-0.8072930449788622,-288.51486811220417,0.3244072824528612,-1.031953339978131,390.2158846163107,0.5062459620681341,0.6235770361982248,0.49128233989687453,6.064123703770023,-0.013817612662387182,-6.3304584776898185,0.6852575658205897,-0.39316920054140003,1.5784739381111679
,2.192816878245683,-92.26710381126476,-0.4287606202818732,-0.18730030920579968,750.3375897675107,-0.3957701335310495,-0.4807671280281238,-0.3549044458777434,2.0324827264435466,1.4883841814956769,-20.306157691021532,0.029589179733014042,-2.2789919138180026,2.317444936329356
,1.6195208198499584,-69.30926143110828,-0.6918913064704091,-0.031140058003431753,519.0613900368237,-1.2269358100116579,-1.7075056173026222,0.5528651861512949,-1.998015077145769,1.8453491839262233,-37.713620345591586,-0.1620649226733184,-5.408302722331402,3.632532562268202
,-0.27521875628146697,-549.8248081456785,0.9284355391344356,-0.8706539106980048,762.4402198053511,-0.5410944794578019,-1.3989519933327847,0.6323368335959062,-1.7617457164985635,0.16617660272656898,-31.372844937058233,0.029933043218894624,-7.1349382628446945,2.766593426913582
,-1.0304826641459321,-109.09614506913832,0.3988698153886545,-0.5904227083025897,173.66824430754735,-0.28324323310355737,-0.7635211953492893,-0.3149966695938792,-0.6554387496277083,-0.8381392781544389,-19.087178919983568,0.5981701824205873,-4.299615654292726,2.9390954251127654
,-0.20701070813993364,32.30390358191547,-0.04943661575578734,0.27699476915946974,188.42438976513952,-0.643140062371729,-0.7466336269122795,-1.1519806014025402,-1.3044945867362086,0.3379734344898452,-21.183333775962467,-0.3230378549299113,0.35842574566724156,4.03334357557573
,-7.4743890100573145,-64.43017674757333,-0.221258070428166,0.4493293378061048,377.5433686845445,-0.6560859330309271,-0.3572063485208524,0.05178976057016337,2.1906537113468745,-0.34917340270271513,-40.150942153634126,-0.5977772830635643,-1.08652657657714,3.7246101927809256
,-5.006564796502358,339.61461343080424,-0.06712829435155895,-0.3725916370669172,172.3143988975903,-0.6152075515896442,-0.346708553352565,-1.046721761156405,-2.7901820474221948,1.1817273535796937,-35.475632746801885,-0.3633957224085608,-1.1636995377627215,0.8070309939428186
,-4.163547495663227,98.57070388605459,-0.1311493405516432,-0.7025158332256283,103.18772753875196,-0.23869376052457833,-0.5227905038666493,-3.1091714487360456,-2.9091837487937187,1.5956299043605178,-28.66490896707206,-0.3700754976330665,-0.6833821387987072,3.5615761732150646
,-1.21680956544193,-206.94466112682778,1.432254398445241,-0.25276844270113935,179.7269273189231,-0.5407250984779812,-0.7633956648372575,-1.5295224900105664,1.148380995941015,1.6927575438735274,-27.965514688569883,0.07563616309290172,-3.282146943208307,2.908240465693895
,0.09828556017994082,-336.86602564408616,1.0426222153661528,0.7485055568556824,-30.1118674444772,-0.3565079371354039,-0.7962495743606004,0.38367674260855344,3.972510744554989,1.5250408261367978,-22.230611265467275,-0.020755011604358435,-2.384341096612009,1.2728996905899173
,-4.282638112512953,81.98276131376704,0.7001139767691396,1.0819866829838711,94.07469693992266,0.370216788636654,-1.1327944092600921,3.3325427567349815,-1.256416339468488,0.11067959544775821,-36.138292882223894,-0.7560150020427526,-4.843120768849606,1.5305988091271283
,-2.0178905182995956,346.40382533932063,-0.5267971630624557,0.5036266145995398,570.6900325605851,0.03266420986226342,-1.1093512944346717,3.6833224994004685,-2.6654514373065905,2.095446454091803,-38.08717464091913,0.1505496398066793,-5.476689595288494,3.2171931454982454
,-2.879701684283823,565.8765836373356,-0.3806643767189597,0.13501049429597137,257.4598196088199,0.3900543874979575,0.5241163342332178,1.179019690981882,-3.686588960625179,0.844248519386352,-29.967788540294958,0.22855130333528953,-2.616544569759923,2.69448192285056
,-7.01955172555352,222.79840043721228,0.5044980834010926,-0.2503074339110646,-396.1881030176445,-0.41356583649813444,0.3221896121750868,2.2620155255299856,4.851184544012193,-0.5387485334094841,-5.3103370639311045,0.33752077416438725,-3.01085706912526,1.9999589190360083
,-3.3502632267730665,-287.6473442282444,0.3333619284945752,-0.09174420589299793,-376.6956686179823,0.2814373745016433,0.1597768867461459,2.453272671261803,6.638999176920444,0.528375872358484,13.33855287125773,0.4952794915123628,-1.3427940109116727,1.2304165707711368
,-6.524697544984858,277.1443167324668,1.4172360807505011,0.16275618404741768,172.73969169485088,0.9630763127276392,0.2789865845452631,1.8524195463469924,3.6559178430491843,1.7679976447140766,-2.2435240658642317,0.051777628316424344,-1.4344450850349475,2.345873999983048
,-5.5025315840599225,442.7768936040748,0.7623586165515289,-0.2760901308895834,-86.24790758478323,1.305222043880362,1.685186737421518,2.3696031259923944,2.9099897742548464,0.3342646484720987,-7.289008743511373,0.4813134686504734,-2.5161154836134463,3.251217271355378
,-5.380287359349729,252.88453162080353,0.37540456010698586,-0.6279138488258563,-12.589236566731826,1.0860003770480693,1.7687632630636247,0.2602027557294033,-1.6248938709153575,1.3070493603196753,-11.333354655054253,0.643653595707273,-5.31104877401369,2.5281153596886266
,0.4218850061460996,103.0882629465912,0.35307790361810926,0.02111342985929433,-237.6912807996554,0.918693160150419,0.9714796705118335,-0.5977820957243988,-0.912010049691386,1.005745238164472,-27.695637564614096,-0.8985480768254646,-4.033285261405974,3.941105750824798
,2.0348544262759605,211.92300390729483,0.13259694943065256,-0.5275718276606709,45.901422367668296,0.8956260938266429,1.380582769599514,0.6456101046304212,5.764806420947414,-1.2386819053295282,-59.09988138206696,-0.8626733319541676,-2.7040122992036086,4.63175104215165
,-2.1122178307068205,194.44451748720334,-0.1658012806283353,-0.19754115185601281,-347.7499468233905,0.9703846498687466,-0.01957919123946329,1.7111109300509424,7.737422155223836,-1.993542983204879,-45.576048404477845,0.10156174790387568,-1.1079602009969558,3.39859601637832
,-2.7350181917515024,203.58332149713414,1.1167193264752109,-0.14443576576474687,-192.1303557018725,0.3571320659047107,-0.36892331451644744,1.4717114461975744,4.974411189476545,1.2116808264002306,-18.420695466494767,-0.2067691867089963,0.9742490202120964,1.9585292058908566
,-8.029307546934433,36.21956018270497,1.6892039907329837,-0.8292039626357999,80.41854656390544,0.004680400269759482,-0.0374875292504916,1.7075355624517206,7.484041794586996,0.890324666040598,8.537887687847691,-0.06923760337382724,-1.8332881375168106,2.130247365851471
,-2.476635632923333,40.60665987144812,0.6870200939169588,-0.7710494116454593,-375.24974772576206,-0.5372391739738389,0.12755332545752998,-0.23559845632360416,4.333668297519979,-0.4316055466800905,8.530109756935316,1.4092401990822632,-3.6301602426232984,0.5252418796573317
