event,eeg.af3,eeg.f7,eeg.f3,eeg.fc5,eeg.t7,eeg.p7,eeg.o1,eeg.o2,eeg.p8,eeg.t8,eeg.fc6,eeg.f4,eeg.f8,eeg.af4
,0.01669500644993813,0.296890177171774,0.1484413255254795,0.2760199975425516,-0.20021556961768486,-0.22874731350678185,-0.2927245620155129,-0.14052560765027583,0.016975120651001943,0.3871095410588591,0.2109223430710818,0.10856118990279705,0.11966981913197716,0.3500062556209704
,-0.0038159524629064537,0.26996072071995464,0.4066077450020141,0.22946590093123448,0.09001071902704745,-0.16533501925163163,-0.08501505214459727,-0.4544035515773744,0.04693966846866803,-0.1025374883300353,-0.15429622806605436,0.07534811955380376,0.30858005875239763,0.42829939765224423
,-0.012311630639638003,-0.026844062992252418,0.25307677391889705,0.34585690374505623,0.14053589380564832,0.061561327210817134,-0.09618635107294735,-0.1299136147980017,0.08670310886987165,0.12064867356566299,-0.2908209055448414,0.06996388586859177,0.20759128478157868,0.40840707879115923
,0.20702438526788092,0.32524874856331965,0.1377085971548849,0.9144358742611151,0.08177207784837512,-0.10136535417759554,-0.44479336422758997,0.05196293344106441,-0.049372614556886935,0.1267681317185282,0.21984027159406114,0.12895746487175755,-0.07328024833159034,-0.10629019719503974
,0.19415378384942683,0.3645206850262169,0.21645929294225877,0.8377709995290281,-0.08831978091227549,-0.2714546796439772,-0.7514503307550164,0.11279102335837218,0.007163575167708536,-0.28753329749111983,0.22222952420379302,-0.01814147347255163,-0.21998260302671296,-0.37568637935424326
,0.1962133020295613,0.11777807275655675,0.11481292081206385,0.2204812830439138,-0.17855903114089705,-0.1214311814137049,-0.4985627635193685,0.29367033446340646,0.035556481431083774,-0.07675407068127982,0.40149196785834235,-0.13849840509129402,0.05911364145184154,-0.3568193269177619
,0.17789428182156128,-0.15097935474412819,0.015464273324656089,0.28305636047545146,-0.1247675264535497,0.032317506313888834,0.08565432179185394,0.12025274323209499,0.023495216370033482,0.41103699055980814,-0.033057281031183744,-0.12222659725048875,-0.38281885740333776,-0.40051352896794207
,0.4936273862396145,-0.3371226750573033,-0.050290717596838744,0.2632688843730841,-0.15802406237812286,0.06764292563389747,0.11142998005065062,0.007712769790067636,0.14000990555262657,0.30000764885824593,0.06020453633027626,0.2057286936324764,-0.45337781026910934,-0.452408090726089
,0.5553704797419924,-0.23600170014572414,0.06514244433634579,0.1805024882488147,-0.2654893507950097,0.15066125772918948,0.08088000994238659,0.13969308441639552,-0.08756428647621575,0.28333191300791494,0.18779135999501154,0.08684701079089964,-0.1538097220330196,-0.05422308151259526
,0.44661707290100766,-0.32788482256827634,0.1864789087660968,0.04919238458424537,-0.18585670891532868,0.08175211562137319,0.02015528284767912,0.11740378495947841,0.018604609140563496,0.0543529224799488,0.23194862766133792,-0.08531216781808805,0.03952753332165886,0.09492533654920672
,0.22573377470591072,-0.0871258271664395,0.06187833720656753,-0.05307438641294967,0.0502598839156799,0.021168950099746474,0.1371231764445928,0.3321539285357015,0.30286399947059606,-0.41309148886998476,0.49158121290432893,0.10303117976130352,0.23425505571041053,0.03560694388254276
,0.27916415664348293,0.015810118546406952,0.17772909615527452,0.2820360359289339,-0.1621934401795546,-0.12925514171297903,0.08360153195032634,0.3437601778560884,0.21132783345148842,-0.07205272917831512,0.35889669687632536,0.16280593026304832,-0.003086951164952941,0.2824034872303247
,0.16671808556842652,-0.32026056399872854,0.02503104711351309,0.6270554038918318,-0.445270123143677,-0.3030836291570736,-0.09104864795047753,0.08504702257718745,0.1505251269015862,0.2828848910811758,0.0278158470858091,-0.10887528451126136,0.0028274652981949886,0.37726591066681403
,0.25109909374654094,-0.35435897509316416,-0.0007744495283574886,0.24890980789324904,-0.22627787269489974,-0.2714840285417214,-0.05997771788531245,-0.003120744264593787,0.028686108730604027,0.17173125921622745,-0.3330202352404432,-0.1090697140748855,0.14664299204232398,0.1871544483387801
,0.526039582349846,0.03560935328905257,0.1755173888516966,0.17201761806244656,0.16630609958687118,-0.15405179297719887,-0.020856779122531182,0.2760199841321728,0.0832802197037112,0.2892210634448899,-0.11072676180804665,0.04736502822672298,-0.12804611398458288,0.04257059787703409
,0.26230513198719985,-0.0440622101895442,0.03383494317433455,-0.06822760041468508,-0.02886783384826536,-0.11689953961431199,-0.03053626321843996,0.2907387349944089,0.04328307783632547,0.5867824120520295,-0.02579920077773864,0.01132661356651421,-0.29726450545189287,0.2396467566355029
,0.09825911623476595,-0.08889801726173908,0.06497142114174499,-0.03302669193158817,-0.19371617544732808,-0.17790120545387228,0.08929479176702665,0.11753692313215106,-0.0055202399157115375,0.12407455610085553,-0.03932798321078412,0.02244953173109063,-0.048551239078243005,0.1270440491981734
,0.2349875664844741,0.12380768870696206,0.051916716562080266,-0.31031897380876655,-0.07760770400237126,0.03867023175932594,0.07960055045068222,0.25523134577457096,-0.027420563449825124,-0.08645771641501705,0.08078386540536359,0.0807996418255339,-0.01784287273250174,0.06227640546152449
,0.21762150882707113,-0.0923097789443002,0.10630611480589536,-0.744655600509831,0.1609956718428942,0.2585414482610208,0.016876271312348645,0.15825909571855384,0.08130166355648971,-0.37365389498308244,0.08243866115649502,0.016649649116450407,-0.30590608540811826,0.07175715854529004
,0.5002150966387053,-0.10944324124337079,0.25281220172892827,-0.27085211263425113,-0.25500247933413717,-0.08129858067386042,0.08414329375024819,0.1366664619318846,-0.016593799497987696,-0.15539465736072972,-0.10449424355190862,-0.009875944489845561,0.02643379836007765,-0.07987871703844397
,0.4717984249368169,-0.07848070906625487,0.056465419595959306,-0.018990821582015004,-0.48475721884664763,-0.1139498168243731,0.09523528708420605,0.20978174349309822,-0.09287976677172533,0.38794173647335367,-0.17073848910140754,0.10016098668376953,0.10836263660628158,-0.1569741786357495
,0.2551539423205586,-0.09732513967700704,0.030836453786486494,0.2746223159996269,-0.19488246087480365,-0.05673526548822687,0.07535279356588004,0.19797001865969555,-0.12323458685728109,0.33812959073850846,0.012798110049338195,0.03186648120520166,0.1449637065393893,0.24688994323011504
,-0.15808924951381223,-0.07273343465656819,0.1847844999295253,0.2234523421478625,-0.09892262671281765,0.012285229340403082,-0.0716766397434399,0.04596070560207638,-0.2719618947986668,0.01654168223308567,0.06563021003765246,-0.1425831635038549,0.41799256624499637,0.05826520072033293
,0.06771192866982778,0.03128089722118129,0.22303467494355186,0.1951527367756339,-0.2745089464389022,-0.07989124460811317,-0.09534149007861249,0.11619575856323613,-0.13531167094896163,-0.20444436172981825,-0.2671612916315358,-0.12090238141580997,0.3087654438987539,0.006972368475048892
,0.71138862388126,0.016958533530814147,0.04623462582877923,0.03732058924517917,-0.3073195286335966,-0.04903990383562018,-0.3000656603457426,-0.16870405571857242,-0.14724736631800853,0.12543282121078933,0.1321780695910037,0.036911547312228905,0.2386606755663183,-0.2517167467936641
,0.4933981090208465,-0.2775199556023346,0.0656834748703727,0.046142245251129456,-0.18374126099951543,0.13937402271528126,-0.17207958444958116,-0.27056628392471577,-0.21969293288073186,0.41971446365055637,0.7224683936388079,0.1624005086006441,0.08541303353928312,-0.36093117251748796
,0.2716974667014809,-0.22121753988196455,-0.028187987251579578,-0.12437480973826609,0.033324148828087895,0.1140948969017227,-0.32851604274447904,0.16309905318235574,-0.09093167781221538,0.33272164868060533,0.394617466426483,-0.10781147862306986,-0.10017414220780277,-0.25350190409750456
,0.22711174902467107,-0.008353910761740605,-0.06750461876130842,-0.4179826142841754,-0.3268711971741058,0.05073127684994314,-0.2857312610840599,-0.05501572361793035,-0.08432849721400974,-0.04294436330450642,0.08741693874147384,-0.1487276014351907,-0.14786734243998392,-0.009997749330665042
,0.2547949476309225,0.40982722016776085,0.03542711795076268,-0.12885120563559407,-0.2546414910668483,-0.17552800005547492,-0.2498091621592684,-0.2737962784208481,-0.2218220773742771,-0.08256732674080364,0.0007665055486288556,0.008207416313163782,-0.176590338171519,0.3260152291851989
,0.28104761143752155,0.2812780510696175,0.04625413775668586,0.11724045511096139,-0.22286489326426395,0.017820551353263183,-0.20297798171196238,0.009430137918551075,-0.22241269830213123,-0.15157007100453204,-0.15481337975992057,-0.03251027134444061,0.05144262590941814,-0.13711552591937956
,0.46815691429277234,0.14926956514234854,0.2091404436592864,0.39906861037814945,-0.1727746115706549,0.10230947360490096,-0.06711897092103153,0.12887915973850714,-0.046819437403593886,-0.25427043336686633,-0.18164944572222944,-0.02814120791473287,0.08032812270418409,-0.33540094188253855
,0.44613419861253145,0.24260094435359406,0.23870595597589067,0.3380733606535394,-0.11235787933742639,-0.07261288834957122,-0.00883636604244363,0.1759286777094609,-0.1369894286140701,0.050428035829484685,-0.13173556001636155,-0.0695960988008002,0.08161303173926883,-0.04135295779039447
,0.27716965125567206,0.2972565696267121,0.18247365048641853,0.5732796582690901,0.012346296757618953,-0.0890218293214327,-0.021788349259460323,0.1047466055511491,-0.19967937339430308,0.32619554735999107,0.17752015938497492,0.08227934806799776,-0.05494540942082707,0.07585808909193965
,0.3549184493329855,0.04202835170957543,0.1570246139997118,0.5172031866879504,-0.021073427142625147,0.04279370746900497,-0.4003560673375804,0.06571571024995254,0.05689261569802131,0.2630110795251523,0.06196824395339972,0.2073139884181446,-0.038682430767279584,-0.14811150346467777
,0.2830465968382599,0.2367863252762655,0.12967500937363394,0.36608442770718524,-0.2982548265599208,-0.0737069431497246,-0.17112125956871285,0.042398967239147746,0.09976949662290455,0.18129797678544815,-0.15174440897278763,0.04260393028428522,-0.11517189422158386,-0.4147679592130289
,-0.3215608797378408,-0.3358546037279006,0.0345869916162973,0.07045675070160261,-0.5708218130897719,-0.30918877477199147,-0.26213472099216084,-0.1780494573716638,0.01017102154258259,0.3250599009099426,0.27983694662347763,-0.09427036421436281,-0.2739195808545694,-0.7279293354919487
,-0.35246731289535377,-0.49150271676961416,-0.22046180969517112,0.11545026496775608,-0.3937540050500631,-0.21785966416356095,-0.19122354952414963,-0.08139730184886423,-0.08993262734756019,0.27232128896081315,0.3379661767179477,-0.06402283671728055,-0.35086829048405027,-0.6401284879262472
,0.004643529460663834,-0.06712367204174402,-0.1918160156784732,-0.17296527842412102,-0.09831359013104286,-0.22051272905309502,-0.18275807810949193,-0.017958428409421023,-0.26222822916958866,0.06103664244479077,-0.21020472641729993,0.026688551891803167,-0.060257959363642116,-0.30383691499843934
,0.24451949935579292,-0.001856701101491285,0.23132604980486351,0.1892666432776291,0.03352966813085588,-0.03311630933580114,-0.0672848325128045,0.08172947930938537,-0.157037324130757,0.32979497574213174,-0.4746854785603763,0.08866207842547892,-0.19461904869120844,-0.22465262127206242
,0.44620963572214967,0.17265174139434583,0.3094845719762606,0.028197820006303657,-0.04681695331534892,0.14309465069955368,-0.09874727170626235,0.11133902154934724,-0.03043749795513124,0.32541149942740255,-0.05061936984956702,-0.07245515805114155,-0.04721841175131867,-0.3863597726587653
,0.6620027128956877,0.2542963068652481,-0.005504968611407963,-0.05391263204594635,-0.2928578639377228,0.1339874916934096,0.006553153958875195,0.08686871170872526,-0.017123399421220722,0.019530154040166555,0.3497792761583222,-0.16436485512521617,0.32151505833633826,-0.42918550689817897
,0.2998563515256862,0.47703308998362826,-0.038666443175638686,0.16972980836036974,-0.12143442673823897,0.13221983452775468,-0.08085882159628938,0.2846883273217582,-0.05526078332321683,-0.07740176066071851,0.11030324164661673,-0.17161760593573236,-0.06881246674306493,-0.37445722904582235
,0.35389164408363794,0.63820368961392,0.008536806349561929,0.31401027268608955,-0.07286713199866686,-0.06121404432688287,-0.11768072115214295,0.15362480429441205,-0.23338283067411097,-0.05014520830405029,-0.3216241079912318,-0.18445963803114263,-0.07254723848283962,-0.3679228970659341
,0.35545450098105574,0.4457869666599577,-0.04904006709243529,0.05195566843480065,-0.09639093776695465,-0.07450957499718804,-0.04526333770111406,-0.07582297588838838,-0.1996156535567136,0.20317436058400595,-0.4440399627505049,-0.2673923241103288,-0.22899833763325947,-0.33321547347979236
,0.6558262009341639,-0.04634358746542313,0.024954809616830744,-0.05683441955202016,0.03798572654153605,0.0023469753631766674,-0.042611004226161625,-0.22644053143459686,0.0646459094459525,0.05906975888722573,-0.6561667701526347,-0.1924419213565874,-0.3263351498691423,-0.5190343959897565
,0.5280598688520988,-0.45082165912637356,0.11692060439491705,-0.844280444577794,0.040738123021226265,0.027836275978734174,-0.11282353260163318,-0.2653497755664162,-0.21645129388560322,0.17295303963528386,-0.27397103319003246,-0.2459226893211506,-0.06593023400483174,-0.35192387227246985
,0.1823009812020627,-0.5701476778098565,-0.1255119688322623,-0.9231258195773936,0.0030097153939931368,-0.0695123043292716,-0.11433966364870944,0.007934607491787113,-0.3505666770968959,-0.005876745898029578,-0.5318445703999537,-0.4462678113076254,-0.27425314657922845,-0.3058240145891775
,0.008461846201413612,-0.7827227062286708,-0.05224909649412648,-1.050229618145464,-0.293356194465507,-0.18949224113962135,-0.05227951875182886,0.06451966534162935,-0.3263835195896623,0.003634040917072306,-0.7764240721659926,-0.39416914688395577,-0.5647229047869803,-0.07340789403358713
,-0.04469206569942016,-0.7677880126900796,0.18897977847488404,-1.1276845300339653,-0.40601478555246034,-0.15325699786819763,-0.15745195827040212,-0.1078461018297686,-0.30384661374669636,0.002564618108117416,-0.5561212843110415,-0.1571532313375364,-0.7011458611460242,-0.0708611031981266
,-0.07712213763600459,-0.5169812046471433,0.11519126438417854,-0.9989073470548606,-0.500037879939268,-0.22029121725994175,0.037276866612251915,-0.03699356713397812,-0.3216598028998473,-0.17178640513680582,-0.6964442177703773,-0.3599048947859946,-0.5317286692065297,-0.26943121355771266
,-0.1765631882378661,-0.5215227252448118,-0.06530552949181744,-0.428624822385472,-0.3691766995331703,-0.1832288936657672,0.006757847626486043,0.04875594305422551,-0.21045868759855038,0.04977061450695536,-0.6480985246499803,-0.39678190136879027,-0.10424897641459183,-0.1207141559921647
,-0.2609368711063399,-0.6405292047737987,-0.24645002148627776,-0.4743207546188779,-0.26222651192189794,0.08034740331664612,0.09468639541724498,0.027971210015958748,0.04663372448490097,-0.05222982689885583,-0.6176624461527171,-0.022700148603640148,-0.4582057608347051,0.0017608098573278414
,-0.23145425435966172,-0.6200142035222135,-0.10152296874110742,-0.8529752516624796,-0.15988525472765494,0.01651772888296687,0.2461561891027437,-0.0397690303448606,0.2006157172755464,0.05144847525323262,-0.3518347135537598,0.07786203902516671,-0.4456641615683854,-0.18051681145726972
,-0.10835552132237002,-0.43050985508069184,0.011002608759965353,-0.8365283536457233,-0.13193928382048245,-0.15948281641680112,0.01909475242072277,-0.02080564474205493,0.08785452859071476,0.2665299664459107,-0.276257129900415,-0.03147462443600444,0.11324378150360988,-0.4407800556614359
,-0.03253423991971085,-0.5110073392524723,-0.011158623342089002,-0.25095083376344196,-0.04381486269763234,-0.14366054744386111,-0.025685498492507803,-0.07094172325018472,-0.01652455175405284,0.0010974052532283147,0.09546864934996209,0.05234680512120347,0.13068464262101623,0.06428576169459956
,-0.2236973176850448,-0.35050464147247934,0.06660565915898178,-0.4629898712571484,-0.07702675346948012,-0.13458538380350016,-0.05279967303184515,0.10386032698569429,0.11328324761225705,-0.10403190418659482,0.10968262096788844,0.16391931342789637,0.047070086997946584,0.39988221511877986
,-0.28276927399156576,-0.13602503311200864,0.13052471099374024,-0.7360728176454945,-0.08654508837097574,0.0072608348030439,-0.030115063857484945,0.165660707342035,0.07816158078276873,0.07292593662714483,-0.3019165277382281,0.12903823697971392,-0.3417174720617447,0.125591967576801
,-0.03292769501857411,-0.16980067329707652,0.2016953080167299,-0.3965320052593454,-0.31256841928074414,-0.04194743251830763,0.0044546690346492545,0.001448708731346308,0.06120486850450528,0.43069161020032654,-0.43555248686151665,0.06824637543767624,-0.26295395097162083,-0.22290959253033474
,0.3770390944434577,0.14023679951753729,0.0901968547365089,0.0891484827108692,-0.4184923767037807,0.06149085408737002,0.07359809791483679,-0.030043342538541233,0.1071972308606584,0.1631359357965382,0.13981531924532503,0.04429094360512931,0.20220307022286857,-0.13295870712992583
,0.17531232139264805,-0.23421875138465958,0.1166770906477383,0.018802279762567386,-0.24681880772368248,-0.04570268519716358,0.11225220263708707,0.043472389439963066,0.11498712521396566,-0.03590611376322935,-0.14208703806793724,-0.026828333451222163,0.4468510769049021,-0.1357659512745738
,0.031194288605830067,-0.6245785717375032,-0.010496810319856702,-0.11182259908727543,-0.28611975735753725,-0.15816107787705427,0.06607627980256364,0.01705759149081049,0.02829437485970289,0.3743405742493471,-0.3886151986944015,-0.10322392512160876,0.12161766228127585,-0.2051403697303195
,-0.1021332707780009,-0.3914506045549154,-0.15692164199471792,0.07002063266313256,-0.13712751942514903,-0.1091276459937134,-0.15882007496281655,-0.17184927714638226,-0.15617020101040557,0.22375482313245837,-0.1336148433557086,-0.11027876238163607,-0.43089305240206266,0.06950355052397894
,-0.023617160985807174,-0.33474254398370046,-0.11379971771705978,-0.3237104029508573,-0.25854701618186066,0.014735336258487943,-0.14043937129946868,-0.0448017724126614,-0.21021984848238162,0.05176256097016504,-0.18515894469734806,0.0444684069833691,-0.31430261410278837,0.04972524064361773
,-0.20739354791819237,-0.329314304006571,-0.07947686528606696,-0.4532717635905772,-0.373279243559012,0.06366207680839217,0.10396026468539729,0.25420627768705456,-0.023668950273247533,0.1534420288512419,-0.2421281378122424,0.1247528784640816,0.012338499340242365,0.28038028073217336
,-0.1446886435209848,-0.12111054112870977,-0.19825467174989858,0.0009168181255490149,-0.49294983313188706,0.16316570614854303,0.08176179448274556,0.24134994088005088,-0.07025251252517781,0.06661911607157195,-0.030759236946425902,0.0003646698364718425,-0.16682990365637312,0.004078670863886703
,-0.4754046896928906,-0.3304012225102792,-0.03403621069184113,-0.7817423242020586,-0.4406734849409391,0.06823431526299911,0.07998365907552588,0.007734498503544044,-0.16789313384045237,0.07347229798180897,-0.017952798860755313,-0.028741810062673467,-0.3685262574154999,-0.08204093157515545
,-0.47308995030484885,-0.49066948646272107,0.01732233287223887,-1.1208911428140576,-0.36032779259338765,0.08951942439586281,0.09710833257735706,-0.04886387930710216,-0.07034540007117165,0.026735127790695246,-0.4210232877988355,-0.22368478753483204,-0.42120615317296184,0.0036167821517702945
,0.3243963072601851,-0.2507578808252936,-0.08761908114940499,-0.6247943823247203,-0.020633389038690615,-0.020429362295845785,0.042641253816804836,-0.0088934141996266,-0.06909188231800614,-0.08051647474103964,-0.369792615183297,-0.21319065720070154,-0.3508593422485584,-0.35997820791402757
,0.07714202529058609,-0.36300682346186963,-0.08183903767481382,-0.5106184106267669,-0.015029364070268501,-0.2359005043015831,-0.2144606518688147,0.11486074039859971,-0.03665155591947459,-0.04372449950676843,-0.351912182426223,-0.12136573007588278,-0.24710477759982455,-0.7515809585481479
,-0.025140447580217183,0.040973876319192436,-0.0032412023458174457,-0.40421782823537306,-0.23060069213057457,-0.26985750251532536,-0.28085292220773217,0.018475154041598302,-0.28602391891328943,-0.28898298694353647,-0.1866941136140172,0.16379602185682163,-0.31399814847501095,-0.07561001527105966
,-0.1339660876663268,0.20755381782782176,-0.1774385071775066,-0.005005883611878497,-0.24319999573681292,-0.13493779212525014,-0.07577103532358875,0.011753208041263242,-0.22971628354490348,-0.25407090510051694,-0.3043627787513482,0.044922915836294035,-0.22239989921658393,0.0014576839090766844
,-0.035222062960826646,0.01568558234628,-0.16930855330339584,-0.12410131114061071,-0.3419086058882275,-0.19728035576960054,-0.35781234326297784,0.21616270638687138,-0.023691763210442137,-0.19742910751169135,-0.3023591786696111,-0.09138124463915892,-0.08921583663081098,0.08100739011624283
,0.2019114560406656,0.08322869200326936,-0.18225159392875942,-0.28259747363467863,-0.13296435533089535,-0.011313156347351834,-0.45577614427551816,0.2704827687656476,-0.012283577447890685,0.14505469191340004,-0.002701736586373784,-0.1637570262364397,-0.26439761678609575,-0.0975452646632842
,0.198646605798014,0.1629932248499027,-0.004431742811333605,-0.41561085972791434,0.06018049738015144,-0.022087459259294277,-0.3323050733452396,0.02911655503573194,-0.045861780604340166,0.6936655311288616,0.15001781042501727,-0.025717111921648515,-0.06373377056576426,-0.07614777741975479
,-0.01937247244612311,0.3363074696060837,0.22920596651576733,-0.4187468649414088,-0.2640372899608581,0.049565602479482315,0.09228445798591557,-0.15657460779020457,-0.060239056122466474,0.6989153843222742,-0.007289125780164632,0.032427129388286666,-0.1468583365309929,-0.01477099066995926
,-0.09431495453690887,0.190556986328466,-0.12436009392584073,0.19297655662311022,-0.08132205875058661,0.17371773302812252,0.38274862040807706,0.09681506481674966,0.02192875434148605,0.3348806977363063,0.22495961321869254,0.06374339306781486,-0.48937634010623593,-0.014845180018783535
,0.06868486257020041,-0.03593243129829881,-0.13771433165607488,0.09572359345982939,-0.18071899747114678,-0.10304029789950125,0.18027355728614422,0.10438584705180429,-0.15040547972548837,-0.004366814580756018,-0.1624217073401461,0.08749625340856373,-0.21098015790812152,0.17506313364964288
,0.013261467831785726,-0.1761298807651391,-0.061466072729581295,-0.10277897601430387,-0.33847898353375755,0.01396423460933754,0.11429770291801337,-0.0013753178315965612,-0.12852441633452694,0.148081341008753,-0.12141240185428948,-0.11680023115124415,-0.11717121165846035,0.08512115205506321
,-0.14291452931890103,-0.14972679416945178,-0.04769816839622867,-0.1626669632998751,0.08028469737613224,-0.015444081421843794,0.015934201988255944,0.14753682223663694,-0.16553348487203412,0.33501754704246994,0.15589850379647097,0.07884284826851885,-0.15942497925788132,0.15819913095063154
,-0.14832362151684095,-0.3547798544209187,0.014085811809370455,-0.25503538299847883,-0.04421333727665871,-0.38764571519686797,-0.12973409403239647,0.06732473465963516,-0.15138580500248755,0.09815446411524806,0.03917693532355226,0.1495007850038589,0.19914673399819108,-0.13959536097824785
,0.046791185475260164,-0.23686084967312446,0.15652223612765412,-0.017167431126506528,-0.07634284359583449,-0.2598109531603943,-0.06967655237654545,0.10197630026664681,-0.19272313861227758,0.031311593049004764,-0.27846954716255345,0.06388067561708097,0.2862768403072232,-0.21477008804257328
,0.31765740922611374,-0.07909361030998281,0.12235262207279585,-0.44266222457871934,-0.005797599569447963,0.1397241472230428,0.15577783753513771,0.1589404069317034,-0.11967804643777911,0.1942806049389923,-0.26159868474564435,-0.20473098980683768,0.2269791340773797,-0.009849154375198971
,0.09086144036288829,-0.532393236494209,0.253928355989767,-1.0590942066119138,-0.14149835242999742,0.004002404094556915,0.11657253427774811,0.08302145195223988,-0.1560835536938739,0.165080296522424,0.04986147398137499,-0.13785265797149246,0.19666719559165274,-0.3053277279095565
,0.22142243173850157,-0.6267489205356893,0.24833698096992893,-0.7823587380257587,-0.27291407979390425,-0.10011287490162434,-0.006520883502586691,0.1034342065143098,-0.1951038643393713,0.12900928162214487,0.028395912644636957,-0.07298845743467486,0.019591618818785884,-0.15496967923710836
,0.2771343301476411,-0.4153994040066528,-0.036852022604214996,-0.0917785683557401,-0.4341472466362677,-0.11890135121780483,-0.08816137535540339,0.13494296485910304,-0.11182304196979936,0.14738236647609254,-0.16999463842113566,-0.2099521148127449,-0.2518583432916594,0.05557098808944746
,0.2548083498869113,-0.28508229604068774,-0.09872463758852339,-0.13437209384992632,-0.4038615100821372,-0.1903537920601576,-0.18915929347940955,0.012230207980091598,0.10423232732762112,0.12792575880109266,-0.5463731313988159,-0.004184368393498584,-0.11335311124561744,0.21660809156310745
,0.14771433594706238,-0.10893425825117688,-0.024208143080991472,-0.3387976355267114,-0.1990384658809651,-0.10780808882987734,-0.0913594440722687,0.15266358175896427,0.0650421890728601,0.10166078508432859,-0.41687111181669223,0.1743546873284158,0.20999698763785488,0.16427560906080743
,-0.23760544158915967,0.08885526717642796,0.21966927398389013,0.17205301980238566,-0.015134269536471266,-0.23688952859010787,-0.13288278150825514,0.16094823376114434,-0.0588413025417601,0.03397336275279216,0.1690775792602286,0.17133578368558033,0.1568619606873007,-0.01916818026774219
,-0.31571853938924155,-0.11577336498994711,0.12267822689956687,0.08065249934586245,-0.1790777266712577,-0.20674214558133708,-0.02172029349417816,0.30980485423304255,0.021419824190745465,0.29374303965419735,0.13781071852091553,0.17060855718047274,-0.15900199913932206,0.12021732518799452
,-0.02060683011446696,-0.06494923506479501,0.05609665418116914,-0.27570597111296946,-0.30228135482566215,0.09578949134914948,0.18420851993831958,0.21145560201779717,-0.0760933862806617,0.10232854909075922,-0.03666157009927977,0.04265955447710103,-0.17326163809591436,0.3294437373564695
,0.33527407377618107,-0.3067847970023034,-0.03655932490131553,-0.2466298425997376,-0.16713530528985393,0.07633297169472297,0.24159973239301766,0.18579941359896535,-0.1438402737500512,-0.09787926953682038,-0.38409061506616937,0.023752683716062855,-0.13952976914441512,0.14968692207176718
,0.1854221387507395,-0.5993094306410744,-0.15851609394502242,0.38422506140459234,0.048003315579216645,-0.14891427551703515,0.10971447849289952,-0.1202134626275143,-0.04418647392741064,-0.013851076031956846,-0.6191961736805598,0.018059261236577754,-0.43826614401424513,-0.22675482531552874
,0.25632804367393686,-0.22941771551473916,-0.3259324441134872,-0.425885062792759,-0.10330581810078833,-0.14827370286149621,-0.17999445793103525,-0.35902903586231555,0.026956375964836785,0.24114612706756103,-0.6012956250253052,-0.16085928225405008,-0.22393499127052877,-0.23864852881317594
,0.08367580294846777,-0.1751572766177997,-0.3362371796269774,-0.3927957818520617,-0.30340865812696816,-0.13524440947875874,-0.1372015947691882,-0.18972276197275867,0.08981661663304527,0.36102291622159943,0.0025932309029174094,-0.11575075079858498,-0.11911347971411224,-0.6508362030707024
,-0.12314396491373773,-0.07705099768918128,-0.11986121431459704,-0.2766029293108525,-0.012273287548936718,-0.08322025351827467,-0.12548012998186842,0.1654849508375908,0.12300223697606072,0.3964294370272068,0.41145513490421737,0.04214499602620945,0.24463218289716807,-0.666724596220962
,-0.11368546508099975,0.09585701636996917,0.0022759855298551805,-0.2143995145977378,0.46121500647990554,0.04512653603253742,-0.3386104689785441,0.020782559607731798,-0.06467830937728061,0.3176974595059407,0.39357683383799347,-0.12034244915441991,0.09589231502821442,-0.3884176914829442
,-0.06020288486288256,-0.2805264197799204,0.04643245927823445,-0.2756346090565653,0.039363019033592704,0.10482908561621922,-0.19431771351409438,0.013879310345893207,-0.056223937066932836,0.12068344313583002,0.057039100516337406,-0.09909695774791341,0.11104016265001027,0.03743808592809388
,-0.06230384610975795,-0.5646035322508246,0.06320232483067015,-0.33851515946808863,-0.014180733190159696,0.04515542593147569,0.011912912610336002,0.20448395269595293,0.17700515295723784,0.4152125002126031,-0.35199274005524434,-0.12886304311193839,0.010267133750094061,0.28430428375729755
,0.14374987449879623,-0.6477843734573558,0.09874913915580194,-0.38074059953424993,0.177054080271804,0.041914461865935934,-0.14326022527351565,-0.0034019829935059667,0.003573860644672772,0.4443377135060284,-0.31061892610762737,-0.1475728796622445,-0.20887479313813995,0.15371696997746023
,0.021169828699088573,-0.451619316682986,0.004359496538518962,-0.13619989365032711,-0.046898163539225976,-0.16575122213700863,0.004027358886979653,0.05955634386004176,0.0443803303236895,0.18289878979764962,0.0941616419821072,0.024002647609392677,-0.08109331393936235,-0.23807989611720456
,-0.11007083165270534,-0.4723931858267183,0.07977487796059339,-0.054050081500361814,-0.10163592795627872,-0.1873579883504348,0.0945621733290468,0.1852008388800478,0.13481935697662134,0.31269663500327055,0.39316902971557327,0.04139959461821969,0.043499991125251956,0.0767554874906225
,-0.22504637990687454,-0.2996373730953076,0.07417516734599294,0.05085572336128543,-0.12156090701147383,0.08493279334183094,0.18869983931476608,0.010017868406442318,0.1616624004762584,0.10360325197587135,0.35530499802875115,0.012725713565607298,-0.2678631601321086,0.23370238274010557
,-0.19782400087702334,-0.06657317638164387,0.2283281528989882,0.16605635287881762,-0.1451493296932473,0.09756010428308776,-0.05191230985262858,-0.0835946423173063,0.24725471334422208,0.13461591946105922,0.2307301041384196,0.013100460729821083,-0.26713298301297794,0.03526106371628593
,-0.2762381285259067,0.044682331502446784,0.20389608924956207,-0.009215043594429729,0.08212514978689976,-0.06215682536661957,-0.07608874826502486,0.04849684839054029,0.06807844913249779,0.29771368798578457,-0.21328624070883428,-0.06638106435997271,-0.6276582965356515,0.03853872703263325
,-0.7093479059525143,-0.44744482480578585,-0.03641186486992267,-0.41470942773400604,0.09376197741909836,-0.3727894645123746,0.07117478150638293,0.019951445720789152,0.009364244053101968,0.29996996935447423,-0.5386727381443677,-0.32547333582542953,-0.7516868535131733,-0.3098930402766101
,-0.6801172724167547,-1.0231770433195564,-0.1783824060521888,-0.5197014233229307,0.1871864373774536,-0.3335329520729864,0.0031681651560917373,0.15133021945228872,-0.1004027301462636,0.1265662507658777,-0.5654578747189577,-0.15483779722740423,-0.6293491094899475,-0.4903738745389802
,-0.452485032898173,-0.8281896116209931,-0.0958196869927249,-0.7744270722072945,-0.04101187751753871,-0.0651038975569118,0.001308088278035988,0.21976433260454661,-0.13951393247518287,0.4772763980503984,-0.34473917373798213,0.05349200437528078,-0.35303829123548053,-0.7259523523436306
,-0.5657281672970792,-0.27786534544434105,-0.0038763124585624144,-1.0415779673923273,-0.12284730705311603,-0.07559699185497198,0.0762349359913948,0.05266583865200846,-0.18197485872973224,0.7162606057150073,-0.5550873046933712,-0.007964925978137936,-0.04562349283023722,-0.33890708055774077
,-0.009419081658994239,0.047620135753257534,-0.03623031089919913,-0.539340817162614,-0.09043090964645932,0.0003772671014126389,0.041810043779507415,-0.3489201296464851,-0.253918351127816,0.3553076369559935,-0.5929533739765257,-0.08716288222333533,-0.007116934425537961,0.1678853623262439
,0.17186203694761795,-0.04719907765961983,-0.22708741451321102,-0.08212016442412218,-0.11443253203009437,-0.07129139899150216,0.0002932478332109415,-0.4626419195829002,-0.22421057644451137,-0.04590971061544918,-0.19508761528957982,-0.16290387247675323,-0.2466868028708001,0.007323052506563516
,0.11645213166902964,-0.14694441001484887,-0.09983740944580202,-0.16908181730095115,0.04004693613951688,-0.046727206267960494,-0.014905052253913751,-0.053815827473178354,-0.05869456196667343,-0.09218055681602069,0.21552040251549756,0.12141415274356188,-0.12036655829631054,-0.08384682259744962
,-0.10039617070877124,-0.2734394611554466,-0.10529448799190234,-0.3201155455000181,0.16742155130897962,0.211801339339699,-0.02615022635496239,0.023028313681076506,-0.2637119748162917,-0.2008671610466873,0.023480263991953614,0.17440140735932283,-0.24127208842316794,-0.2734216196562257
,-0.13425728036783202,-0.06765912423505994,0.057871704433834645,-0.06325488578008218,-0.0705474553114781,-0.08507799462232131,0.0422639224878107,0.09097429084900965,-0.047317469884314026,-0.152276249940375,-0.7395696669103575,0.1184659974336493,-0.3673688094649713,-0.2486464122475955
,0.2814051489295433,-0.19036579208267354,-0.004327899389246264,-0.5096148189807324,-0.10243625811090502,-0.27020126222669766,-0.15533742098383452,0.050953997492463904,0.1304461632419538,-0.043723140340971946,-0.620309443422052,0.08826926226577406,-0.25538567439851373,-0.3981077959554659
,0.3879818589744339,-0.15029644438616588,0.11584979541297527,-0.3854811700785121,-0.2681778027187851,-0.17711029513960266,-0.1496708999532405,0.0233652727885265,-0.07093079177422287,0.17658260251528066,0.2526723816430407,-0.1343016803214811,-0.09830254267944927,-0.24191710861904428
,0.23515319861775652,-0.11672268485968003,0.10562033283866822,-0.09888260036028246,-0.2682763124374544,-0.02020003353356886,-0.029411846604829185,0.08527727863592131,-0.24028564134093505,0.295633100597333,0.1508880358586287,-0.14498572665498563,-0.21639800404473988,0.08368921692517248
,-0.14368497313225026,0.15823650521257926,0.18985486304738858,-0.24910784353728538,-0.33688076279664464,0.06472374933303124,-0.10148289142415354,-0.017751446649237685,-0.2605316806023698,0.7900427217860568,-0.2785455167675775,-0.029534566556554332,-0.23789167013663778,0.21851970413204944
,0.13701853804127934,0.07944469950494529,0.20429263227696862,-0.30689100714951895,-0.28141202910790414,0.04707350825025909,-0.24360735498626426,-0.08247482402203753,-0.10558623469084985,0.22331088015827213,-0.18376814164769462,-0.152638308559255,-0.06279741258174025,-0.05135445569752324
,0.20455281843877957,0.17143622378478718,-0.0448429397588147,-0.22183232277224613,-0.09895277342983597,-0.0004952153065725507,-0.5148380795674279,-0.029044416749196094,-0.09061383380667958,-0.35463531009305355,0.06473885631065006,-0.12801657247829162,-0.008346980019459074,0.19684020476778266
,0.21062795900667425,0.01574473369371917,-0.0512145064781541,-0.222660218222064,-0.19191606428109856,0.11259605397245906,-0.3713657821930503,0.05162765305576865,0.15480763814481396,-0.11582889672950798,-0.19473746429677544,-0.0547103914198721,0.17233673423812076,0.3228566755152042
,-0.022326717705410237,-0.17364495451387274,-0.007520169094962296,-0.3565376069539285,-0.2607189332884028,-0.20132190807093261,-0.028406733857476222,-0.007152047801815831,0.04777751192047152,0.20389318375324342,-0.24900917432467057,-0.040072332713342304,-0.08198897987113579,0.2728948292910366
,-0.242568792488607,-0.16870802046768668,-0.002389950493057462,-0.21630669093545785,-0.1290423643608925,-0.1890923395862561,-0.08085054263285252,-0.2742221016941898,0.21216745087806735,0.10801980716605208,-0.38788135549593505,0.008256546213060684,-0.1720511420180125,0.1304684025322236
,-0.007038992793625522,-0.2652106646841789,0.10422251624323275,-0.3655842534632901,-0.18745417710865983,-0.10311647110119418,-0.09061744205700845,-0.3029724489646193,-0.11581806341508379,0.17361576928488714,-0.8082700854838563,-0.07361027746704377,-0.031058938866588497,-0.017664143006937815
,0.263000198631601,0.003064354317314246,0.08149363198984169,-0.7080687267510078,-0.12659518220187674,-0.0067546235315627,-0.14017877073493842,-0.07762389277520489,-0.21290441441555388,0.11278699815862311,-0.9543057846087006,-0.02407422808648804,-0.18546299986686118,-0.3401385743352261
,0.21824146883783213,0.12324166482671425,-0.06296014818101517,-0.6548839872394363,0.024893249687700084,-0.1657648528003572,-0.09130350906213938,0.21492064652683157,-0.21193085169490253,0.12815096867964015,-0.4413264274195604,0.017933225714852948,-0.07763332311203905,-0.17806631898768818
,0.06990602761374354,0.29805310616132175,-0.08228159094004865,-0.47539389239586327,-0.24025359884083752,-0.07511403120148838,-0.10259443896840305,0.22371394637822303,-0.047445040146109285,0.17717606222444585,-0.35047167758302283,0.006997869065647444,0.01766479791833998,0.10351936893863482
,-0.15443176816025547,-0.020804717578701934,-0.010612638243618354,-0.22337129991358845,-0.23280115920088232,-0.05341445796741733,-0.046414614220988915,0.22904862884461666,-0.03662454826785964,0.4334468880801925,-0.5533029376187962,-0.1885509461014401,-0.20819795785732353,-0.15783642131455194
,-0.16149268468299857,-0.4008300985318745,0.09828844915866286,-0.6577263897277227,-0.14686539001694102,-0.20155979404966762,-0.13141667259375509,0.3039349957466922,-0.2877601166554062,0.42897211777985206,-0.470006782031399,-0.13813080147018333,-0.32530573506359367,-0.07201101101923733
,0.06483500519736461,-0.3097611202344514,0.23654201999904068,-0.5887642164834658,-0.06447002859561182,-0.0070811897949184886,0.005835974645198603,0.2683564607010141,-0.25833726920385286,0.15061361893015113,-0.2641693718492543,-0.036148394869740266,-0.03281493373428594,-0.12868313628294448
,-0.02958833869960957,0.10565182853192495,0.11632127965561508,-0.10083567548259888,-0.09709687623539454,0.17614766209820804,0.05045765489927153,0.16358832795888997,-0.4379980190295244,-0.22264404342258381,-0.017176324545121673,-0.17081286488496059,0.069152387376197,-0.1837409915416259
,-0.1645819534634058,0.20481047961090496,0.15612466019577018,-0.17593171376380856,-0.44687979970265773,0.020818894539806617,0.026189962225533905,0.2558759521880873,-0.2280896372954918,-0.1007583521250371,0.2515009502002934,-0.25684784613068906,-0.13392886679416113,-0.22195305249357905
,-0.05867467969179249,-0.15740706054379983,0.3001589686448291,-0.36673229525606305,-0.4111155921516495,0.019632099135921947,0.03481027256878196,0.25140432856145395,0.03461381937363967,0.32960837911865093,0.07072102508258862,-0.00995874095846557,-0.23619997665527698,0.0032914169634071493
,-0.04573355431063241,-0.3241943296869561,0.25052900103236597,-0.10640166900921219,-0.2385043692223586,0.1436552207135101,0.11977402249970508,-0.0035525982136098075,-0.27528554129981087,0.029001621386691545,-0.2076559574637834,-0.08234937294475024,0.18930016388634513,0.07302429202014413
,0.0851719547665595,-0.5331154701327596,0.022413870567621154,-0.2607981624072661,-0.0016115294885373293,-0.19243266194153813,-0.29133315047232305,-0.06693220932365028,-0.11734110186220595,-0.42051080871113966,-0.2704083327445394,-0.028251479263915653,0.15953678329091117,0.017605950333671645
,0.32267614586314497,-0.3649563900874333,0.0059414853834644865,-0.1961352800669635,0.1786807548387276,-0.19969926133090632,-0.31219538628214827,0.013386577111132022,0.24648549295374908,-0.2276752277646229,-0.077950225937473,0.03435255631594598,-0.06334767302913358,0.042594864248886075
,-0.016200811485611078,0.06294156684241463,-0.023712544160652112,-0.32112431529525076,0.19041181005078825,0.004852794386311011,-0.0832879222781655,0.047413655200188025,-0.06162968863392827,-0.09918021428820278,-0.14112400282912324,-0.14121574543461518,0.06025023004332973,0.042480897425368515
,0.024458709267740693,0.44748202745435367,-0.016923485046681213,-0.00734515650977622,0.32227829292303384,-0.002507265020591516,0.009107470317554317,0.0015775310719838963,-0.1250479043225538,0.16982472618443994,-0.1993902597714229,0.021634790746519184,0.0231829724967022,-0.08386195321605902
,-0.0010583021559754553,0.24539198016101627,0.10907302084909251,0.043206439292307705,0.15208639245985942,-0.12011540425715425,0.20716898365519615,0.2142171998391458,-0.17386327288592485,-0.10086143512400285,-0.07339448823335362,0.11971423399348528,-0.07681464616353047,-0.1889354668360335
,-0.11451736495629607,-0.138257263155604,0.11216116197049235,-0.3286682803193046,-0.04958562514088017,-0.23129888768339166,0.14943024085054193,0.13696937237005335,-0.18011050512924218,-0.08569025576140635,0.2974088819134414,0.1545648287306485,-0.06831349133928255,-0.040618248154306424
,-0.11908575823928388,-0.009542022888359952,0.07413544901015814,-0.027226003635026766,-0.019561100219095375,-0.13201286919021102,0.09587569010362407,0.013147350891156527,-0.03868658270914785,0.037469952125431666,-0.029571544468897277,-0.00537792683770346,-0.1768125088489085,0.1210902722918973
,-0.09488149731299912,0.2680106045875588,0.10776520556011515,0.09215177189473292,-0.13003279784177232,0.10017927987536192,0.013943952999225724,-0.0942902184082088,-0.12085937076230327,-0.14040975164481498,-0.09044309395125626,-0.05276696365880169,0.1847608424119921,0.21284482990631606
,0.02961881400215284,0.2354180055740107,-0.1732316911140143,-0.3841473124147872,-0.05735009674075398,0.17522229878773943,-0.14914535736001724,-0.09958139875449122,-0.051343675937842934,0.08628490659082144,-0.10577431142545606,0.012600463166202825,0.04686133567212973,0.3324590667847011
,0.13818516400683334,0.15813509707003068,-0.11673062382845535,-0.10090346880783939,-0.03529501491468679,0.0712070590091218,-0.06853480071296886,0.04747339547134809,-0.15898995597315213,0.25569696011251797,0.04786491910452866,0.06580216368623762,-0.030985039869420486,0.1514833895023305
,0.17163336004932425,-0.25298352248243355,-0.32183925361806875,-0.14491759200583124,-0.15186922888683357,0.021525762217072784,0.1381108405248807,0.15645596759256367,-0.26292159130409376,0.1572135915619755,0.28113159698295154,-0.0924703220644463,0.05732221106725723,0.0042848567926465015
,0.1331951765187531,-0.17381737758830587,-0.08290331129518191,0.3574662782585095,-0.09141587336394713,-0.047594713165773225,0.13850383118427723,-0.18311499705424036,-0.06942175101734928,0.19277642625299254,0.04282046040434364,-0.06821174444588204,-0.03333076470472888,-0.13812145887790755
,0.25141151493914043,0.13322911070686477,0.11504455401309169,0.6689537226434621,-0.15294368915435297,0.1010443826610659,0.10887902429526923,-0.3972397072609509,0.38697558622551964,0.10475024953174036,-0.27510278875554894,0.0946414336700579,-0.09546685664535919,-0.21527757389067242
,-0.1916129911120989,0.20717421300620978,0.0016537419437440855,0.5206371502082133,-0.23664886259275067,0.23352550795880564,0.02675296996351661,-0.29749469948291035,0.30733865230945945,0.10826035594548344,-0.028470865274527534,0.22224665314310005,-0.11235222724939851,0.019022272572699866
,-0.328509156322282,0.15044344233133247,-0.03415176069381298,0.20481848395060576,-0.10590058288710552,-0.01730537739811133,0.10259382698140898,0.0008237436675565189,0.20015828324991713,-0.02432078411505097,0.1498594883098806,0.22142972771295208,-0.07319213361601788,0.005800173071757773
,-0.2529485694933559,0.014808005901055457,-0.11100705643567632,0.043996475931190486,-0.020613082155795742,-0.02186611325869202,0.09602542508245761,0.2506550102368642,0.2214355908518229,-0.12023983959802648,0.1714343412808345,-0.03905473172253078,-0.29694553697494613,-0.05646953098788859
,-0.060817414443642276,0.10622055196017915,-0.0757583330633515,0.276777820417466,0.2406234530802935,0.14252798918595908,-0.04525972788055511,0.15423438693950567,0.15613894888571858,-0.05387873800059692,0.013305601320677433,-0.1858902844782736,-0.18338807999729648,-0.2977826983656318
,0.09902247380588074,0.05434580134431527,0.0617441217268123,-0.0953222515280689,0.31016152978673633,0.029607692938486415,-0.08863166987073715,-0.014738583533347588,0.1722818209376076,0.10542055999260798,0.21835261777663545,-0.04408014823999061,0.046041051646740334,-0.19788621110223012
,-0.030007893387352012,-0.28673403091748967,0.09579644719893468,-0.23501865059715749,-0.10291038053057215,-0.05851543448706182,-0.1677782636007462,0.12059022163991129,-0.055313433576236685,0.026067705323161806,0.2771079637620846,-0.20731813207423952,0.4436933679226134,0.1962622764803081
R,0.004511114440468981,-0.16272365496549038,0.009125706197778,0.04603320365534566,-0.2509105997900136,-0.15740407458504851,-0.103341498790387,0.23252279541155976,-0.08370393937416105,0.1145176665416358,0.21724890239815212,-0.16154321872261476,0.3790937027916989,-0.03477758871186684
,0.12274199194052153,-0.08660466810091351,0.1720133513736091,-0.040082787951593396,-0.24095543942714107,-0.07507090707683967,-0.2393137600946658,0.24488988238301315,0.25784986322049813,0.12358694780154333,-0.046336032521667306,0.2202398532274234,0.2887003823170414,-0.05167968989520662
,0.16380585305923223,-0.19294922288479585,0.034667385395457724,-0.30012512690944276,-0.23278087581351853,-0.2857941695934379,-0.637630817433295,0.21742545135583455,-0.14280692961366534,0.12554082764971816,-0.0012648191097558508,0.06950631791842007,0.2050521743408716,0.17300874995286972
,-0.08640796515084254,-0.23555273680638447,0.07394261635120526,-0.2129992253770798,-0.15126511147240754,-0.2420064410233171,-0.39525915140892537,-0.12470450736346618,-0.17894956509224383,-0.02359244179460606,0.06803669619577592,-0.14670136793431354,0.1264330128325125,0.3526640114652627
,-0.15347355881392,-0.1823850382428593,0.06835232876589795,0.27074831695509727,-0.07943959604884472,0.030412302770303754,0.13885319264975393,-4.033522906235334e-05,0.03736348267483062,0.267733733321761,-0.15710855901161744,-0.1907830189246346,0.3302282184155629,0.36488454567835205
,-0.11006438552027258,-0.09664418708314068,0.1328494783647003,-0.26043391271891253,-0.061893865292725794,-0.11808108742466829,0.011626002465219406,0.12204004487785634,0.04839833649152285,0.5128671306817215,-0.4053226308560752,-0.14401148730286054,0.059492157974916256,-0.11957655770914576
,-0.18828870302144646,-0.012865421744771217,0.38600715149227505,-0.3556460605368009,0.04810461619487199,-0.2945292291720259,0.029469606836362117,0.19885898230999613,-0.11582542558848818,0.1907401549193208,-0.1965601398961542,0.0003077440064616093,-0.019471398315058577,0.1437436113714644
,-0.13606259662409992,-0.06105686526748196,0.2924771618856828,0.11365232660620393,-0.13478626975067143,0.020445345736141145,0.06585948824655988,0.14541376940338835,-0.14568553798611,-0.08885941987908094,0.17439066824396224,0.07673133579216293,0.2564375008431639,0.14513081064778624
,-0.17803952506931084,-0.16910461150112327,0.11487811600156676,0.19839577059497016,-0.06820025483171975,0.17161952801992836,0.05629689132677785,-0.010133592697234909,-0.07585670390787454,0.20053968931010316,0.19072097852427544,-0.07697214482141686,0.3648965620150312,-0.2746373405053706
,-0.13462849541786898,-0.02281215248086523,-0.05979772461897617,0.30796982582104393,-0.09077996566451732,-0.1065563899239905,-0.05963601136688565,0.05058245843775339,0.1340385576739278,-0.020929747573914234,-0.1107962847034583,-0.1092361801585948,0.3887805024175693,-0.5014358311995162
,0.22448177944096445,0.2533922373980316,-0.015322204949537711,0.2304062485031394,-0.25034909799252286,-0.08367069483346665,0.026841093034558384,0.12533190162721572,0.002804085619519154,0.1029914500539736,-0.040887948673498556,0.10936331351959437,0.3933081378856904,-0.13790871651043562
,0.11571657274982702,0.14264130284154802,-0.022313278889776054,0.004840313255728833,-0.21675472791892952,0.1033121971359753,0.15099804155707416,0.14920011161896168,-0.196995929141067,0.30834542149501415,0.49323162199052445,0.024273996087592488,0.09829755143684402,0.14486655924596334
,-0.17537008416749206,-0.2694619791354753,-0.13155112390640758,-0.0031451471298448042,-0.3644827825993936,0.21861984114312472,-0.11019655923417543,0.10260368417157786,-0.11683235814914807,0.0710787237450222,0.31299224364057476,-0.007256898563775691,-0.20975992707397384,-0.17815389663742542
,-0.22353240580941627,-0.1733602660149717,-0.054348446904481235,0.05216881851760391,-0.3678207601400673,-0.12009750170404677,-0.11072055804758443,-0.07995047087800267,-0.18975013500754676,-0.013942244812598798,0.08457298991923586,0.041607971659442966,0.01785134016703747,-0.6043780139140201
,0.02169535443465912,0.16484194357573154,0.11512919254273321,0.2018954537732194,-0.23145248116830539,-0.21572531725943014,0.05441316330804491,-0.11129315061054232,-0.3503042942923488,-0.22013896798195673,0.07362380442560783,0.20836463303348102,0.3336817195546929,-0.5396527243946914
,-0.20409251916061094,0.07214444221769549,0.2311851482341206,-0.11513481721349247,0.14747109937488628,-0.2760551871140345,-0.2758870315314057,0.1457977952945345,-0.28695649112311916,0.0851561332495575,-0.02947811137171048,0.1405094235839285,0.4768042845051955,0.1978307054346607
,-0.2885645892074836,-0.21054058798191183,-0.019961363269336937,-0.12666456159545178,-0.08822120348530074,-0.2469136992310296,-0.39252534053726734,0.13552921232812704,-0.180480649602851,0.12528190616969423,-0.27671295285070036,0.11919432994837742,0.5923655246687399,0.6342685221819034
,-0.09787185063867204,-0.04974823516985374,-0.08093926413613928,0.0395164283144537,-0.2165075453352896,-0.10586639352722042,-0.06457931260850647,0.1436625278258171,0.08498107836979162,0.11039312324003778,0.018987782094876893,0.023429557527471428,0.006052574286936921,0.3849053833530068
,0.06304213859800406,-0.05868568940909885,0.15157514447124526,-0.11888572848490851,0.012035239692047813,-0.0471260980905492,-0.0028542357533058167,-0.04769834848611595,0.1452495874180434,0.09921697120923044,0.2874752159118133,0.06253830109405983,-0.1785324448667906,0.046985023789878774
,0.07423281615752621,-0.08394870782593293,0.22282072587946683,-0.13450108090335963,-0.1305706447896404,-0.07588312784109634,-0.13499820209727897,-0.0006706775980217704,-0.02515916503228015,0.18140572056840523,-0.020095004611584432,-0.0919052443867673,-0.011023161108215405,0.28689445350821213
,0.07837910360797078,0.16406580616255684,-0.029022353740785566,-0.4761146946706179,-0.3583993591614204,-0.12570756652720444,-0.24723287084203258,0.15349899689549767,-0.1576117036946021,0.30680083913850353,-0.22954849366168203,-0.08167907355081774,-0.08468653318472788,0.46697905403018936
,0.08806455493595748,-0.26987355625212583,-0.10223036719581192,-0.8089293431133264,-0.5100371336662269,-0.2931892238693958,-0.16650028665885014,0.03806206013511256,-0.17562553470441916,0.024415278980252877,-0.25673959878708735,-0.009662382205762416,-0.26589226466997984,0.14029857479894256
,-0.05668108274117097,-0.5741213290479036,-0.07067615357177495,-0.6601651571971454,-0.15296879841771208,-0.412641395211911,-0.26354198853527233,-0.19201273248670958,-0.10361301847602979,-0.10026423770889212,-0.03990736957074414,-0.1576181032253416,-0.09425633428227208,0.2717617636439199
,0.006672253900291726,-0.3253737806720283,0.10647202955391433,-0.6128722982819407,-0.22171951384147212,-0.18843854439701563,-0.2615899147051864,-0.07606236760308677,-0.009503997540306224,0.019460650313411897,0.41089345699200575,-0.09363611747512168,0.15650592397624993,0.10704626904164873
,0.3154594887343875,0.014186818022253127,0.07898328283974196,-0.4648002243012267,-0.3918693566757816,0.12856928607954476,-0.18572638779062486,-0.08809178397424881,0.12422097155518051,0.3364590806766444,0.6078827067045415,-0.036219020358161165,-0.1798238023755613,0.10092423970644084
,0.10834569098337452,0.13158147840365578,-0.07641454523937449,-0.5154149487007965,-0.12889941867509153,0.19980370806308406,0.1514776100483276,-0.15217448615567272,0.006001784167108327,-0.0696284373653582,0.121779272294701,-0.00862924804632474,-0.3961708224936988,-0.04579960608914272
,-0.05154487731909036,0.32964434058594944,0.08808005157783455,-0.12054619995201621,0.08468212661314926,-0.1619972456013106,0.07831622614227271,-0.10760040007331935,-0.14705376060624567,-0.18279400060585668,0.05477166842875361,-0.02026890760494996,-0.17118599584574398,-0.01547471291896196
,-0.010159732264610897,-0.07382863301978876,0.058263630627337436,0.22030358919011517,-0.12090426557443079,-0.17798386745333683,0.1387532072228381,-0.19669782958143558,-0.16767928590874254,0.1740174508696211,0.046119899377242965,-0.007619171831372738,0.29061096748006526,0.22486262941721313
,-0.1442925060691899,-0.22135443733446888,0.0376665969977047,-0.24163852315944687,0.1217365826712768,-0.17517879999696256,0.2454823613994135,-0.12276028978763259,-0.02649135805340552,0.18885205175421305,0.3942431356839226,0.07152937613297132,0.22213395128267122,0.5722955160239745
,-0.1385816047870479,0.07988456583660607,-0.013129030353007136,0.18290791148761132,0.09522018546969215,-0.04469013079524627,0.27419764138363867,-0.0682721376865577,-0.031143696832814864,0.035807056742819,0.5149236163059459,0.08464125651034213,-0.14040863287895441,0.2783676852343356
,-0.10076445210683635,0.287255981635244,-0.03655956928983013,0.3030142538056803,-0.1465744600207657,-0.1928064167542785,0.18586590741823364,0.07769280042895207,0.02056683889817196,0.02326453538092101,0.04092337067591159,-0.08244069423643521,0.1344554627172411,-0.20175281503137402
,-0.09542115319359694,0.2670757230144766,0.004086684449447266,0.13208986586829824,-0.08866984703335486,-0.10726721510875294,0.16207594635652545,-0.07222737933704645,-0.07337988561555049,0.3457901816061215,-0.06478951853482887,-0.0971534657873991,0.4265881477733508,-0.33630552140159453
,-0.14263168067382198,0.24382992467302766,0.054979782637160475,0.018450617090040013,-0.18695258477402632,-0.10330585139914625,0.19443143233571286,-0.09589901257508172,-0.0710748157759104,0.2155700799938941,0.44933998721372054,-0.04062633096968932,0.35996098424735684,-0.1856577488895267
,0.0482743887006041,-0.07083254667912611,0.14943337014092903,-0.0895315711527437,0.06040323829148701,-0.18354003293018278,0.15419151932217676,0.17406671160889578,0.11429637356283723,0.15563104836809472,0.23788352041034153,0.09218481397959724,-0.04304181808301918,0.2080462226594549
,-0.18921082555397073,-0.23346553335341813,0.33929199664604587,0.17072421264526233,0.16001488362562954,-0.03608309240419707,-0.030801351385755543,0.4117417394639591,0.18147812729222346,0.2701891842606891,-0.12496167978275587,0.1475818847240377,-0.008293275905990913,0.13190211165925342
,0.0022606914737966343,0.08513379944777025,0.2215276962723073,0.032861869070179066,-0.04789515514880835,-0.06075719489871022,-0.07285680301824216,0.13889511084870948,0.07802116818337314,0.4445186836898051,-0.41224955858617485,-0.1522434701915163,0.26634833238816796,0.13749215941231094
,-0.027980523330674988,0.047558677338040506,0.04889097831042074,0.21538881306770125,-0.09521265891908502,-0.022036424988649484,0.003408554812311991,-0.13461145086679985,-0.01105124607112465,0.15610089540966,-0.4492922755737937,-0.336343633737473,-0.18340593460480822,-0.0703830031506368
,0.049469058900080146,0.35041969504089376,-0.04181996082945674,-0.2633381639515328,-0.2761138128403794,-0.08911325121704552,-0.000596673178679557,-0.16394638484974525,-0.17838293585511356,0.17649387811155168,0.10847415229569085,0.0036015650511549958,-0.06099049771231163,-0.409954986512764
,0.27987239705211997,0.21681114950007294,-0.17569403955523766,-0.29391199023734477,-0.3140005871134004,-0.2671135094336182,-0.18734417547445759,-0.1435993072388522,-0.05346969721432454,0.13722066208796418,0.24359868126922912,-0.08156982416981061,0.06899016101415266,-0.38521751836356954
,-0.062044121933926916,0.3155906716091478,-0.042757670372282675,-0.09521779816478956,-0.11553252573762385,-0.16448582271991366,-0.29323340257355096,-0.006998434073487458,-0.10976592616539277,0.1262724589986781,0.0425791012643768,-0.2482874599786163,-0.2448212302160709,-0.4349123876838634
,-0.34437221568722187,0.4049100916759355,-0.09448284275291632,-0.23621072597064754,-0.002294747543269477,-0.06758738901166886,-0.13391113535043409,0.21528086487001058,-0.15809580938668863,-0.18848742793109366,-0.16696727379007775,0.06052830727467017,-0.17425095820831676,-0.5723239182922928
,-0.3282933338233325,0.34481523406874826,-0.014576555220129716,0.038814954429260896,0.03491210564234136,-0.1551570181754275,-0.1854145462376924,-0.03811608290361331,-0.07311618441490138,-0.18262042649318555,0.03166602419672172,0.113437370141871,0.1799823507806616,-0.3851934292205339
,-0.2965125833537211,0.004626408508552591,0.11839892635015555,-0.0006860290622633359,-0.03626416911315293,-0.32629457532479733,-0.3328066195213868,-0.23225304574709119,-0.21155971935748713,0.29390423131443283,-0.23649555623740645,0.2741631938166426,-0.105326188147958,-0.1714529817041445
,0.17500728580272976,0.03144003322406646,0.13998282031457504,0.03349290143398375,-0.06772076878660196,-0.32966678302888897,-0.13171197281477381,0.05790164699738422,-0.12473474331968462,0.18601130409942288,-0.21703853149409139,0.2757138954608405,-0.061045318903266456,-0.04781424604441934
,-0.2487602751870259,-0.2874321710017335,0.15185123732462746,-0.09167844981677531,-0.32437470267241525,-0.15922305468249354,0.21276822879564175,0.12722452734934694,-0.20201758479812781,0.22379638907401167,-0.6504715704400951,0.0361963748164797,-0.21889140964791834,0.04147623879437951
,-0.34970505642470245,-0.3149767607607062,0.01832672757071607,-0.4695284647279236,-0.34951223335303055,-0.14280036190167059,0.3041791908710521,0.060105592652587726,-0.17505624298669412,0.17762101552075374,-0.6999362641725306,-0.10997684678687189,-0.490458361107328,-0.029974919232930736
,-0.10667786054050203,-0.24049335283865228,0.01668348745681086,-0.5410363574717887,0.057371875902367836,-0.17504907697172384,0.17946506368318985,-0.11753754432848927,-0.2623444273876644,-0.03729175396671486,-0.35464806045910646,-0.011875999948322414,-0.1753175740822617,-0.09593902342052657
,-0.05551358242372604,-0.4012918169410527,0.04165479036030376,0.3001615535277381,-0.32857009809136833,-0.012933294698270741,0.024198828733402594,-0.14189765245520355,-0.1534210211136001,0.02982684914440596,-0.5902280668820056,0.26336241234128016,-0.01932228770794709,0.08676027518041528
,-0.026559868008274912,-0.2838687606087517,0.055418753943257404,0.223199685573858,-0.295105228182286,0.15524056310375586,-0.0003756869944228768,-0.08234902038825342,0.07226845415859849,-0.07077687152099844,0.013414338206119161,0.24010481235437103,-0.11361299523017024,-0.05100731597459404
,0.07782357740626018,0.05284140922905789,0.035445295709247836,-0.07718058926850155,-0.11954337222520572,0.12588562503146644,-0.02726163477096702,0.10159607083924722,0.09962158610055531,0.17717216390733365,0.28234622475402127,0.058293927717302164,0.07476543778279124,0.060634715763797024
,0.14132583993646222,-0.11092651276814738,-0.05432331707167415,0.08084730032031083,-0.023880617025725897,0.010777470826237106,-0.012813509371202934,-0.09789294764775588,-0.009402475552067474,0.32121881207513603,-0.13647227585983174,-0.12017726293331074,0.055460024400873525,0.07877475583147188
,0.22153654742790635,-0.0728357617606995,-0.10298687703441706,0.03252141217848571,-0.18850803622082174,-0.03731711116274176,-0.188738398678583,0.07879164442959993,-0.2025206942462245,0.134321686977854,-0.34397098216278466,-0.0891860065215223,-0.14791189662034038,0.2953073895667762
,0.07827949435941298,0.25421959764447444,-0.02827578895382837,-0.1698977091805858,-0.11430800392461524,-0.01158377448140368,-0.1223067375266307,0.05996332120346162,-0.11694999936039936,0.10956100466661885,-0.2357052078342095,0.048439970012955524,-0.30331075982774874,-0.06930006854487337
,-0.20595828326099141,-0.17624810932218307,-0.03100273351911327,-0.3474373567900185,-0.04798958434869756,-0.11129257395562257,0.024157043478998694,-0.05864364945973201,-0.08552193190395065,0.11311670305216635,-0.2672838765013523,-0.13293431216271442,-0.18831019727651258,-0.16974645451058376
,-0.0730089164568626,-0.13859402374434276,-0.06360651444359412,-0.4403110166683257,-0.2750129612351606,-0.037867669895810085,-0.048997493747201686,0.13528312842927423,-0.11153761894406257,0.36644482791408856,-0.08278099251609752,-0.09344959924717287,-0.15811727583074228,0.18842984813991387
,0.012742695831719547,0.14957960562155245,0.27156047701831915,-0.04002145058088009,-0.2855494761751394,-0.053705548389325904,-0.03663710953073613,0.13559562012889653,0.06352652907421995,0.6088722848547736,0.16496042925727977,-0.13666979702421,-0.30898114371287866,-0.12383005138505002
,-0.22213959228941854,-0.016532833890929743,0.14020501733313764,0.3373546104438588,-0.26817979051521745,-0.15731265523311283,-0.14717615011181523,0.04864905697030298,0.08782568365132341,0.12382144734317418,0.29983390792399167,-0.13128877336081565,-0.23140077574911608,-0.21279813295430713
,-0.2492041840813526,-0.1344820357963762,-0.0654479490264624,0.138565132747826,-0.2791824758847974,-0.13029135885378162,-0.0518684727587677,0.0004199832888087239,-0.08550045325093926,0.14121828296329203,0.47873356653192434,0.043793742951000754,0.011096244556146943,-0.012989276455224187
,-0.06692121392985934,0.04965574004872465,-0.10702576499021495,0.24528069578700817,-0.2010014195834631,-0.04174943386707158,0.13800326182509895,-0.03158383643973041,-0.022589154905884812,0.1586503432516673,0.11900989367269199,0.020098324082388125,0.20357363250795538,-0.1466209183886242
,0.178551861715906,-0.1920404050708143,0.03196293403593515,0.296469318389131,-0.17958957413295945,-0.07578692399706995,-0.17521816183427683,0.0979179703975248,0.3448139172639155,0.06296054943597168,-0.24870308604289962,0.004182635087826256,0.16132703590764885,-0.33491306066750887
,0.1597574389915714,-0.2860860344503447,-0.04675222707293022,-0.15993464669157997,-0.3891944025272708,-0.015456181386840781,-0.298107865090353,-0.04380337289372721,0.3857407167366437,0.1295899518164933,-0.013157030282393909,-0.04992659151650992,-0.08377108430713782,-0.22881925857549942
,0.1459701200073723,-0.23423775024118626,-0.013915805058357628,-0.07615364972403692,-0.49498465396824554,0.018744741080992215,-0.025219336253888114,-0.07032112811890076,0.2116842644948053,0.210301027003653,0.28592084562718123,0.0022787383308052415,0.015860860639812582,-0.09721140896633612
,0.12300748800123393,0.09366863663951251,0.14444004734843605,-0.30686844281415876,-0.1779296336661335,0.14304909571168387,0.10821928110844375,-0.015393392756612062,0.2614258114585021,0.07969658432809223,0.16369165918482934,-0.08253335462508037,0.09292843625359752,-0.08956760915438011
,0.14159890657178545,0.37118950889965946,0.203429738542235,0.14905315661641322,-0.39640060222491613,0.04310243008606376,0.15909557455383844,0.12851123098375225,0.12796528531352394,0.058892720777221005,-0.11595629251174645,-0.10411551420652791,-0.0221659724609103,0.21239282118093225
,-0.03406880755427915,0.40622127755928844,0.10451605565028092,0.4316514255215229,-0.2211010299152771,-0.06427267711499604,0.20062054102808205,0.08109420265600122,0.10247466239106015,0.13706927839254657,0.13268452903021932,0.06250311680880828,0.11225094684465003,0.16802450888054687
,-0.20101770106115627,0.06748953544479341,0.08252590194022155,0.07702636051298707,-0.2078101149750497,-0.04465300426421248,0.08832521202892489,-0.1818097902641519,-0.166377987010333,0.2419707955869293,0.14579146658266692,-0.007766188717405081,0.2515846040074959,-0.2378266423530243
,0.019884476714435665,0.2793735979052006,0.11960328590960118,0.18897717831873218,-0.14420662283039343,-0.37687265519775887,0.004342644009223727,-0.11746550991295115,-0.32253959222224104,-0.16087323978460802,-0.09792961312195657,-0.00382027789916486,0.09664590039076444,-0.5894911104976455
,0.1088535027403177,0.5548102998055249,0.0854921126085561,0.2050662068989828,-0.11553270850288218,-0.3423328468950452,-0.11618941180105863,0.11932842155181107,-0.06782877274004544,0.12328421221050385,-0.30318652853422307,0.1742994450402177,0.03194198404819001,-0.42928650651450334
,0.17435910317742465,0.4125242622870384,-0.031158261599588212,0.5054978796914551,0.018165970355506225,-0.1864806139129093,-0.13375082467050148,0.16519546051952796,0.0549350126545516,0.4606182541041401,0.24855930340235227,-0.06816243264283871,-0.001966015553155512,-0.32165723806973906
,0.19868429391625997,0.2106532138341805,-0.09607681016268076,0.4217890149991135,0.05894707049653561,-0.062782431558618,-0.1132865423911642,0.26034799889851246,-0.027165901890678988,0.11251448317793575,0.2464196263067324,-0.0871471790572861,0.03418501657612334,-0.16244285814191312
,0.07143285111885915,0.1994666078054294,-0.03786656445377848,0.3560359452780973,-0.21227355851180957,-0.014915822965417935,0.017115444136088016,0.30469889946525325,0.10277560848322224,0.14168991916310894,-0.20347822251630135,0.035536283120603654,-0.04672754553098955,0.1459963432774562
,0.02013977830751935,0.26471528006288025,0.19081843535130502,0.017747736953078443,-0.2039198641855529,-0.08365580232913543,0.15305645487609923,0.2570710669346164,0.07697372125526365,0.3931367508733539,-0.46224232713309443,0.02238557057010809,-0.09406172348386792,-0.09598823999957037
,0.05563246198870641,0.21110477700888997,0.3215474057028452,-0.5387035525957075,-0.052643014231118036,-0.07750564064915393,-0.02870348975486055,0.12825230160535492,-0.23510055624752657,0.06358090112993245,-0.10752883869026665,0.05491646457627549,-0.059212512705691854,-0.4002764911965414
,0.019462128762379162,0.3807613442591063,0.09640098298195313,-0.4092827775318354,-0.3449139312448829,-0.130129196148517,-0.08699855360171285,0.3288502724446721,-0.18333899556967048,0.2191064107892542,-0.07131179367163476,0.2577724169797739,0.09277293744868205,-0.495107460879615
,0.2078860330304101,0.34228696695166383,0.05014285783271731,-0.5249384988449414,-0.5857513596292023,-0.08955901528461682,0.058990820528983065,0.43170374973429876,0.07027697291847844,0.24880708867494203,-0.028042670711440905,0.35940867477616445,0.22967860681338864,-0.061366555709991735
,0.25818244373213833,0.08957987043270901,0.18162663903205267,-0.3942038925764569,-0.4058502666228604,-0.07081251723588171,0.03586320300436114,0.19731428458702935,-0.25494006128730423,-0.2594749993849333,-0.15225843533288946,0.10484349750478425,0.03759926664581701,-0.05857789345158367
,0.07531837021911988,0.048096506655152145,0.08543329127583639,0.13795155949938154,-0.3674027310759563,0.076043675009321,0.07795028118564973,0.06230623333246112,-0.31601367273642716,-0.3270361309767668,0.06362027420282318,-0.21842304423284534,0.11217662120047257,-0.23254248603401126
,-0.06843673524046685,0.0526544990289765,0.03190620882135023,-0.04884357031733871,-0.1863042152699542,0.15455836851306756,0.23774749907611334,0.0502738950217227,-0.15273075915252632,-0.10969106514361887,-0.05870548141195812,-0.1897429260144937,-0.01842761303825412,-0.5334298377943202
,-0.28939346322194154,0.11415241636997836,0.13379390559086057,-0.0697743972226819,0.10127336693313091,0.20402395826979813,0.019194276474661806,0.1030770999918607,-0.09407341490092488,-0.04375754032785104,-0.3520033419749218,-0.12840790886681303,0.11086162691582246,-0.6435493277152545
,-0.04519211989306964,0.24960908457481512,0.06071439542242324,0.29959224199667017,-0.0007343311443141053,0.02671578894296641,-0.05342686201924239,0.19380091346768175,0.0399339989330272,0.0938662339044984,-0.31360280799491447,-0.14705381564427053,0.4311562522237243,-0.4286548808633847
,0.17135637297733486,0.035251380467002144,0.22734343020485087,0.4122640749285278,-0.1532708278127783,0.002003206240476702,-0.08317156324104481,0.05246610265628046,0.05770203219221863,-0.08485402200262274,0.03086667894970227,-0.10872149221900357,0.1941896288186753,-0.32684764132212135
,-0.2506004966763615,0.14263335132158492,-0.10014881599974589,-0.08089624364242869,-0.2510012512584463,0.1527833242337361,-0.07407896314087033,0.023016602047666194,0.10911237002906422,0.24915507037840803,-0.09164012124436628,-0.2511110439205268,-0.0054361264096353746,-0.4126489146846
,-0.16192209054408924,0.25509045743270986,-0.3968214506864851,-0.13752810233445376,-0.17059646138786733,0.1837899692094757,-0.06508591920494625,-0.01140494185973958,0.11293099475471682,0.27923284040418705,-0.1432656712639278,-0.2864344742891576,-0.2908602013761873,-0.08229703273637443
,0.24111997705739946,-0.17913737797056242,-0.2928966439722717,-0.13501974584818993,-0.18761399648376778,-0.06971835127389238,-0.029529339274391872,0.26260694622274616,0.1572471494826707,0.2836597190261625,0.1928515354910067,-0.07796689776472289,-0.10804678217042221,-0.12113346954328288
,0.2619411289223816,-0.09906142212564525,0.04822475818883042,-0.14465322509564688,-0.11635330115881033,-0.11415014710934292,-0.17162210427864852,0.2900942719462841,0.095782063833102,0.26358578439877134,-0.09167532273905676,-0.015448548660458541,-0.2861683607550957,0.17132460709383815
,0.0845076102120007,0.06306203190673643,0.11518783444081215,0.08335526594378634,0.07452685447342605,0.09428899237241184,-0.017038066697482562,0.027257013239571748,0.020817263856128955,0.377533056698761,0.16242775978878304,-0.025761681746551784,-0.1328340041305571,0.34525254292941776
,-0.2015460481189456,0.3782246974552392,-0.1221480762513434,0.011876769429649263,-0.17845751171803634,0.030468957496978307,-0.022678079387315968,-0.12291376829410391,0.09702385629375643,0.35220568498121885,0.6778297964635773,0.20306617501757138,0.08129519923298896,0.08054943846264942
,-0.02305894329634695,0.447278410685646,-0.06424352869284476,0.2754981288339584,-0.19328098988049483,0.05055891692538113,-0.15726643952325112,0.03857388164957007,0.22805739328165944,0.1112631633050333,0.34744467375256755,0.056843149365301465,0.19865105840976532,0.034856108152245865
,0.022918679080332988,0.04034468749518272,-0.08196503172731572,0.015065659264316222,-0.12005875896315228,0.14751555432828653,-0.19287456985659135,-0.04288911740358397,0.1939934669954516,0.05207729897803853,0.035156796937582634,-0.21142279224980295,0.16547712732410774,0.3134313658776134
,0.15046841043612572,-0.07638007939530438,-0.15207338462398098,-0.6065326324384881,-0.1866936023210879,-0.10468503915769192,-0.023682480593749954,0.06315151612993891,0.05432864229669455,0.4754685739238644,-0.06074976762332576,-0.04484186551009026,-0.1341699221136597,0.41282998538233623
,0.4146618098404979,0.24112981103571987,-0.009145552444811566,-0.5776456815665487,-0.10321620072164082,-0.19630730694989007,0.04546715156715057,0.24986893097718288,0.19009940170297213,0.25525855638942546,0.05154346670615452,0.1808235049807902,-0.24211858347431323,0.03543760042053463
,0.4298211607246613,-0.1774757211515139,0.20888497457237573,0.07186260780926475,-0.0037937235626182538,-0.05553778691866194,-0.07692159401998698,0.14395944399357613,-0.10744055227820735,0.039308762152914574,0.15839084856902463,0.12922557208053284,-0.1853264475206148,-0.13544042312043253
,-0.017060728066550995,-0.20962128971140334,-0.044055212535902236,0.15214603685417383,-0.044196350423023056,-0.12397549794265583,0.06054368035823405,0.11655794777048586,-0.29187216865712623,0.19035988072963259,0.42133774293322507,0.16199783167484122,0.09500401158280931,0.34510759863828283
,-0.10048512449009757,0.13177460495681978,-0.0956687713629696,-0.40885143350335534,-0.1638830648739667,-0.12996965951559897,0.19967631381717932,0.187907504657712,-0.12335727644949014,0.12686148165777988,0.26047877203908393,0.155484607761782,0.37049489885090353,0.25937468975517824
,-0.10245723726096101,-0.05513305562612504,-0.13472913358081903,-0.5315665555529115,-0.33347051867293026,-0.08651799550446887,-0.03137270637651748,0.1930292097007116,0.09353861046593856,-0.056973672041892305,-0.06018375139665232,0.013540803190641229,0.3254015273986981,0.26554176340489866
,0.07321693069308872,0.18475356415391483,-0.13600682665584476,-0.03705801730839368,-0.10943946906842693,-0.08090528655785344,-0.1728819324437519,0.09015744672053097,-0.009152222634159084,0.31093011512339347,-0.1153908214659029,-0.06306072115897852,0.21109583597050588,0.11090831717095719
,0.1473183110807737,0.21935144509659546,0.05301361817171769,-0.2960335729379672,-0.3389886254417678,-0.13611902954192298,-0.18193130894861823,0.13147759142867027,0.033525080346461025,0.5482973870751717,0.02012870257252879,-0.030528482316470953,0.3406015720253327,0.21213922787706932
,0.15030941037091097,-0.27354125162813087,0.07399772177079995,-0.507001989374134,-0.48433029655527104,-0.16918420493013314,0.026364563644451663,0.15036133436132285,-0.020968578896037163,0.1372653655041548,-0.41124026934313396,-0.06181626609746011,-0.186713904148469,0.3248713779285554
,0.1454762551705475,-0.2168539953904737,-0.057379125483303414,-0.04711955138612174,-0.29373669294726257,-0.1023619785237193,0.12690129405512715,0.1483021806074276,0.06902247810296779,0.26048220708870495,-0.20461533753626918,0.01448411824027128,-0.20286797154839895,0.0787494859139322
,0.11006846218775247,-0.26098177467979805,0.1681006902759985,-0.15371056935593264,-0.23225552584034023,0.024123720166053218,-0.3240760147694433,0.14896259797626293,0.08221857388457357,0.3290269287971203,0.05087527238781203,-0.009205633498037368,0.0695494933716508,0.0360847571775654
,-0.0816162501941211,-0.32501310891932994,0.2758220703789508,-0.24761244507686136,-0.17230400651519745,0.0019779585918220264,-0.29955265920285373,0.14245823512254704,-0.18388735095031106,-0.06447383860084437,0.09121027262322377,-0.10009938513110256,0.12843722873467134,0.018478375295558094
,-0.18228727703106187,0.2372671000474399,0.23765616157033664,-0.1549685299395566,0.07127903029444296,0.006887786985474858,-0.09754729298165532,0.1635638235998813,-0.07665099319659598,-0.011949324770487282,0.1764721883176323,0.04111011418150188,0.013086105352276903,0.07352736326219839
,0.1604738542964365,0.06147448992937408,0.1668388408726245,-0.2073236025198857,0.011981783377344362,-0.1522616023490625,-0.03432593483944183,0.07191553547126057,0.003390795949385536,0.17037307503369334,-0.36333967688153396,0.11161390854534357,-0.3112546449670831,-0.2690510458379123
,0.24287985472988163,-0.22790498891616928,0.14925570867813984,0.05358440061579112,-0.1682924148636451,-0.07687538140064297,0.2412718762817115,-0.05110399351749626,0.0760030099783133,0.006749093628505746,-0.673893480762492,-0.22228921589899373,-0.03503222353232173,-0.12838924812782732
,0.07551283849335476,-0.016705657708713323,-0.03959383516365529,0.2151793327780927,0.003429602303910183,0.007614280640790141,0.07299089742850494,-0.03092281165252569,0.036365567089367966,0.016615862865332447,-0.4650555170135639,-0.2560587825433772,0.06701549010256605,0.015443296620646148
,-0.013448811826427948,-0.08929218128040703,0.005579311923224854,0.18445261667539248,0.16551042920567904,0.07099678218582472,-0.06424486927186156,-0.08774346331670983,-0.11429706309278852,-0.23432383149273253,-0.296124974406879,-0.19336484767000078,0.18007923402151013,-0.3790379110062947
,0.08044988602372555,-0.0495853502338257,-0.051218872296508136,-0.16128348281988011,0.009168919429025923,-0.00886894191396591,0.06139858594435824,-0.0752619000551202,-0.15882006436169605,0.10763529446065127,0.11283706059908769,-0.044718981739892694,-0.251126472313931,-0.2519276637211689
,-0.19270849560318534,0.049202876783055544,-0.017764937724860933,-0.22461608701422703,-0.1725479306780667,0.07800938877815511,0.06022584490094614,-0.08855804353012393,0.1106033839609897,0.31473119802695165,0.5030589502188796,0.050415508807293806,-0.1982531959608829,-0.13827398312501457
,-0.11843453651188897,0.24411655851029496,-0.07493695074806074,-0.05608193383675782,-0.21773425292402052,-0.02848255121139929,-0.08459265430126413,-0.15645241990499073,-0.03763858717118219,0.19277576556630785,0.351668371270976,0.04896599639292086,0.09986035084834764,-0.05107804553762543
,-0.08121667702783544,0.17643060880233555,-0.07831488846379422,0.05868011649935231,-0.16770212604980586,-0.09596553306778136,0.10039883526267983,-0.08592135615653698,-0.08005238938638337,0.43241998001718823,-0.3674529351524335,-0.10884673580101596,0.24624252256738913,-0.13647387147819606
,-0.08867032978282766,-0.02184292621834852,0.07444820505379336,-0.01775142545264104,-0.1869866526390837,-0.09389760366880977,0.10991712918881062,0.16427694182504343,0.11596528645756722,-0.09748869472081179,-0.3306638448620945,-0.0801301178218197,0.15085940198389852,-0.038830587481835786
,0.17730211693209777,-0.2160304223705658,0.02863495000549281,0.45142924871137297,-0.18585725868827288,-0.06989758709315137,-0.022403567924968143,0.042878150145776,0.25750833847824944,-0.02826574922751711,0.11937391529111645,-0.13488793427919832,-0.06013253274654059,-0.11860403457427751
,0.03809409923148228,-0.027774363028228177,-0.015622240677845123,-0.086448001492279,-0.4108419792101557,-0.01951055890206956,0.0998738145800919,0.04219122845937282,0.04727872081419311,-0.2877408580589805,0.35008054992800136,-0.0959974172446553,0.3003106852263207,-0.10081587897683772
,-0.06333119712766133,-0.12526506940540683,-0.10289405250992542,-0.30980531832833064,-0.254050726014447,-0.07213065949849674,-0.06674118223764042,-0.057748520470314715,0.05767292992865488,-0.3019025013244078,0.1334857590239452,0.023569139736801258,0.03486607706236627,-0.06969999194442726
,0.18325623953505102,0.004357811898782939,-0.0813843999951189,-0.36074546314149664,-0.09606541318352926,-0.13480202284067158,0.07016810959701128,-0.014740221906092636,0.014180201222165893,0.054061860198662916,0.05372657604434971,-0.07826447612073702,-0.22442636746538275,-0.01429687431543071
,0.05366684397496123,0.16155333882118283,-0.02948958625159401,-0.5189914729784075,-0.3627145129821515,0.15554830497482255,0.1560743589222156,0.10014437316669651,-0.07427597406460822,-0.0738206349024013,0.2849427140901617,0.07322151018965378,-0.023829503264938427,-0.32647709691014665
,-0.33100538025240805,0.13962033523054956,0.10450213654707993,-0.025520894969191348,-0.6008301246782394,0.32402726445579105,0.15208587033326276,0.1611627763648835,0.047751400680077334,0.01623834625170944,0.732505257557272,-0.08962302835596578,0.1443173647602766,-0.3896574010406496
,-0.3151858544544797,0.13330083856590608,-0.022540628904171873,0.27339904808213145,-0.2946782151603798,0.12004202587048356,0.004368992978840949,-0.03825096916418318,-0.027252400328974618,0.2704131980402636,0.4452842531137964,-0.08815433516084155,-0.07807713681114638,-0.3808282552453417
,-0.3479413469921589,-0.001297319785625817,0.02654184909454881,0.25708798958555074,0.14324620478934197,-0.1314849177731739,-0.05888078232541367,0.09452739743790692,-0.08424692268007825,0.043746081208951654,-0.003921091767453815,0.14719080305102464,-0.19766691689656973,-0.6313641248228609
,-0.3341454251607348,-0.055509663237647555,0.18973526893622106,0.3145879264104094,0.20051624353478736,-0.17105569254618347,0.04652436602480096,0.27662229492092755,0.15251688442295794,0.20781134305238125,-0.20061960270988788,0.01758966094675333,-0.059925552473485064,-0.3712857543419095
,-0.04525285596999806,0.02864544327769453,0.08960686725264147,0.286434194320089,-0.021159147268814557,-0.18130656277789978,0.011403767786102558,0.10683502407809826,-0.019889070635434464,0.2580355791912297,0.16796323326148987,-0.053654517686775406,-0.1342869880939819,-0.4998469960611207
,0.232369957769225,-0.16818133181212777,-0.04901725732266243,0.0582316282846033,-0.26549448540547443,-0.1856112556509805,-0.008967473873621207,0.06795814542065373,-0.05003590475893564,0.17429811706842036,0.43971014907808215,-0.056449407027289705,-0.309067450809315,-0.4546450612280603
,-0.12690707010469385,0.006440839304797496,0.029463092486060227,-0.013109488794613657,-0.2581966651436337,-0.05812400550133778,-0.05029044602579742,0.1114942146399331,0.08657652977686427,0.15608871753605266,0.4844758555447453,0.00586497763413922,-0.25969828862269373,-0.7042854522507511
,-0.10761095968416007,-0.0494436448085187,0.19026209627390447,0.22533368426024683,-0.2220119221015085,-0.03940713846942997,0.07809137303129392,0.013138218140494227,-0.12917403539765104,0.07415702920155078,0.04306101228935617,0.1788639086347717,-0.09580385284842974,-0.6105494618636313
,0.1614423725501176,0.14527000076594535,0.21029313878671532,0.2827719253438026,-0.014645097960912592,-0.1923103104561247,-0.11132190246459611,0.021228987540147105,-0.10420293326660368,-0.09903281029864022,0.15621482847707016,0.2070004701925153,0.0143425626462112,-0.30580929788976996
,-0.0450901723631876,0.13757150738971416,0.19664509093270688,-0.012708212545952738,0.06329683779623585,-0.2214095293763925,-0.05378627739566389,-0.07294200296900413,-0.0910893286608398,0.1355847563109897,0.1299126049488053,0.06331627661338193,0.15927455241245012,-0.3015531807484222
,-0.2192383719286028,-0.09245369033930083,0.06407177482826523,0.04422534531266042,0.10140321067160572,-0.38676063786671755,-0.12079166312140752,-0.06068147943130063,-0.07632276759366885,0.32805251956401954,0.1739290494682619,0.009361469992393425,-0.032534819351488366,-0.20415435114479819
,-0.1475526422167216,0.13733545523365634,0.008848706458437793,0.3300367888598512,-0.27909358451303024,-0.09149539551011257,-0.15362056001321647,-0.09508917358482294,-0.3105515833287607,0.5874538186924374,-0.013218854300035996,-0.00010562140718725453,-0.36453673532573455,0.053917612435075674
,-0.0028527445768751877,0.37297990451961954,0.23972023072283424,-0.09257869751890777,-0.21619895034942296,-0.07171194100046072,0.047838007449042985,-0.19876522684488343,-0.1441947807450694,0.40679720789824836,-0.0630860885752892,0.039168925308679645,-0.2599778717368588,0.41538611598935166
,-0.12747158003232684,0.3087980928166804,0.22130965729518948,0.04879367245653052,0.11344055724639239,-0.06830191781313892,0.14868031235948861,-0.14651347628158565,-0.1572994442743549,0.03772613860999657,-0.0387324514431013,0.07615208726024537,0.049302672286061264,-0.06251234758745074
,-0.38214325616021244,0.4116731506448445,0.08598547888513985,-0.5195212480236278,-0.012925802766645136,0.0041232363686404105,-0.01739278275672715,-0.034386178821284266,-0.22410814887037975,0.17467306591339662,-0.3580028366122893,-0.0891761163012306,-0.08726227852522858,-0.39773150805430424
,-0.2992946631972137,0.10195916996822345,0.14364076330182823,-0.7713590591094223,0.09886175279520891,-0.28491948398567346,-0.08817082666733624,-0.09261531889104577,0.019740977608488072,0.07136076776235517,-0.497411830092829,-0.3002112389927805,-0.25428792801788447,0.03136692939809578
,0.029911705665218405,-0.11530075800817133,0.09370849998971291,-0.31806964834547574,0.028065405778670723,-0.21070920731638057,-0.1782590112434332,-0.11984872570793645,0.02261390460451371,-0.2625642071924061,0.13668168548881646,0.0003288781715425619,-0.3668050942961678,0.5176485525316877
,0.353942675159855,0.00608859994278233,0.10636458811976073,-0.42327109555130743,-0.18458624777136418,-0.00940011016911193,-0.1654015754756504,-0.12349746213362613,-0.10966960575711987,-0.12843171757656785,0.46290799391917953,-0.005479785146075815,-0.169880100299975,0.40874156056772565
,0.24782176188130817,0.09777880283530524,-0.008250135872657726,0.037123772343131224,-0.21620750460250715,0.00014676442114090396,-0.17442715436364756,-0.02168919163308165,-0.27285194697599285,-0.02396422294820634,-0.08999399333586441,-0.09061576522452715,-0.16050890406097335,0.04653866185283525
,0.3116013197872038,0.03439829601356973,-0.03367396421499002,0.6498420285869937,-0.1157543457011948,0.02038442168921873,-0.022414691681880684,0.0920252677618237,-0.19765764099850924,0.06819415237270551,-0.17804608686690981,-0.05008274226283993,-0.1524612231089105,0.251612708060454
,0.34952625279075117,0.37101352783146274,0.06894523150131689,0.5277425342866354,0.061049447874919005,-0.10688527116964351,0.27635771432894823,0.22783907022424207,-0.08282668025985353,0.03185446282369586,-0.3584676426387442,-0.06920888318210017,-0.08831295277195102,0.18856833698380926
,0.14297246765970215,0.4212267994117959,0.11459578330545009,-0.1268128085371141,0.2511840066812223,-0.16102791339549166,0.003688984385000421,0.15078431635608416,-0.02761354898517923,0.28186799555858427,-0.43852231698177124,-0.016021722973692573,-0.1706818566748253,0.2987173608386173
,-0.09073420787290364,0.21817324400028867,0.034277684632597304,-0.37841123702738494,-0.039666082808268416,0.009110421849432377,-0.02762947272776321,0.1315574546689748,0.024953174254235794,-0.12093849321902911,0.05458152283334655,-0.08802456030900446,0.11697182168594572,0.04743180516661055
,-0.06776709250491698,0.05503316786216079,0.10065813072955483,-0.3555352809564185,-0.2576640342963965,0.25190633311173843,0.028250067704783218,0.24244057799864158,-0.07166280589306198,-0.1988406541107418,0.4019925213216253,-0.14262054307549266,0.4912659195804376,0.10669234148774555
,0.20634801373266407,0.15796374805678287,0.3346547196091457,-0.1720410632562261,-0.11102380483149506,0.24806048261780753,0.020271239334726063,0.3060146051415306,0.03494648815203278,0.23731494781966014,0.45155519720920584,0.016841236623525303,0.05666783706927536,0.2671603576712198
,0.06762696604403154,0.06173389638405638,0.4206725342586579,-0.018024540663737765,0.04197964405196671,0.20408525461717383,0.2020342794661272,0.03880229435329426,0.022414113281787898,0.12875519502807484,0.2425748537578725,0.20230184948323052,0.0792590970207769,-0.031100555992539095
,0.1610968055823452,0.1061295626292623,0.06352627507545089,0.415555107864093,0.11476498664851532,0.067878524582178,0.13157564068548694,-0.14396815919561157,-0.2599646664364352,0.16530444214719536,0.0793927050910076,0.1127080296858824,0.21866994429846184,0.10331861489414688
,-0.1664775662434433,0.07588366561885357,-0.12498097769910178,0.3032971050299003,0.3053843287816622,-0.10581320492609957,0.08829972749495989,0.014899038887287957,-0.06908838813763714,0.2803979498402605,0.38485784957377045,0.16940748196763109,0.1511929361533413,-0.16922688126289784
,0.004325208575142781,0.28994706953311744,0.13284342591361167,-0.06611031066765484,0.10965482898145773,-0.016070054673062543,0.05107300717969697,0.1693627370448746,-0.052978553090127466,0.46669362379314067,0.2595614706434783,-0.048373061462654375,0.06327420166460955,-0.4767545336096361
,-0.009865894527936112,0.34830677166131835,0.1033154142925876,-0.6007443105629868,0.13712210719790777,0.1493026399090784,-0.0034940137763546483,0.12954695982766243,0.12957348971798927,0.544665602360587,0.11162203570966192,-0.19151906434782404,0.15663252700800592,-0.3197430280112315
,0.10433474746373891,-0.24490896885857114,-0.10063074958592842,-0.8996176315981099,0.09636669248013578,-0.16023753222708909,0.16133613759956217,0.21662614572804023,0.24568180461388134,0.3692323862423657,0.22273949786198935,-0.05495224639021087,0.023451102611575472,-0.3341453257690869
,-0.23548378737985315,-0.2914123207802403,-0.07449024969753991,-0.3362536567324499,-0.0648573100188765,-0.24248569185399205,-0.09048501593795427,0.21029295189988034,0.0841295100608608,0.12162341461279405,0.025256710609364293,0.08335333398472627,-0.030961500534319553,-0.3282924454844133
,-0.2809620627177273,0.11451521258471742,0.16276418029910164,-0.022093048890941165,-0.2210917822271564,0.0007376750548665708,-0.18965693972360073,0.2515925246619282,0.1934735782826622,0.29480878901896235,-0.48021411504780676,0.0976412306762428,-0.06817497935272392,0.08341938981306897
,0.03910328740594691,0.3907962926966352,0.3016922701499385,-0.3682343610297359,-0.1327617333647677,0.08073589268950807,-0.1874750039133136,0.11045937797563014,0.30228370334902266,0.33786639976156585,-0.2850346680049683,-0.13608616695443718,-0.057648788190626465,-0.38902599921341485
,0.02644547420455667,0.46483542050533666,0.16381587995155747,-0.279948193338376,-0.3152116401467941,0.06168371560477242,-0.21059512221749696,0.024466543701370552,-0.00444131954317828,0.14926098586230743,0.00946823265098426,-0.0486381937409295,0.2802590781657967,-0.589377889443135
,-0.16498434960931105,0.4589623576156367,-0.007947714047411505,-0.07756090736284675,-0.35284648327256657,-0.06521082268344146,-0.015418289126424303,-0.07221619041316878,-0.16210264924386383,0.4568803071016822,-0.15391885485488802,-0.015342975283979272,0.19448261908916603,-0.25345062728215917
,-0.06009272356892482,0.12489834518860221,0.026934131885768563,0.0006393179573948784,-0.24959362990898679,0.0485172013670673,0.013043573822898776,-0.20372696339985932,-0.09197520001913984,0.4177533574649995,-0.3202828507374529,-0.18943983761129077,-0.24440157513259908,-0.24235633187967862
,-0.09586305116710245,-0.14564502511657676,0.17124284526594905,0.32866139368046443,-0.40323229315185116,0.14486058097284435,0.032169855902763875,-0.03760076136903434,0.029203737027501276,0.32985168318222646,-0.17478318097385184,-0.119013279128327,-0.24961081221951653,0.022027416765623743
,0.1486073528539253,-0.1627983428798069,0.1701435053698506,0.5880456825980361,-0.2303532064570104,-0.21366397130460119,0.1333502384690716,0.07309604579027945,-0.06806316949577185,-0.17999577688096094,0.10711972898394304,0.03897214364499782,0.26942382307722573,0.12174033168366666
,-0.040185068435766726,0.27751113888272416,-0.020994865435969862,0.5839550802860938,-0.11305412781711224,-0.3325615152491511,0.09674487169170995,0.11428195069751189,-0.2385215118889027,-0.0737271471678824,0.20020229216496105,0.13359682976225234,0.21625630630590423,0.38302844423170684
,0.11939351759984672,-0.05939411798207593,-0.04976533479909222,-0.045464422193496876,-0.18826245819816093,-0.23131369240801442,0.03229688303377897,0.17617517847258365,-0.34885873219693325,0.48272346547589606,-0.11791000700967649,0.06442021130766727,-0.09059336085075052,0.07410865148543302
,-0.006077917127454249,0.0017962844068035652,-0.13054229844522156,-0.3927731206668443,-0.25995791958213366,-0.15110174852402555,-0.1809279163448139,0.00184254947126893,-0.12648435103508435,0.3914981726265253,-0.1517837523136141,-0.18748068737559037,-0.13615533593855336,0.19440954115236594
,-0.09675934398590498,0.20538238123388727,0.09602235613092847,0.005416576192740944,-0.20644412552832875,-0.18065754311804252,-0.26664299201475544,0.07793366606551314,0.031388480279765464,0.20724291277220783,0.08488038388554686,-0.22509453670478985,-0.21648014862438217,-0.08882999354616448
,0.18542046981750582,0.07395039489139436,0.184229739624103,-0.0921239003992148,0.22819498618166836,-0.08344915025448202,-0.10555275311409254,-0.012300658441298436,-0.009057363103776759,0.3829913250478757,-0.34192642083454516,-0.17047448728856168,-0.17456561471078105,-0.25263915083134975
,0.011090240245881823,0.12843596249667869,0.3197553868905947,0.21554231055745662,-0.03224229014291669,0.020344957838665516,-0.04024938793263972,-0.04635830856261717,-0.009297551587377382,-0.01698666736608076,-0.5303395456992104,-0.03645666690536187,0.09336182215983614,-0.22063340326253722
,-0.11141694442913301,0.3219766738605965,0.41608536223288894,0.40497027318395706,-0.3874736181630893,0.1667379148847514,-0.1851656294536689,0.09561688030494445,-0.14739478697929387,0.0040023259394382366,0.11217613003025914,0.014023054190887955,0.2825468634647924,0.16431288588452525
,0.06855932860798801,0.17386308298050235,0.06492665163080888,-0.2708819061001834,-0.27841798365146614,0.09592411998574728,-0.14800419915121996,0.04803216993958556,-0.2159364658271,0.1581877336472684,-0.10730783644906745,-0.005657812305530375,0.20655880194037157,0.15538932821216164
,-0.24302572601420722,0.054748988687440374,-0.03924758797045711,-0.2511917444613369,-0.2002667704895036,-0.11006445393119975,-0.14577594942199754,-0.03953635771315196,-0.23756718481840822,-0.2051386964020758,-0.14801639393128188,0.1248181566959158,0.07447294091858793,-0.19158205940862166
,-0.15151635616977754,-0.0612058499308345,0.052288812031721706,-0.04487496815236638,-0.14608365395133022,-0.0019933054472613073,-0.10542754634126299,0.11473086059349391,0.024677396858318504,0.03841606051179992,-0.09872293728536384,0.11017449469751685,0.06355199119273446,-0.14196723920058768
,-0.31072627546240444,0.19796178608165182,0.15479534964425584,0.011666048318395857,0.05027949060507527,0.13296732519800483,-0.1820423038077453,0.025962928331447577,-0.022120897237186903,0.07436483704985036,0.22297077906770438,-0.1261080813972592,0.17619973043289164,-0.24677420475755887
,-0.45888215597466536,0.13457627410984058,-0.01866530422112999,0.08498835499709266,0.08385309531324689,0.11993532528386613,-0.19770284778459304,-0.07533516152565342,-0.19801891125766966,0.1351332436163473,0.5435970471441216,-0.13416659302356582,0.10722171396012604,-0.3411389268852013
,-0.233064435095865,-0.08257490593595633,0.06261385197541136,-0.1378564434780806,-0.0724261143840555,0.1782237338425635,-0.19819877393977228,-0.15773519618986578,-0.23148101987786832,0.2028758273036939,0.21076200716427695,0.19928759896389972,0.010366790548962262,0.042274661706425166
,0.009323249620384343,-0.3156622687044334,0.07945078090606435,-0.19046504788746504,-0.42746559138706725,0.07179342121497337,-0.1304882435851077,0.024119504146859535,-0.2851308865329325,0.08707087240958279,0.013933397422707511,0.34427615752743673,0.09094332764939013,0.185635137458028
,0.1485069274680368,-0.15202939132254897,0.053602648481462206,0.3669690319164276,-0.22851978052314337,-0.16831877127818554,-0.10117402418657205,0.2217110605600597,-0.16764526985473902,0.10324091973193072,0.22870136798540547,0.13743010665099184,-0.11582416679395763,0.28823885168199553
,-0.06085061067134041,-0.14647639100446805,0.06886733124412076,0.5389526957840939,0.2645273184444022,-0.14909670944985343,-0.09539004677084349,0.04222660104000706,-0.10047963417279548,-0.06607210743076072,0.50507242723464,0.010291617938442292,-0.21412182410097702,-0.16067037006297025
,-0.03008833007595553,-0.13677863611809446,0.031117441886832863,0.17836690160595323,0.20928727828128102,-0.10877566089459838,0.06719403528669801,-0.028390170312938133,0.06671304039328915,-0.10563822034032543,0.5213651777656453,0.07528151473205333,-0.17808301602630563,-0.20627061229548158
,0.061812498881366425,-0.0776148886612462,-0.04152626349054096,-0.017221034559804695,0.2616853652009711,-0.01841911020086342,0.012948246622848205,0.16111403501984584,-0.08618928315653845,0.11670580442668907,0.39401008261347853,0.039632487322439076,-0.2031260163170672,-0.02458140654988815
,-0.1723673803590376,-0.05863668614359294,0.018465177885687755,0.00038162902940862715,0.3544029744536424,0.1110705092838995,-0.04797326390613054,0.07257794572858184,0.055525031535343786,-0.19090313342464219,0.212923339103454,0.0922253718871318,-0.005241264619966801,-0.3248562873798511
,0.028482833744341587,0.2599796625875885,0.09239559364404873,-0.09320282101494683,0.2673759865065375,-0.026255692001736823,-0.08900670570828806,-0.1177966796699724,-0.20534043690635106,0.09855859338179668,0.1100662375245397,0.1977018778131883,0.07164210420690212,-0.027193644348044773
,0.32449516495030506,0.052473565269355094,0.16629367061175143,-0.23781201966323295,-0.052588746018821055,0.02268693603571422,-0.05633258969818737,-0.08388118267232007,-0.31475050204083094,0.3376812342260328,0.3514210389085775,-0.05786388606023794,-0.039749706377336505,0.2623971931170494
,0.5091148313367828,0.25119982409060326,0.209095836802619,-0.018497288845811664,-0.18435467944656145,0.36376773927369654,-0.07254516004964001,-0.0886478716754477,-0.0688381222564831,0.3765355137156155,0.4570733710676559,-0.10760406010633818,-0.1692992314983546,0.13357608187331865
,0.12948442014332934,0.5352840110984488,-0.06004846954343449,0.17436567038471376,-0.2657338180899151,0.23480286032119912,-0.1373172460862976,0.05335517443659545,0.09268014184771513,0.1948050258226662,0.23891147707506138,0.03275796795032704,-0.10610321935923088,-0.03532657864486782
,0.008979720463253104,0.24253212107790414,-0.14354154025135202,-0.07004264064272915,-0.1336246085589398,-0.05355614984030391,-0.06957571773305793,0.28453302947615183,0.07498291635119149,-0.1072854630134305,0.0460330627217189,0.00435567073914732,0.04924385633981181,-0.3283216838730736
,0.16877204528968626,-0.23870098610605264,0.03081864497185363,-0.3703044321169383,0.14732336377766614,-0.0860665844285304,0.06572079771463103,0.1351698572544257,-0.0213101502893147,0.0526148876786339,0.04359815549152363,-0.22705107169507743,-0.1400808395345453,-0.16748467615446871
,0.08500241424363779,-0.4869051195201456,-0.017703295951865504,-0.1508123652460481,0.12359383502011267,0.042429159963038435,0.08576232704399582,-0.021153611607203165,0.004116682967557731,0.028350427929075057,-0.09749313542720149,-0.32609003188213825,0.021843202660007,-0.050886265233201694
,-0.10458257102159557,-0.3524883145438583,0.0658695413857738,0.12592673606910915,-0.15423562146595798,0.00560796346415768,0.10589548829490047,0.07329330420791974,0.07193476872550922,0.20814312731248852,0.034102820239151455,-0.12126234559284954,-0.14154923980127446,-0.11331337122964577
,0.032935873611916286,-0.0291736279351257,0.08701507266851564,-0.1908214001105427,-0.21496956867084172,-0.256077270131865,0.06915093507130957,-0.02239416394933081,0.20882254946294546,-0.014435310884355613,0.3651466908506375,-0.0853615801544792,-0.28295036150356423,-0.2648708847845225
,0.23728648160377444,-0.110643380651043,-0.0021369246840774953,-0.03446784981746326,-0.08370341685731866,-0.23044923160333908,0.18819075438395344,-0.09496988700639102,0.07720173720089522,-0.15885005382415013,0.21849904356818733,-0.18801057807570867,-0.11919204855654503,-0.06618474979992725
,0.06998617680663523,-0.26861780791651607,0.08332674644037869,0.1735470563638412,-0.10346917114177061,-0.17183988776480286,0.11901744835954434,-0.21637160449708953,0.03834513877642958,0.19499067459993627,-0.07409493670347084,0.009833502258459083,0.025304006037450533,-0.1615469699732389
,-0.11475235432816613,-0.29543440559908646,0.23798465351487802,0.4225575829839848,0.0032939956236305934,-0.05702420419252963,0.025825142220665488,-0.14709203757761302,-0.12901689586197174,0.00937535511039138,-0.11956132205575203,-0.08793712680251725,-0.214317500449129,-0.43830136804992864
,-0.16626415170910594,-0.19947939792113936,0.1670485758881176,0.47490799637847486,-0.0011336308189029381,0.05079394141104351,0.07722059216633773,0.03158570759191141,-0.12720917190793757,0.27793171324245436,-0.1826618960958211,-0.1100676834114741,-0.34297559091434315,-0.2592327471035489
,-0.2892659109688069,0.27147617448536404,0.061362114559080166,-0.01902871798126539,-0.0018385358272397607,0.12689405712361237,0.012394668278644931,-0.04958027316022171,-0.16296060728426673,0.14593323155796656,0.07924140298162417,-0.079382671431568,-0.08047117740861595,-0.11217147298000973
,-0.022655523235850728,0.45673164621529866,0.03137165050698946,-0.06798350465324464,-0.21485611574687982,-0.004805852016434818,-0.07366523711339006,-0.07005778763324334,-0.06886921352199142,0.43924807499619434,0.24923550717536425,0.0971068944897558,0.1178217834410776,-0.3440395482526923
,-0.013456440220647316,-0.03231617150316819,0.08677350877447736,0.225095763324906,-0.17570013331800613,-0.2053082466705819,-0.0034987027016820916,0.04022429100528665,-0.2010120046096786,0.363177647384651,0.30369452487885484,0.02568658466236639,-0.15224036505645008,-0.21150621634466793
,-0.03162243388532017,-0.07235743708068579,0.18726434463940134,-0.2340466994753653,-0.3056059823054566,-0.1538620453738308,-0.020147734940941193,0.17455072253395895,0.10615566700514295,0.21797905914177684,0.19944690007013985,0.13946956007578615,-0.1759594490538114,0.005210852878921737
D1,0.07124857105785896,0.12577083679641712,0.09650579694474648,-0.26685191997571006,-0.2479298089233892,-0.023715306114793167,-0.006896816577390945,0.27285308784807566,0.13347513855239024,0.14795097631902007,0.17689740092045717,0.1648568650680264,-0.04272785166678788,-0.025812941961144597
,0.03103018827108857,0.262587742159918,0.0077539046441637465,0.1662198872147432,0.04044411416244034,-0.1342517529299047,0.0027814371076584263,0.24039022767328458,0.04094421299346326,-0.04321165275187396,0.004087123115857731,0.10229870500752081,-0.16376259220861844,0.143322454060964
,-0.030121164355041773,-0.3829703421946041,-0.0530931883539561,-0.1866076698913288,-0.16385221536638295,-0.2909945032081447,0.05534276428030983,0.12260060980937028,-0.04346413386441105,-0.09316634131866755,0.075799091475141,0.07324881002542277,-0.48433783633054356,0.43043769691692446
,0.07658564445229829,-0.37711412925436005,0.20139905762795196,-0.19599652869313258,-0.2015745385535649,-0.19535091811202862,-0.02309870035191385,0.21760378336684796,-0.05618018895427218,0.3338725918335622,-0.05107566246046047,-0.13702336189056746,-0.3371844166805558,0.4851268201476451
,0.15003299287410765,-0.10475507305732153,0.00987308537593967,-0.3842315524310523,-0.3496608194803673,0.04065489612902416,0.06023657394798121,0.1244563222880781,-0.14423752795274405,0.23099652918989988,0.11362882226161612,0.037179721034413554,-0.15531443319454144,0.10048810699909197
,0.15371803339491885,-0.23903826959513397,-0.0004934752376740696,-0.5153232888880774,-0.426098030971366,0.09937459381757957,0.17379905043140334,0.20970393883839852,-0.14891998417802368,0.24265063999193806,0.016873444455036114,-0.006964159976451581,-0.043883528591279974,-0.3196832682982198
,-0.08844175799903083,-0.03008425592856766,0.1029041980700155,-0.47761000716098595,-0.2743889692821085,-0.040305731966168934,-0.19495418538383555,0.18134503001448332,-0.16539396194265224,-0.15729904362963787,0.2895182360728752,-0.14310819858729024,-0.16214505675216465,-0.33572427097421076
,-0.1282387135695027,0.09916315332771235,0.32291416612164164,-0.48142377326660585,-0.25493971371929414,-0.03796064681614537,-0.22566520805017157,-0.07545301880943771,-0.17957888984250486,-0.21299146363268126,0.3106321023561115,-0.08579168311936333,-0.46509154063363695,0.008849781487527677
,-0.2177457106957869,0.16327606208632298,0.2688544321101317,-0.08331883048318642,-0.11178505194774148,-0.07136700077928754,-0.09743600489919782,-0.2134962675282311,-0.09852652121530721,-0.16720963130991398,0.06282564119252719,-0.04144197847254677,-0.07519001322446485,-0.3960836744774923
,-0.1716158562204933,0.3431000241556742,-0.09623637134818823,0.43957088409440376,-0.041949924307471013,-0.12157453445883042,-0.10548908770587781,0.04281992106883113,-0.25857060168067525,0.10738011191398812,-0.2842869310797087,0.09483952894928524,0.03281836869975104,-0.6326298364347225
,-0.17243305046223498,0.26344242758601216,0.016115762757336304,0.4229342011118908,-0.10110665124507888,-0.1716698253876776,-0.08461463445577079,0.2067596298897224,-0.167415095235975,0.2717271301887312,-0.03494390962575951,0.14734008457968034,-0.1543549499850685,-0.4132022323152327
,0.012935713916172152,-0.10904056589013779,0.13049704718807298,-0.048624531062159373,0.17211060996127184,-0.01690439356186649,-0.13504411715941542,0.10458600677099215,-0.044581100441202094,0.16194574924417016,-0.29574983506788044,0.1573026046474183,-0.3309893710259531,0.13072809531034135
,-0.09129601769773772,-0.005928963341753558,0.08291922808470603,-0.3079616279699406,0.05913125408503313,0.015366256805736393,-0.0458496329341911,0.16633982123720076,-0.09703537689415899,0.16372854721509802,-0.35447210946453284,-0.030805694013263225,-0.14475084640567043,0.4777184513719424
,0.12402346872140012,0.07909282126955894,-0.1400745327325932,-0.15255279210485614,-0.07683925333872367,-0.08035514224477633,-0.02061117197627287,0.10740618103429214,-0.02731226388384036,0.10845845074122955,0.25976921193164804,0.056282419671255864,-0.07067022659260998,0.09148748172667363
,-0.09343890656346118,0.21341425455056787,-0.05426775933840803,-0.14978770881068787,0.027840039901349062,-0.14420838912268671,-0.12159662330908544,0.029023567813979204,-0.10813910044229871,0.19396631230379469,0.022622188309293183,0.03948253303302445,0.050497229461606355,-0.3352968035124326
,0.08482487389463066,-0.0676328343964896,0.02361713955056354,0.1279017474359365,-0.23468281707498873,-0.13538591267270028,-0.04731459936336093,0.13943035008883414,0.04103273050492628,0.12308584918992994,0.01320448995087799,-0.005728414404096426,0.061425920622260384,-0.4988091834751039
,0.3051994799297401,-0.25444797430928434,0.0780920714411966,0.3023248904627469,-0.2551817757737181,0.19911535212324702,0.07014578383151478,0.059506692284910914,-0.359462392590568,0.18838343754746312,-0.037120852444447565,-0.13520150508368553,0.29854311187867505,-0.3921258732809244
,0.17435244995712018,-0.2508263752949895,0.14266174131423054,-0.2653410974221822,-0.13866945836964253,0.17444659335294627,-0.15327284242813033,-0.07356476766123923,-0.4734247785402757,-0.0071749793236351705,-0.1089221903073551,-0.16566779955662703,0.2117705467495269,-0.06373390599940225
,0.1298189331143473,0.03949803446731049,-0.07102137044145827,-0.39583062975561795,-0.261470750799341,0.15095644008950299,-0.15560213262323788,-0.12589101283670406,-0.10015736953785274,-0.05184962380982384,-0.17880253605847687,-0.2473024791476686,0.23822727891632772,-0.05797063675958908
,-0.17062732110996395,-0.0030941661517423016,-0.14293981581367698,-0.33962479972694737,-0.5536605214571677,-0.04281074937447102,-0.2584773375317819,0.08426360313107051,-0.15989422601444409,0.5672598995088948,-0.5577421292494108,-0.22133203521288186,0.16756382231199574,0.04240805287331226
,-0.18806609234243984,-0.4111662378553961,0.020257218884091346,-0.35049197372924673,-0.2364951054959858,-0.2383305132776426,-0.17428314797531838,0.16808237173882587,-0.335365942024583,-0.06837559100195593,-0.5360665927384449,-0.15999803887352143,0.15423741550744333,-0.12090448520584775
,0.05715365955724156,-0.340561757875606,0.014074535197203877,0.24931076656984755,-0.022405743318531693,-0.10099505144823878,0.06770702382413182,0.2870980150824863,-0.3421965214965714,-0.4078572628412489,-0.38103517466818004,-0.111261593728082,0.05433901811479103,0.11152399741596518
,0.029537107903393388,-0.40739252595321224,0.013590374864458549,-0.28451755640129683,-0.10507390535704726,-0.16552274650993506,0.1846055613055939,0.30144017676158585,0.01855441626838833,-0.013852762409824736,-0.12401401313345102,-0.13816967051506107,0.12980122116303075,0.19908649979239276
,-0.19763484360258105,-0.1078171180139239,-0.10429057150546929,-0.33470752992768715,-0.026956330238310254,-0.1437976635130362,-0.1642070920399736,0.14108476614250706,0.05239797239679341,0.05861939273776252,-0.008781232679577023,0.05788572112186405,0.13207476081976335,0.15205238802310703
,-0.1516372494070483,0.041632254043686714,0.2139648862273362,-0.4689526963530514,-0.2764646795258571,-0.13806005174552508,-0.3693266557495019,-0.01277503483588845,-0.08899553223753894,-0.08285269193251013,0.0402320468716043,0.05369379489165935,-0.023344345450903508,0.2668138543938555
,0.10789424816377524,-0.09468647789048026,0.10358893078710692,-0.27979947731351507,-0.3250453331149984,-0.18073113705533336,-0.21115903523445806,0.21315831152703063,-0.09154365237053592,-0.05179394971978883,0.22321728478359443,-0.05422244189637794,-0.2533980293257604,0.09811288862384375
,0.18035382153897048,-0.23391058106516213,-0.06907735638334929,0.1503843015307685,-0.23672543036573837,-0.16632547850574406,-0.057272958170058126,0.2225092597191965,-0.039016575986949804,0.10930198486823776,0.12081325678949487,-0.04489853360233117,-0.39833338630693427,0.101502255618876
,-0.20708510797383878,-0.2472466435258515,0.08928351014432477,0.03571137536852314,-0.22587694606915285,-0.1317912719912032,0.07731564340481759,-0.11151210590952379,-0.04244492871836878,0.21279208386784118,0.5620621925067963,-0.029768351861173444,-0.3157387752145586,-0.15415507718665067
,-0.2900499953534003,-0.38720848618930487,0.21588347966393354,0.028695626854416845,-0.3145186381915906,-0.06680654626858355,-0.12704175763475725,-0.12034698552115607,0.021889241229320688,0.06675165749434732,0.46348792500974395,0.0503655200783159,0.025316544434846638,-0.19675790623191636
,-0.08974498153157602,-0.03027560747364543,0.154065850119681,-0.37662670582469304,-0.16171717771347374,-0.21426903291305044,-0.2856487430292736,-0.07720085765019384,-0.20266388944632346,0.217468964557031,-0.04442138110460198,-0.11359017096051875,0.0077433728338612805,0.3634296611790837
,0.13125486101753042,0.1361806645224627,0.07001120377007725,-0.4325828190162752,-0.2973516372665123,-0.30005781566162787,-0.15183670714461459,-0.12166135399854591,-0.2216688352365493,0.6138604691161972,0.010347402717099299,-0.015069553039039708,0.2121881443412399,-0.08384940984851882
,0.07725278349985115,-0.06024377775237353,-0.00804229706708154,-0.0436088581354139,-0.18737237523401107,-0.015307598424613805,0.10269381698728618,-0.06294336913132544,-0.04136906737020657,0.3432394913118329,-0.10000760632024173,-0.052943672225801854,-0.015285693042271373,-0.4090033288549722
,-0.14763901321093345,-0.30841591606207563,0.07479599572773432,-0.23570101745433136,0.011998432451436229,-0.0853963686125503,0.15536923765770227,-0.06074694817285113,-0.10618726805033656,0.1246825228823435,-0.023420406323050542,0.017425130856951535,-0.364124538535995,-0.3597799227958627
,-0.06657082800457995,0.025382899463768618,-0.12498663861482197,-0.028237294162164674,-0.062235487482384035,-0.26005701712491747,0.1616760872000094,-0.03915898236394015,-0.07738969727107702,0.20101985256972105,-0.05440048298509241,0.013757151852412199,-0.3428875728670095,-0.13930261300210783
,-0.01387766237308393,0.2049378077931694,-0.11595852419451382,0.21966316849283593,-0.1948083188833067,-0.0726386140352594,-0.03577906639958343,-0.011244005690500368,0.0840713241194029,0.11527154203382597,-0.6038735778665817,-0.04353744823113554,-0.30162039385498807,-0.09136059543315647
,0.0024762575985238797,0.2414695038030101,0.06072283341793948,0.14119381060847538,-0.18209854633120473,-0.025035037434202215,-0.0354647031200637,-0.06965401061331643,0.04764776503599573,0.10731049832610944,-0.4296006938095323,-0.06308682479648914,-0.3636163468609496,0.15710168179045145
,-0.27400594394829464,0.023979328016057337,-0.05486364123286425,0.002426912731520583,-0.2757911801253847,0.04255293376836333,0.07940098023281929,0.021692703145601875,-0.16052476612066618,0.11504734441209602,-0.28704565573406354,-0.003770454635974112,-0.07298791122589693,0.13485507967215052
,-0.2398974512865833,0.07728599181631564,-0.09959326259763836,-0.07307678363755729,-0.08223621080456409,0.05298970136621969,0.12849303677259147,-0.05310846519604615,-0.2530975871398837,-0.10258938588142273,-0.38670154781843863,0.13676776606818386,0.358108810742792,0.2316592784780395
,0.02546859542386876,-0.0037649865679214556,-0.03576161254431251,0.125525015566501,0.07648317086923566,-0.27344359577738653,-0.21769602342099365,-0.022895441408782993,0.07710466006316657,0.27314285110731445,0.10493733830760557,0.1162892155658137,0.06964073444076047,0.21175446769726614
,0.25976869476814346,-0.15846792916670568,0.08026534335106547,-0.04488494429481565,0.19100939267250475,-0.1466267316700782,-0.17484593639321447,-0.19260410657831933,0.07236642166034334,0.34957638762948745,0.22925238991421437,0.09586185511242358,0.26751116508567163,0.03147924720286662
,0.014898146472637784,0.041424467565534376,0.19318351203190098,-0.15844628915387887,-0.02809595777306135,-0.09669868270227583,-0.030152773344730054,-0.11431741810997977,0.09007253543375462,0.1841872271710667,0.0020226172271318493,0.24802034463221628,-0.29274708948743794,-0.14670626940835954
,-0.2444689927646622,0.08707650135285755,0.16043719662740089,-0.1708802289122772,-0.022253664774796515,-0.18445121051350702,-0.22165589136890096,0.034036227182757756,-0.07693500412430285,0.3577061966110493,-0.15725316942764225,0.11688251859624804,-0.45020045146375826,0.059552741920205585
,-0.1133359103942004,0.13112368458245752,0.021669299744712097,-0.3491884837182963,-0.09593486551122986,-0.0004817869817594198,-0.2503447206846932,0.012536646983861383,-0.029370152045075537,0.3240131965219384,-0.04558888513551866,0.027905725693503244,-0.22536728376306087,0.05160972007005972
,0.2692613182357947,-0.045726441176498454,-0.011887109907886554,-0.3542343213637111,0.036828077377085204,-0.0907048148830222,-0.05679495554725653,0.2315596815074092,0.013157744364632446,0.24696066160803676,0.00678919579577559,0.07421276283399585,-0.3529589169625876,-0.05634561503905596
,0.16863392376069283,-0.38938254366378217,0.00213448628029156,-0.31009622643401147,0.07987390551474573,-0.09604958450100132,-0.20851168758999994,0.11475419448146085,-0.01253041559389372,0.14680204599290014,-0.13468933361419527,0.16448789764133792,-0.30574553871720067,0.05025601572623656
,-0.09339829626727879,-0.2748176646770246,0.09801617954378249,-0.33246727429939954,-0.11582810994492257,0.21231989419426853,-0.14841655164950335,0.05498894512199767,-0.10489678220096534,0.08240628174595815,-0.3430541137972088,0.01146820842589718,-0.01969607732567468,0.21599075481341048
,-0.2822300086123117,-0.2633599856423221,0.15631894054347703,0.11601793503809024,-0.17405508401531383,0.2597424887473782,-0.5246718522856446,0.07160879262737743,-0.13265134286552333,0.04545763622271002,-0.06282048578521854,-0.045639554926458756,-0.2023232743579161,-0.020229085893279437
,-0.1271802232249697,-0.08305956098355627,0.1626476511590322,-0.2311409982158645,-0.21848986866534104,0.20906152293296607,-0.4828509329599981,-0.014492454845824166,-0.09439082385267224,-0.023781641220730152,0.16217669413268185,-0.09360732804838136,-0.1181209407401231,-0.03547598218555558
,-0.014050420246891024,-0.24922683693872508,0.011262047963623643,-0.04145869237242141,-0.3121266823122005,0.1357186817134273,-0.10528505868329067,0.05470540299870977,-0.13589677294671243,0.21865198430855576,-0.052871594734472616,-0.16185126028410368,0.13366366990735143,0.5858343615069941
,-0.025784402165524595,-0.11869570629723368,-0.10588911193056254,0.16583535247868278,-0.15163176059035363,-0.2012817833774081,0.07668697630371063,0.11062592490127024,0.040156528611186855,0.26354558958022,0.17285699008984282,-0.01756042101242375,0.15954347832194582,0.37411785337425724
,-0.02311162194060792,0.22417269378473886,0.04068965752659136,0.15119733636477847,-0.3152535668746632,-0.32938917883631197,0.25010661591199823,-0.0412642502455074,-0.06215173325688139,0.13378246658471857,-0.02701305319994241,0.0797623974836009,-0.2379292468786027,0.5867328966416056
,0.10290047977284199,0.18037931649282332,0.10461650558475828,-0.2771794711597512,-0.5302488065797013,0.02610656702576265,0.14845518726502424,0.027794176947612742,-0.2228919127117524,0.22401105596825324,0.12044325709409624,-0.012698757214573636,-0.26585340184094747,0.3345042597825263
,-0.15690484837037086,0.18006109674447568,-0.06235832263786051,-0.4652679689366552,-0.233562349176183,0.06668246218757012,0.06347981765051952,0.11408702831226351,-0.1533222142665677,0.33507198119264303,0.15084347613076377,0.0766672241732566,-0.12272686195272647,0.2800370588283988
,-0.028080657869465946,0.38515434881234606,-0.01912837716998884,-0.13344257661603975,-0.2891750635251041,0.059377580282707905,0.13986386391846362,0.21802012511876426,-0.21858896584786208,0.21529287152155177,0.47833412350069043,-0.04169910378706375,-0.10721657623291249,0.06902011139511917
,0.27607297686002774,0.08635425646322209,0.14790243221285354,-0.16125865626662886,-0.09543370864603531,0.08127376590077787,0.0994054534806264,0.206910618447271,-0.1379558967969579,0.21619107667776188,0.3948980763887659,-0.08411089750204188,-0.11665968337298853,-0.11784309004750718
,0.18830558589962273,-0.03833224621356287,0.16556495122143514,-0.08458315556379122,0.07849688854029775,-0.020084350008780418,-0.05596580099637647,0.2971118795311359,-0.09765593655634965,-0.04156872775676106,0.4340650012719691,0.011629203735326804,0.138397115768107,0.0869443353036519
,-0.10657660151957635,0.0010157205119069926,0.18627012943242788,0.0860792231955631,0.012157656932360164,-0.11830463722679699,-0.12640397556483457,-0.10386492296882957,-0.11070443662958429,0.25099169592263576,0.08290357279445736,0.10353321101375157,-0.132280936284132,0.14682306701549525
,-0.019358410801206278,-0.11082016484663242,0.3264270564454814,0.032415593437941745,-0.12519405171924425,-0.06570235863560624,0.006157643512476262,-0.30607712176055535,-0.17712692798574808,0.13248455999919992,-0.12893285183793607,0.11966314471291456,-0.2110940481162959,0.06557641389058554
,-0.12863720536276607,-0.12708181291794154,0.24514556510292063,-0.2663332358920185,-0.056183548971868905,-0.003083418800771095,-0.04816484040258132,-0.21166739151272296,-0.07716641777659325,0.3437015954327245,-0.316412069540344,0.20215439991476525,-0.2566384735481239,0.08680254375755458
,-0.07452350289880874,0.01578341842754911,0.03292785660255632,-0.644007004137413,-0.22211599998513587,0.007511459177230052,-0.0563750167962267,0.018123176899772213,-0.1190896838336263,0.49709411651374086,-0.14331683040306362,-0.08007401954337688,-0.16310538435572625,0.08376151356222344
,0.16257643873630329,0.27726916856095724,0.19237984228907704,-0.10066501051864855,-0.3143520356567703,0.23845854651890433,0.04131543343789543,-0.08348471923273035,-0.17623921851048283,0.1844635622510976,-0.1525814263373767,-0.20959919263471702,0.011155367003754958,-0.3004767905935512
,0.3463255986099386,-0.009141062618525455,0.08155064381752582,0.49879537260985274,-0.16402089204564435,0.04207410859896866,-0.13958613688286045,-0.04497267926737411,-0.22736415890466344,0.16478623020140984,0.03338690872965218,-0.03830922737288143,0.04802655236528204,-0.6586108599972428
,0.14647559500433271,-0.03749259344388683,-0.024379743637155775,-0.17428409015952942,-0.09434167678279667,-0.1658050655658917,-0.17938647858348855,0.016390880741760348,-0.15129191396866698,0.26491102942068573,0.3559381620752319,-0.07162839899610746,-0.0200971622632229,-0.6785210976205432
,-0.17669811609376934,0.1987679330425493,-0.10499467390898769,-0.04042390212045385,-0.21346830171578646,-0.053170933046408665,-0.10854797595696307,-0.020102130586327073,0.019267976802232956,0.16630261004644445,0.1797236462349285,-0.19723344858006092,-0.1124517874611373,-0.28797830943053204
,-0.04501560187908068,0.04616975456536071,-0.08190779379853022,0.1834362963910013,-0.166525317644365,-0.15672077993650152,-0.05738002883916042,-0.08092067447929774,-0.03093289839910511,0.27362007391267434,0.24673487730089175,-0.061458728035614515,-0.06517995140006932,-0.08260902969463396
,-0.040263461317057325,-0.15350211723109788,0.09672958185458955,-0.06280762705930766,-0.018389436565229334,0.0028167056531718084,-0.15143056549377043,-0.053939233402987806,-0.09171935630209986,0.3186219195945215,0.43209710120643335,0.15246874621689094,0.3945844656708257,0.03559420392214158
,-0.13700835781076512,-0.20614506454386608,0.13841023706347644,-0.03370347889572176,-0.0888792400738796,0.16516774800561135,-0.26350034922766824,-0.0639787681121321,-0.13347461956524595,-0.02037766704668704,0.4773639157743037,0.017673967797979105,0.625816479287287,0.1706827791974082
,-0.22535027613050887,0.03403836484182854,0.0146653417041621,-0.7059787250057524,-0.21249574356881468,-0.08108881657381072,-0.1260895484170902,-0.0715225656965837,-0.11966109319590025,-0.010148689810108556,0.26203698527932645,-0.0462761195861814,0.6347870114468687,0.06792751083284604
,0.09802880685494617,-0.24430472135744843,0.023371416593321002,-0.5716341968477883,-0.33768772573786443,-0.2015407337643601,-0.09948743266812171,0.07125208558958433,0.019942051072837103,-0.12735239990191916,-0.03146790494342021,0.019953835205841753,0.17197126777034308,0.06295385551778769
,0.46794099293095354,-0.07979337737206305,0.19868304877577114,-0.14381268251151394,-0.26530797270784706,-0.0015491788473858325,0.11375310385456106,0.31657855838147125,0.15133966007093508,-0.15564575980659165,0.14162415109641302,-0.044633905290114156,0.06435970472500348,0.007458909404157074
,0.4537300341407707,-0.017312287620110407,0.1430932154489561,-0.42530400955763076,-0.1548330543545595,-0.13238009975629367,0.1172210117324532,0.1310888936029002,-0.08748302115536917,0.18447844148851922,0.04065154414922356,-0.12961665264245772,0.10144010164291828,0.393021273375116
,0.11270624027942175,0.04553642342345991,0.09127951832886645,-0.246623878906662,-0.011563968601061183,-0.20825483536101386,0.1378044125571224,0.021706990819146562,-0.2642128489494221,-0.22957498539296434,0.022612579204589204,0.022822881450253272,0.12151852120318395,0.35456529805563475
,-0.12657524366623363,0.06349426412509679,0.32504013248329194,-0.035648802437930685,-0.13095979040915523,-0.08051675815027258,-0.07310907141178571,0.22181765280446186,-0.027064475926941653,0.06928094330488387,0.34882344356225686,0.014698449328626573,0.06448111451126622,0.2470658296839744
,0.051795907027639566,-0.08284311674308621,0.07149862992080921,0.3531341302167844,-0.046119449395124495,-0.15072585602554892,-0.13211922430120715,0.13336785694804446,0.12199937251912549,0.6132456444182179,0.31546317752940356,-0.017608190091593853,0.35079330086736193,0.14449588124060436
,-0.1949292158167518,0.2205431259935759,-0.16514626062778182,-0.022386832198282382,-0.17648179879958276,-0.3076107637194614,-0.12073710277383694,-0.05464444216510129,0.025130881982766355,0.1528841997194469,0.3562171771148145,0.017842524157441135,0.4314075316903053,0.0699514693630174
