event,eeg.af3,eeg.f7,eeg.f3,eeg.fc5,eeg.t7,eeg.p7,eeg.o1,eeg.o2,eeg.p8,eeg.t8,eeg.fc6,eeg.f4,eeg.f8,eeg.af4
,0.586500347086643,0.36641829877642457,0.0881574717027408,1.8012869937817768,0.3754938595032973,-0.17954879904977367,-0.06072120692202653,-0.09618203967211932,0.0024382937094702584,-0.15668165496369274,-0.07277933161091028,0.16250564719115274,0.2566685215255851,-0.43688693015186836
,0.4487779400977152,0.1865071991616717,0.13352406635903982,1.4486103700761885,0.2406934828723005,0.09695198170000538,-0.024699251935144863,-0.13173632561610757,0.05920994537326348,0.043021321447626354,0.1721430563630897,0.1623387215886743,0.2792268978138985,-0.517884668091191
,0.304581549149387,-0.17460635575687344,0.1944219540533592,0.3681290768848592,-0.06606708553580985,-0.04460924769701281,-0.022760175323069988,-0.15469862949230292,-0.2154036041479246,0.34995455055789093,-0.08482258262974418,-0.121083434882778,-0.17804808638492728,-0.4368636953940023
,0.32924379635613776,-0.1760742767531777,0.10114376628499305,0.17101942984940155,-0.08645051818528769,-0.13281254631791065,0.029768566621961853,-0.3702168237117392,-0.3344966736872661,0.23395390742645347,-0.3305123408122791,-0.3496084603856531,-0.1949572734523642,-0.3978039891881127
,0.6431329896385828,-0.013938554064681299,-0.07983273787527724,0.7280363272042778,-0.058014084539013126,-0.127616042054183,0.022201851363269225,-0.11074961200142423,-0.19367101654499416,0.07705196025898127,0.028533396467714522,-0.15709471281950405,-0.31423103891746557,-0.36132903934486815
,0.8141954072042059,0.3023188723194657,0.11388683586173003,1.191765522453136,0.11424738129252825,0.03350573236468527,0.015263964370290595,-0.19192607099852266,-0.25315595260418833,0.12381500296460869,-0.08607252902429965,0.08965622628052079,-0.10779887627384621,-0.21685886701657972
,0.690229469777841,0.3177839304319274,0.18201583439208976,0.9635418494995345,0.16834059370048715,-0.01286773638674906,-0.06643213191206508,-0.17550890996720334,-0.2565218340551222,-0.14040927092045447,0.574196433667559,0.3416903218131553,0.20445528310097225,-0.5380836627358548
,0.408169546637077,0.5152348041930495,0.27146463421803024,0.5944579302027275,-0.34428060847910885,0.01017372472424477,-0.18743384320662482,-0.11525386866045599,-0.21044891516793324,0.09267227611806857,0.7158459792769948,0.060132504498811606,-0.19681548747049218,-0.7130075381698708
,0.2059925291776967,0.09068444934555725,-0.006578591613709095,0.5954379159208358,-0.4980337883797332,-0.2028453237952203,-0.1860902774798041,0.04434337640080945,0.008010194672254101,0.16750043945578777,0.4393981532071569,-0.04576361386809032,-0.3661950857785726,-0.4128047476872981
,0.13410092328532663,-0.0021590095761814883,-0.11606151363402638,0.7651091091669063,-0.3504066507981474,-0.37927144349994135,-0.2884316592275946,0.15137436260922793,-0.07029778544722821,0.07283776964306446,0.4399828155132085,0.08534953999347465,-0.025313832196536375,-0.5435881796324641
,0.4770823839382841,0.16335845439452307,-0.28447373140102733,1.0245166923059497,-0.16417362393917448,-0.19284700992934675,-0.3627140950447008,-0.09448560133626563,-0.2616901384331274,0.25586446352660863,0.11313393965195898,-0.11103993914982825,0.14978736581821503,-0.6935843048095085
,0.25259842880839645,-0.2145467641288016,-0.025349949298155608,0.5173449474266616,-0.035838517506117044,0.05745578964796633,-0.17599357255240825,-0.007453806880615904,0.06176723806848759,0.48355161964287974,0.321057487770117,-0.16460252615847976,0.39129846584472766,-0.5713388095386054
,0.23222125544701389,-0.23987877466268634,0.2734385556239058,0.422242901422182,0.12679681784997,-0.2500646203219029,-0.2533394831140395,0.002013133057714117,0.1862486297291426,0.5020955039127926,0.4299070317190228,-0.13398392963461422,0.06112140621431973,-0.8712416380661422
,0.46056412667149754,-0.4424329159328966,0.33100375628028555,0.5003874508427996,-0.08605331946084327,-0.37024697285983393,-0.2248928490990286,-0.013111389885740336,0.04632412342364766,0.448418363020125,0.64713163103569,-0.021139529998546517,-0.13435357667234973,-0.5312020592360924
,0.1968838747598613,-0.33078503416911814,0.14932349814599563,0.8577385789419835,-0.20372084661571976,-0.048286971164295533,-0.02025671859502389,0.013793564570175106,0.2352269475803929,0.33218494047552805,0.6475521760079151,0.00032824869309440593,-0.05900372415008618,-0.5919319776121008
,0.2358304411641303,-0.1498102373966771,-0.022881954060287837,1.2451456514460926,0.1701119973200079,-0.04505509522078863,-0.0493131606854921,0.14125420814506906,0.1968149146068628,0.023472126612028753,0.40530524026212617,-0.18331479670928658,0.14253514359576627,-0.7821490269118105
,0.2803872391706002,0.018528077981299282,0.09468206376591744,0.9791833936946366,0.17031365269406318,-0.12751882321723362,0.009128872678566357,0.2699315384720497,-0.13576975700906002,-0.23046703735849455,0.39254272963706793,-0.09479216341438167,0.23679468577671403,-0.607648346431061
,0.7460533665532675,-0.30667310971718087,0.23547264457062578,0.31840341611401074,-0.5172376457308613,-0.2236079412391194,-0.02605210330826627,0.09159032116163801,-0.25710797029960514,-0.08970586316095228,-0.18297503594964182,-0.03509896645431517,0.2903977201073819,-0.7161739836188885
,0.934844114459414,-0.5008503064898479,0.16049201072028704,0.8404855562722139,-0.5130602482733553,-0.29063896178139803,0.09868424582326976,0.099550135273669,0.014551747807590054,0.11600952337149471,0.033607481174678,-0.035522443827792585,0.22541115756308866,-0.9900875714401133
,0.6104276937648724,-0.543792423587241,0.021282810728895707,0.6588344963769434,0.13595484490454265,-0.3184894774382042,0.004934869445794259,0.24276975673503542,-0.08756777393537302,-0.11112513053303759,0.28625805013102573,0.0653198254737624,0.14259922717957887,-0.43866887744863664
,0.16243843072827965,-0.5405120544660049,-0.06369526107364748,0.5285414799607981,0.27601234787999906,-0.2310714250694758,-0.14222281261631117,0.04614170086252991,-0.19591449845999281,-0.27272782355627123,0.2829865091269059,-0.0780919815049174,0.3638474277262665,0.004984229326142124
,-0.08016869968748741,-0.4031756884217254,-0.2075153688967849,0.7141543947420215,0.28293363326155224,-0.1542890666689732,-0.18687932777938815,0.06708364187896254,-0.03713484689954791,-0.28253512410143755,0.20559964888736074,-0.2266593287370292,0.21582730107956655,-0.2046549349969877
,0.026137083043448837,-0.35502858395073067,-0.2258466785830004,1.1277349780669477,-0.0969192897349576,0.06561903929423583,-0.16861103754909282,-0.08087254538623233,-0.07798176981997501,-0.07482497799513149,0.5746630946669324,-0.22493859586346748,0.12921461734463535,-0.4017588057235964
,-0.0943193336213799,-0.2876331962038151,-0.08421244695885964,1.2311505778957657,0.050194864301080236,0.06799776003287238,-0.058736741671157756,-0.19126688401267525,0.06092471243446273,0.061395141743581426,0.38787944900329857,-0.03635443506760175,0.446093213836545,-0.5155556611100727
,0.42987893075824934,-0.4147804234786333,-0.0783810707673288,0.8533927506783966,0.21342260039787114,0.004282766064297971,-0.11287858433602228,-0.25094611222638213,0.025228738630625927,0.23934850061965365,0.4810431520895359,0.09188507081812523,0.18498055163863222,-0.2796154631030739
,0.4753653027294485,-0.014773588231920867,-0.2197907997166386,0.3105576677010868,-0.17583935132116027,0.19199199300750983,-0.14580325770443017,-0.21606185965132116,0.037507431200238146,0.42976965630161085,1.005954406233481,0.10650784377648906,0.08970401942417482,0.29252513717056344
,0.48245997235987287,0.032868267178928406,-0.1132022526982478,-0.2104221358154895,-0.3313250067808537,0.037464235660579125,-0.11325497419931664,-0.24489556224470513,-0.08992707376030784,0.46661708752298164,0.8795804265330159,0.14715806406327409,0.07551681217572251,-0.08995135207024178
,0.44451686766114956,-0.11062115672384765,-0.059304257723656,-0.3113064524871616,-0.33978754715962495,-0.19879557149970192,-0.28762166445112974,-0.5258082269993807,-0.04204379916110799,0.06131604016042783,0.6859525320559496,-0.05160143669288481,0.2826502065436343,-0.8299336124574008
,0.25839131997382736,-0.17091329558968454,-0.03310366041447372,0.5602730500658681,-0.4115701178381866,-0.031594297822265464,-0.17028854463043872,-0.47030973857722874,0.1928365056189163,0.0007612444334224223,0.11147325621289753,-0.19570522547061647,0.589713779894488,-0.7943383367465788
,-0.2606696305104135,-0.2172413018763037,0.11469098061588234,0.6356376123706221,-0.6180394607531073,-0.20665752488247374,-0.48270213844036647,-0.4255801457210414,-0.09377548958307484,0.11184843941447878,-0.18079102846446427,-0.19965912672177175,0.09701917960988486,-0.9363656384425882
,-0.03162937473848781,-0.06865040876882286,0.14644294650096942,0.6267357349618343,-0.391998935735308,-0.037839150604515245,-0.344243970509827,-0.09568182184840676,-0.08657180314501554,0.13885249240212952,0.1665587955284079,0.03447124581145895,0.07357335706998526,-0.7956653894168941
,0.025731459435514397,-0.027813635233487424,0.09105594376392215,0.7763241979563862,-0.3691556459849123,0.0786082093141126,-0.015621986575118658,0.12272458849221773,-0.11911980075538062,0.12929766112214525,0.8233080711219676,0.107128124130589,0.04377151027107087,-0.06410403554712892
,0.09880550003380137,0.1502347828314806,-0.012121618957616844,0.8977029685324786,-0.15242829436241948,-0.15190415257211054,0.05445193401772205,0.22409397476570198,-0.10676925833006937,-0.057381471573423284,0.663365727774614,-0.1291894285763652,0.02866015776962274,-0.35342653973770416
,0.6291167404529581,0.44544547395217704,-0.09285954080830158,1.2205117678498372,0.06890827911548253,-0.3576819552090464,0.006202954040145392,0.2250156123458563,-0.04225897167539607,-0.08434804584939175,0.5678047815924564,-0.08795362414118246,0.35382291762781365,-0.9139642618931767
,0.1411725758365489,0.5946462307569496,-0.10214408260935688,0.46468425286312676,0.22204103360204952,-0.288984843876823,-0.13994112887128854,0.33165963948000005,-0.08957749724167254,-0.26928573334398515,0.458711086937788,0.13712018748100654,0.3335780044502699,-0.7098406784849612
,0.22255899823778633,0.36768537965082104,0.0052324522137365366,0.5201388504376777,0.36084041428936514,-0.0790708202901581,-0.07223542045670488,0.33412426812825374,0.1427680347317886,-0.5658386538924965,0.12990445005307832,-0.0675203059521981,0.3992156950493754,-0.3667016014684
,0.46391863585378207,0.5326205357227091,-0.005232613736363645,0.9262283253646909,-0.2180208071343879,-0.09764870338314881,0.19691163958091992,-0.008620530947505829,0.12604404187269916,-0.12853277483790004,0.2646680503076358,-0.06632351618086814,0.12022568868249546,-0.7541909721733442
,0.20921299091565201,0.34365729797562883,0.03549941704504514,0.7889144646242865,-0.38137361861194335,-0.008108319156881936,-0.1489236232031435,-0.35648692189751513,-0.04891900461972205,0.35902930368207736,0.7324625102113391,-0.019493809139082698,-0.11063365320171822,-0.7971278315043091
,0.11225588495011034,-0.12975376483655657,0.04011818536063547,0.9051104533013058,-0.06311137767445187,-0.024958674709538765,-0.3630355494655823,-0.3237465107921085,-0.05890407909195214,-0.10257453882300979,0.8600135640570227,-0.06710542377108528,0.01235574531177503,-0.3254021390606946
,-0.0766165614585434,-0.07483241914914494,0.017109638250347132,0.833524437123374,-0.06760525711015337,-0.2799028201567595,-0.1909736844131427,0.05074443185317869,0.0067387232273700155,-0.15493488340819975,0.742122216080605,-0.03307042813236352,0.02725679817494003,-0.32728131977281055
,-0.1721013779295223,0.06737127182284995,-0.16209462688615478,0.5528306911965654,-0.18665643817362118,-0.3446715348079278,-0.1619384676345893,0.17550088153441248,-0.023753160376726184,0.02875825851516994,0.6070177742492051,0.17839349373615418,0.038537930375704486,-0.2959635980650682
,-0.022051653020908387,-0.09014820899269532,-0.21659693610926758,0.9690716200375867,-0.04924123443682452,-0.18210032799899906,0.0006614963835938027,0.09804988214803491,-0.0482751750958758,-0.022945020925494768,0.8437772244939188,-0.08326829550181976,-0.04682684053617202,-0.617829907545599
,0.46855356100453854,-0.20405044614463302,-0.03725704113613926,0.3408419761942114,0.07456589844399994,-0.03475702932638233,-0.12187698808436821,-0.09388723844556936,-0.036943258258026454,-0.11491312226349279,0.8636399144100162,-0.03034177056704535,-0.014021461286697222,-0.31879138533589507
,0.3352067556999372,-0.20409150710615617,-0.09455385779888116,-0.07685105631469583,0.03978281526045727,-0.30406523261463875,-0.13531906462699775,0.015193094077560603,-0.20975499963755842,0.017631971291119482,0.5693866337708066,-0.06650795944110313,-0.4981069956694296,-0.41426974606818634
,-0.03166427715558667,-0.8097944816174254,-0.15210394910484645,-0.44368965714606995,-0.09212210606858527,-0.18813086400258033,-0.2117013622180229,0.23972698352587574,-0.13281716202380336,-0.18175996268512196,-0.2621687440880931,-0.14143076480196445,-0.672799682499262,-0.6341435214468497
,-0.03068137326564773,-0.7905549364524108,0.22180528338014566,-0.3587997474168918,-0.3247379889233395,-0.1383739917452332,-0.1511773175132383,0.023797338543555556,0.21408670812787847,-0.3114348924593692,-0.7429427319802593,0.010903129251343208,-0.6005931105571888,-0.34780273186137717
,-0.22271961160491663,-0.5624660915454576,0.057545278441513255,-1.0002049207870685,-0.5293320021957602,-0.1877587511400182,0.01896405637050821,-0.08243333058778683,-0.02844921754364125,-0.3475987240060398,-0.5687549353005464,0.09274637149870366,-0.4436820555817229,-0.7906602467110974
,-0.5250116974812757,-0.669802009874185,-0.17718387200477131,-1.4088323771225806,-0.6297816752017014,-0.12019180778020497,0.09744778732256386,0.10003619711572125,-0.10702545523615678,0.07523441467480196,-0.9689507425891085,-0.13371031837386477,-0.7431825333172454,-1.1571841857120773
,-0.2857988902905191,-0.4177814605801013,-0.18170942176975932,-1.521185021681434,-0.32270479074909647,-0.15036289420477572,0.08478554173278952,0.16678658881164865,0.217669316748385,0.2662908667723523,-0.7244706839464928,-0.2100750694086129,-0.7329550202281898,-1.1457097308152249
,0.2993924134205122,-0.9371344340849854,0.005962954675743085,-1.1865435128298345,-0.6403583165475799,-0.3090823743056251,-0.294707179208912,-0.07576535828845148,0.05477402878314377,0.3353101765925486,-0.5649893100923596,-0.09630988325774979,-0.6424108131353118,-0.9424122284356281
,0.3772133712980849,-0.924908546815495,-0.017175010739735513,-0.6554908078311559,-0.4793237596839558,-0.07463340755455915,-0.5187168712085017,-0.2452487786870555,-0.2838741886789221,0.2243741699911856,-0.762341012929397,-0.34535137530314525,0.011803165878022276,-0.570746673126957
,-0.017178166075736044,-0.8128242650346302,0.07423398081625704,-0.17261911574572938,-0.432484274321808,0.10077550492284322,-0.2322040711718739,-0.07852757271170827,-0.3258272686275388,0.2982571070212827,-0.483684137706385,-0.1669782889001905,0.32013710686482166,-0.5698150047708826
,-0.00230357226452131,-0.6862807182385489,0.158197813228212,-0.9100463305989409,-0.23943823240279366,-0.0026001946697491816,-0.12093502002110637,0.009359294813398105,-0.03586138415602341,0.48412367302702697,-0.5001210168278863,-0.05289437389977247,-0.04919234570932217,-0.326504191211238
,-0.07546799395415264,-0.31074777640745554,0.18559752913865013,-0.593452540303325,-0.1530222564950385,-0.2003559818086943,-0.09769139201948249,0.02783568856076864,0.3105143545834624,0.4999630795245146,-0.3802104531704283,0.024149930065062206,-0.013888102430001839,-0.13300253951787586
,0.058661421324554805,0.018759780831373002,0.12090359860348139,0.987768030026279,0.25511665325980887,-0.172351777845141,0.08339865611806999,0.12255358064475864,0.1313329756177084,0.3132182639945043,0.10391732336211332,-0.05076859403209201,0.0018153498892300444,-0.18417873785010094
,0.28568001522665765,-0.29277208714223774,0.189017772967233,0.3796673360125496,-0.23823614924951123,-0.2398188566694619,-0.02604811348149873,0.07729026679146696,-0.20920447561913008,-0.11607065669205653,-0.21954846008057594,0.05347348110644755,-0.7457113213623373,-0.411634038127594
,0.31623229954192994,-0.20256809130992354,0.0869818223207455,-0.2781630952617047,-0.27762337197549714,-0.09348378603342775,0.033118570523530594,0.10714262556786147,-0.22758418384421442,-0.26237977044357713,-0.26148734500209236,-0.013321944061702486,-1.1207415427164613,-0.593593068192699
,0.2383752243202851,-0.08066853520966462,-0.06985887289116349,0.014560161653606218,-0.2470025927707409,-0.32591810039342667,0.05121495768886861,-0.07343807499385879,0.033800440895259874,-0.2349015313669383,-0.15234013919604777,-0.24198603519647088,-0.753138177851509,-0.2923259707905184
,0.39786791781130276,-0.2524457095932035,-0.05891859142710738,0.3571036277760866,0.038615636860882215,-0.316046382725262,-0.05379097026141517,-0.2504081443473343,0.15856853680589847,-0.2646588384501756,-0.018932801073817573,-0.19317014979723163,-0.11662812376798738,0.06481155149113481
,0.11654319769587568,-0.21387446527085444,-0.029379125423198083,0.8197156486680722,-0.08114004589676453,-0.08267803575841802,-0.001172770551303534,0.014554208755050249,-0.031387314839202665,0.005202531086573872,-0.09446070119976595,0.012014893884646983,0.09177071485155723,-0.16794329619236037
,0.1848998675986188,-0.3515451903801354,0.023996108449980944,1.1600502992249602,-0.14956769189963054,-0.13842923221228537,-0.14675796699760363,0.09020922967262025,-0.17368430454965397,0.30743589771083346,-0.39872082580617435,0.2702403680591792,0.15004397331218416,-0.18285767645010945
,0.6636286898363418,-0.4874323691832065,0.055261627467242634,0.7748724767495774,-0.1346042981549729,-0.08333085530982719,-0.4422091030746011,-0.08054735246018126,0.08083517650428891,0.15910171604780804,-0.22892876088008982,0.17349513204607592,0.1859908849113899,0.17816549012735372
,0.8220517541453506,-0.3619022181975074,0.038651414655025654,0.8075067581285561,-0.25910763699452327,-0.005615548974923808,-0.27618315283666633,0.0560345414983377,-0.015196575192755418,0.48418966676005054,-0.6829815879909192,0.06710809075875579,-0.2699690927457048,-0.1360349104436585
,0.5186343582135352,-0.20042702128699477,-0.062120251871799724,0.7407085821871914,-0.1726909391248436,-0.12106723500650965,-0.08152476062310915,-0.00886943434419168,-0.025390336348089126,0.4129010389140272,-0.6342603733704015,-0.1961093427551147,-0.4985718827904391,-0.35321461123980985
,0.37906601690125824,-0.5680057470613251,-0.015055587519805238,0.4474558278862875,-0.00508166703848583,-0.07189636507172506,0.03314801179272004,0.024530181668009007,-0.011332003050135273,0.22015369626048784,-0.06832548525741768,-0.3557737844615064,-0.28191596140909214,-0.36172935100119746
,0.49998192963265714,-0.2979661316015476,0.13887926896322295,-0.05949371006046334,-0.09583401774529693,-0.13638359858482524,0.02197448717482605,0.17505916053906256,0.058270256230544215,0.47128210175010915,-0.6156137105835391,-0.10546638105861736,-0.09038246024897925,-0.576460717307822
,0.6386848276890053,0.1045771277584225,0.0243207694580261,-0.5490579496886088,0.08488576456958631,-0.08919862796230332,-0.016244246609938024,0.28860114520973607,-0.0814484638112266,0.5290887802626318,-0.39500087015044455,0.04136485068759686,-0.26036201876377096,-0.6046496340682593
,0.846928089044972,-0.1745898089508212,0.05632200073749079,-0.2773306348381034,-0.1556860658808705,-0.1496010125145549,-0.08630162312190885,0.2825797103682861,-0.04493724260506762,0.026724672524743847,0.17872754445671166,-0.10871468623685604,-0.27484816062818973,-0.32522417268688086
,0.5580485019740113,-0.16351211802818158,-0.049827382395126386,-0.2191867877535576,0.06787236493776048,-0.36439480395630036,-0.2144557093557209,0.12690933883066066,-0.025455391470789752,0.09213427325006623,0.05161885078150148,-0.057524283085600626,-0.2046061699189816,-0.17249807244242718
,0.12791660783394804,-0.16670844944138982,0.04684973220448825,-0.8127357268717675,0.23413051931101544,-0.3350117634406759,-0.1941192783576103,0.17671572072165098,-0.09705177629127552,0.3031065326798898,-0.05750561762546059,-0.020901711184906954,-0.4369896508821352,-0.39210592291358065
,-0.2473190436314971,-0.0935002572628212,0.08260209114732112,-0.5107157932225035,0.07790097119846709,0.032459123754899566,0.10011992456619369,0.17646226074333132,-0.15370763570213822,0.3609475431919477,0.4432423386948201,0.08646141336663746,-0.39435902929453603,0.017066168108862946
,-0.381990847584584,-0.38609605575839034,-0.029735407811082377,0.0878177868170024,0.14392534927750758,-0.2489041136902029,0.15704511133125892,-0.06764370613838784,-0.029525078691960013,0.7196203855568911,0.6031145848636451,0.07331498796234877,-0.4562326580470728,0.17345359731146548
,-0.3162462141781437,-0.3564603353368977,-0.3010908338745182,0.14895590649594492,0.1267836399860961,-0.293872807652162,0.1256139083590701,-0.13485439239380811,-0.051433404839066964,0.7221667263217745,0.28852606349132215,0.021870152222442055,0.015527961697096531,0.02163511137756447
,0.2035545335530999,-0.34298309434673346,-0.20649379715793162,0.7582298913564031,0.02969045500497037,0.002297505867603191,-0.004287703168041668,-0.17277470979066034,-0.11207240855400098,0.35517661864104494,0.3612563165322457,-0.020732034440639126,-0.1014853710561661,-0.34028952944819535
,0.4343432997257791,-0.3176119371996556,-0.198885484265074,-0.018488598505467503,-0.06384296113814852,0.3756338688865441,-0.21551127845241502,-0.13812050170377643,0.24732123122215618,0.04025724229555606,0.09767837894197498,-0.0046557006560496925,-0.21290682318475795,-0.5477285157506137
,0.018077322973718682,-0.08340363767233816,-0.15051526797270384,0.26744692127648456,-0.1107814427955267,0.23753947158085723,-0.5885370028415434,0.09343049425410561,0.14984949042347911,0.12699558209971856,0.3617008013789082,-0.10177076168718774,0.08783531162752528,-0.090516091752156
,-0.2659072601870224,0.04671200379492172,-0.03660819086618057,0.3248125442174598,0.00799306275622373,0.267881796233619,-0.5722691499247697,0.28376088052310294,-0.12974873415455754,-0.05898248715122579,0.44645986669339444,-0.09345717822554903,-0.07503344093296488,0.3157127706343985
,0.13401317266694307,0.07170500007018948,0.2237550853091897,0.05772207828506256,-0.16352398054783915,0.29319601468039747,-0.05434507287518036,0.13641689270225688,-0.22623717055131667,0.05178929130814367,0.11965758106224926,-0.22004092170670103,-0.4222576039495614,0.19573905850164386
,0.5842047391175922,-0.25793412938780463,0.2535513593920048,-0.461276594802089,-0.1317029505927844,0.029004561517103993,-0.17791571635843076,-0.0550277835023862,-0.3369808950846489,0.10942131337920573,0.06479603103607569,-0.213742774076858,-0.2619967355676346,-0.24964907526005886
,0.3518212968021298,-0.4318440811082918,0.08674723786358245,-0.2394881063945562,-0.06513018500887495,-0.15681715591655285,-0.13626800324220836,-0.03183857820037803,-0.2273246635077711,0.05652098253852017,0.3135518726087954,-0.13209158721481984,-0.3564205657534939,-0.3210304604510565
,0.5901517933067807,-0.40800494144817917,-0.07821306827460905,-0.7951733954034677,-0.41152124707179893,-0.253039312328275,-0.34705568729542424,0.16392622676142501,-0.2797604415149079,0.21769513958757836,-0.20524239992067106,-0.14119074236897844,-0.5667040754173267,-0.10534437267328496
,0.2761335340968565,-0.014236939267085831,-0.17477024066821442,-1.2754930330001233,-0.3316836720653674,-0.33275804713438045,-0.3886744082759939,0.14446971808780726,-0.07689984509472493,-0.25807091524757986,-0.7601435495987823,-0.046052218534263833,-0.5689104727066163,0.17896655535763967
,0.20769337203717927,-0.22246875461762342,-0.20292754674065136,-0.40840208958877877,-0.06801303980272358,-0.38025581384164536,-0.39070550082908373,-0.028254329418731263,-0.12475257210793289,-0.2106412120842492,-0.29917001139313093,-0.10394195579663314,-0.632084938913644,-0.03761558253876472
,-0.07650111642303438,-0.1755438573429015,-0.08325606178911676,-0.7079153006689477,-0.17974019613022674,-0.10401012002647368,-0.09687106216852727,0.046434248647977114,-0.05075469666159626,0.2490894270409567,0.4267404525963887,0.05455136260846123,-0.2567655981864811,-0.04594417060468737
,-0.13437678538849046,-0.5683165962949581,-0.006370223690306272,-0.7769157298461262,0.01171522124544287,-0.00776116462214585,-0.18689415577905058,-0.04580817985715997,-0.28136329657260584,0.21900528534695388,0.2692695411465015,0.15132215495293155,0.22244003159932146,0.07228112686913997
,0.2867240138877152,-0.444947629455423,0.049119157212589255,-0.2519083290463864,0.2927401412011201,0.0031286827909375596,-0.08812563097817684,-0.42117734062523116,-0.11667339762430738,0.031222343300146588,0.286045079081316,-0.12275190941143412,0.3966893789331873,-0.032329421979525534
,0.3163307611837727,-0.20132859303726316,-0.08912756817839733,-0.13120924568459444,0.12645521055703907,-0.06705751187847009,0.04217075020701921,-0.34811881788792187,0.05022220340020741,0.12552110238574707,0.2979043658141716,-0.23468208014902894,0.29387628260949816,-0.09224642886624264
,0.1483867393914554,-0.2024205472309465,-0.061189608716910884,-0.3619701007388182,-0.5025698322500447,-0.09547292882886754,-0.04953155642433407,-0.1168569265419979,-0.10190951097849008,0.12350056990737827,0.03506838138037209,-0.17793727735353346,-0.17209015351711712,-0.03864079110230364
,0.18401932719418185,-0.4507220314904236,0.2416766635706557,-0.010727138421515483,-0.8317217523273601,-0.003518546848790039,-0.12616605497871003,-0.06957582312119477,-0.10070579476339751,0.23902146019032164,0.17783122225349565,-0.001930256906373453,-0.3107892142237794,-0.01536292563687577
,0.3620972302414417,-0.27664681858173434,0.020711864456786078,0.9593447393041673,-0.44606348820362024,0.06148548692355444,-0.0568239102121449,-0.289651183810175,0.028601914265117788,0.44545032784968264,0.520319971632707,0.10210636365221787,0.23206474700188248,-0.33295675415546505
,-0.02578496964126731,-0.4266378991394267,-0.15744099375768522,0.0830032400830951,0.3247755806611151,-0.0327225646126219,-0.0799003226542284,-0.62321017260298,-0.18977144996205875,0.22085744258574833,0.23809855051827694,-0.03083367997722901,-0.2770675380036323,-0.026855901199132563
,0.15473871558687713,-0.6681086813182994,-0.13178609250970635,-0.8144313948721388,0.11945080376011505,-0.16617392499109762,-0.03467182866334311,-0.34500732481198043,-0.058609012268962035,-0.11294474329186839,-0.5338272376040467,0.04319511807598647,-0.43795084405646234,0.40684187855903525
,-0.27383701850330694,-0.8641651512130829,-0.13564258080143557,-1.1548512794721053,0.04851120815364337,-0.3319298173929429,0.09086386314603605,0.039879616494563064,0.03860793477688888,0.10070474823398345,-0.46057117512422274,-0.07004992645379425,-0.3830570312567192,-0.9926506593885838
,-0.36576516959061184,-0.9174654405464218,-0.21919308582190508,-0.6051580152994199,-0.3276955409559793,-0.3607662180478561,0.012936545653360882,-0.6295000281184573,-0.062456038714167744,-0.24673928571091994,-0.2584428509466306,-0.280508503912693,-0.2934635293257779,-1.183041640399991
,-0.051800484696568554,-0.5438871778357437,-0.034633776499925974,-0.9428210430393821,-0.34193617692239336,-0.4315064974035257,-0.11497522524742643,-0.9359149670325799,-0.04734056124348553,-0.32865575590791307,-0.2247578508011435,-0.2673762968260101,-0.15231151518013486,-0.7091250497650484
,-0.1493410646901873,-0.1286030575797316,-0.16512970396073684,-0.90376202647755,-0.0863679866841836,-0.3510682742240873,-0.24452410128021798,-0.7116355088584289,-0.22892128790468355,-0.3012944513666452,-0.15292663226361836,-0.19940452916489182,-0.08965349050692088,-0.8215836371458046
,-0.10212318758756528,-0.1820382845743707,-0.17655768937306884,0.08455526548330744,0.3506630619652292,-0.20165653871726621,-0.2588091577814691,-0.8244795032860553,-0.23502454889753757,0.4331539044804729,0.08745824705034892,-0.0998231078700724,-0.17221013764351967,-0.5118592279418895
,-0.15339255292582538,-0.32242095183571584,0.09413849630343324,0.06651441652120174,0.1441855978582819,-0.15261343776248606,-0.2562551479449162,-0.6157849164672038,-0.14841987397515538,0.2498953658820491,0.3012903802471023,0.09742201111779653,-0.04907962677398564,-0.6974702025602202
,-0.03932446586328244,-0.21753836638721288,-0.013297735930655242,-0.17584699287245315,-0.24455512344147806,-0.15030767969229591,-0.15120797328973815,-0.212145400087277,-0.15065177218334364,0.14712656822958997,0.45660754629350303,-0.08742502992355829,-0.04745918397203298,-0.8345183163989961
,0.1677515110003809,-0.02966357512322246,-0.10111258118013051,0.5760670000751443,-0.3943760480958882,-0.15451278707238417,-0.3707752215294454,-0.4322329155150405,-0.1805989282826071,0.12015692285580616,0.2605313926683246,-0.15408376984377173,-0.021721495825392696,-0.6210699304955359
,0.41383631580622254,-0.252681562230643,0.13816565436753625,0.5819649965275329,-0.0044907945811364855,-0.12864391410682613,-0.28798235745254563,-0.25658545231683955,-0.3479956835060088,0.22668860357856815,-0.21361870812535236,-0.09275239228129112,-0.15139701145752496,-0.2705185418909376
,0.47532141755158713,-0.7026246941538216,0.008150235726063994,0.17262615748726678,0.01835503669756976,-0.2158248728574408,-0.30621487239091955,-0.018413116809917942,-0.2698649339320466,0.1989815000413259,-0.06902401876016985,-0.12989911429569925,-0.3286156392646904,-0.03739775578997837
,0.30276811254294395,-0.6180346043539436,-0.047156522854222435,0.0052482610310167375,0.0737926767549464,-0.036758764383860755,-0.3355006608006201,-0.32442034640834505,-0.04701304429528331,0.19829112245157146,0.1847636850358183,-0.17989949175835,-0.24592424698894508,-0.29550196823505276
,0.10508230611269337,0.09511732844893485,0.014060422483250618,0.10082303793968606,-0.1927933103849788,0.007493137188265754,0.03568929562396651,-0.3615269997107428,-0.05536193586089376,-0.05413308093441209,0.4322955258942177,-0.15448587687268728,0.06703869395580546,-0.31669550993746154
,-0.08020586204523583,0.033994396637030806,0.01682758361987946,0.047714909848406394,-0.11261818216307896,-0.012765960216924898,0.11454990932459636,-0.35903006696837714,0.10910611974707426,0.05248144476443756,0.14348706556862242,0.06160267960012746,0.26256930824994074,-0.17716749590496936
,-0.05626684205969704,-0.2205771330534114,0.06484281080035845,0.8365747501706626,0.06904263476490864,0.04232967796237643,0.08117234375632039,-0.2746119584320209,0.1899869053446663,0.2947838365976534,-0.25144155738985574,0.039646547735408044,0.46193431848034516,0.015717058223865526
,0.3611891900648451,-0.2603465735077354,0.028100808057554546,0.4054713377595692,0.3811789872220832,-0.2714574973520045,0.018605879272952597,-0.3792753828103845,0.057435817868591005,0.36649583707566313,-0.06554727813791505,-0.020117866474136402,0.38515095868334653,-0.08946224600033605
,0.526126147265219,-0.37849477631654904,0.15470628414645654,0.15451323890920635,-0.11940859384626415,-0.45909924513351824,-0.14273026236363395,-0.07025179574344242,-0.11348406347347155,0.28708515570459375,0.011598375729272211,-0.09909117284433604,-0.2376013504027421,-0.42891659457388376
,0.3950227845531493,-0.6732238237759275,0.4162047778007432,0.3150487699671752,-0.2999930102303809,-0.2760277858626516,-0.15652302155787995,0.08645769191125283,-0.14785203321369633,0.6709029978497499,0.39910416503807283,-0.2049447429524608,-0.347128973839535,-0.47987904837779144
,0.09246975915723832,-0.40191548126554427,0.16484154309734136,0.3652002839736573,-0.21322712984707273,-0.30835498700397196,-0.2922021290933828,-0.0789826190865177,-0.040958899698717396,0.3366914784889462,-0.17718887685827894,-0.10218361458017973,-0.13887820584392707,-0.501487705647073
,-0.1716752964378472,-0.16694592404617628,-0.08981466620177532,-0.0681252739771562,-0.0919113481978237,-0.3592592246200544,-0.2583329472487803,-0.16640581874255803,-0.13692861238747617,-0.05864252803141851,-0.6980714585158427,-0.33826713190578694,-0.7478433755039373,-0.6096587048574894
,-0.3436067238629352,-0.20297972114218557,-0.005778257379455942,-0.015254000502086456,0.30422021310706615,-0.3309680338022962,-0.03411589770992154,0.10887894527193298,0.017718097303295592,0.20352798533429428,-0.5077266011159135,-0.301402199676178,-0.695504328407766,-0.9242049120318239
,-0.10541558325426756,-0.22195874826588935,-0.033334060861718105,-0.19252176475833274,0.22520307245904056,0.04233711249748799,0.02902656636240094,0.1795885441648697,0.024934000178420967,-0.048821090424525704,-0.015415475131560025,0.06649243479834831,0.05834839098975297,-0.5597633016727506
,0.17019332717574942,-0.32060913421024523,-0.1789872734402502,-0.5005263745906852,-0.042247087614882245,0.3054987718275028,0.020257524809440913,0.24569199094984845,0.17667959925220286,-0.2897561611593908,-0.23372993299162378,-0.05240030875984401,-0.22002322797958265,-0.25471628783999123
,0.4598536141787838,-0.1927498638363969,-0.11665127692062804,0.10572919660196764,-0.16744348577166746,0.14404478065669682,-0.08342225286236195,0.2717903818490375,0.0562346506281539,-0.34867540997944174,0.31530349122839857,-0.06815643097037336,-0.20052886776859433,-0.06100219306383685
,0.7419680561346949,-0.030933250031591832,-0.0980712844737359,0.8975426651359063,-0.017990941383095652,-0.06552068351210547,0.0009660414057769908,0.28021027402368254,-0.22224200265578686,-0.22945703749764862,0.6493623035192075,-0.03959474883020766,-0.14340248946942544,-0.37241784754555984
,0.4959536997121618,0.034631937576485486,-0.10715295704662922,0.48226255904053567,-0.12118174481487676,-0.14987196066092917,-0.2914947336841842,-0.0315320751624793,-0.27635452209840883,0.25644863051396055,0.41876970601959707,-0.07044094961321637,-0.014828598934651807,-0.666070760288883
,0.20978561756729644,0.1610899398705738,0.05250660958619488,0.3951840715365169,-0.0031748311341582573,-0.08824691550285688,-0.4154016955563368,0.0042576475638232535,-0.11495953411520873,0.11468604107019757,-0.0047509540628361685,0.0013311029452822336,0.09549933241618258,-0.45242084252029535
,0.21151049804920963,0.16655140424894513,0.2553119989910605,0.3055921052991563,0.24951903830755892,-0.07725293658526561,-0.23606535422326563,-0.05338161233376353,-0.24723661244620243,0.07170662357873604,0.3698545646337535,0.09410118741674774,0.21625831951189664,-0.4057526164587489
,0.4958475796067799,0.07874917939464425,0.13423149281831506,0.12906756911551256,0.1808017959501614,0.014671166098677656,-0.10285804341078617,0.047634287696269484,-0.19519184064738068,0.40984068852823463,0.9207432799244429,0.12092795207464285,-0.036902759794456244,-0.31232511217983144
,0.03639774977731703,-0.03646853619508307,-0.08930968986211121,-0.3016947778831762,0.28001318504371303,0.04214480114678458,-0.07252402487526548,-0.00944420474702662,-0.0819119939468659,0.4548598522141363,0.09718214292048655,0.20970590484744672,-0.1371290614275384,0.11107690335046573
,-0.30703569277900844,-0.0028179884813196252,0.0647276374928096,-0.3124436844848644,0.24902864394719698,-0.023059768929582166,-0.23784506591734775,-0.29127000379790774,-0.19459973517850837,0.27274014961736476,-0.18724881418868977,0.13702841298787624,-0.31344344609550334,-0.6477304761689363
,0.18490345038978653,0.005942210437089262,0.202935084596026,0.44957742802321765,0.03764532222913255,-0.12541636607802373,-0.344304087809938,-0.1737744974341496,-0.22429254681973057,0.21137984246918645,0.17503552560578978,-0.02769686341187834,-0.016675474852515554,-0.671132242437109
,0.35608956252635476,-0.42954867759671195,0.09010027495022636,0.21611347052384616,-0.10575210127983618,-0.12426442109816697,-0.1757730564373393,-0.06420120319649837,-0.2797448620060192,0.4316277710101418,0.08764136647836257,-0.15873360029310787,-0.0015094913473989108,0.02751214907150838
,0.07228707310257648,-0.2139188522289318,-0.08093634393999904,0.24739579869842304,-0.10326178784952929,0.05607596316585933,-0.03479573182645503,-0.007905322269357504,-0.34205341168582776,0.47078852874695587,-0.14191299789492046,-0.15424336434709737,-0.04500709261040622,0.5161802571216033
,-0.08795342173234871,0.10113361182626279,0.06277875194808083,-0.4079267576653931,-0.05046279416120755,-0.0024721296203462357,0.07692956748060498,0.1915470077413959,0.1672420058670671,0.22965408917407867,0.21326403818995596,-0.007181405310241598,0.26045399193273167,-0.29121800562688255
,-0.09044684473741202,0.09508965041698032,0.06351062081504374,-0.27617416957916074,0.036074144270593585,-0.16236707591543192,-0.13907201502061817,-0.18064007406846422,0.19320697516865995,0.2232416294730105,0.22278313828890478,0.04592047782785341,0.18323620963158277,-0.9650541997290611
,-0.005142560048825672,0.20427501675007972,0.03848353587558254,0.017127856223929896,0.04241452517648682,-0.3371797039750649,-0.04641108677200394,-0.2232067116896936,-0.016178838070850642,0.21556479306893525,-0.06438488581081205,-0.04111475402511567,0.09144927309259317,-0.6157010144149535
,-0.3340449637216245,-0.45417862382893753,-0.04605888769944823,-0.3445280248891369,0.19196364089147636,-0.12281674017002006,-0.009913428381247846,0.07787713855658872,-0.12106650171165492,0.013844558291522181,-0.9745564302486512,-0.07091375876226037,-0.2414637018036475,-0.19789001271052334
,-0.2381596888244405,-0.8569743360987974,-0.10653758708055738,-0.381017920344411,0.4022594388625846,0.08714306838657546,-0.04036325922262619,0.10814783593644217,0.04930441102523861,-0.2157303082498597,-1.0736671010922128,-0.0214655357778237,-0.30034118684106803,-0.7068415918513303
,-0.22919930817149037,-0.7359372324066511,0.08189235743036463,-0.15087781552823237,0.3535455146912125,-0.051758738746854785,0.005756184392492218,0.2578239272787486,-0.05127346682298802,-0.2478267871981128,-0.25146968663811925,0.1958829439069161,-0.025516082109208603,-0.4385051675876233
,0.009965429905552738,-0.5463794265872595,0.034351230683562356,-0.3631762805962011,0.2918079370303933,0.020836353970361682,-0.2364678502193653,-0.01581076772989475,-0.07546636659386646,-0.16545662944997236,0.12890904176807402,0.01637863135367589,0.12096935065076334,-0.507422585325571
,0.5897131672302502,0.1247901424697549,-0.008740453931638656,0.011483951888273133,0.5346089159971159,0.029090470139875407,-0.536421964443129,0.03302389538802885,-0.11227466350020994,-0.027342298285309808,0.32203502321776223,-0.19846789934748613,0.21103593070864632,-0.37933070011921455
,-0.07745234840649104,0.445803149752605,-0.004731116905356533,0.7339904887636163,0.20545231741221928,0.05077416657040775,-0.455907321737344,0.25340040406102066,-0.30335815009591194,-0.26057721269940587,0.4552476450295201,0.07135572057509626,-0.08175605235921195,-0.2852149053843659
,-0.14992309047242985,0.04383567797692915,0.09538732720106653,0.04777286564500549,-0.013865366840454545,0.09640383228918184,-0.2744058041104539,0.15952789803460482,-0.4198584875119687,-0.14154877200461327,-0.1040647577865986,0.06694982354841195,-0.02876284699347393,-0.25298983922860485
,-0.10256930898596632,-0.19859074429300982,0.03566800589701062,-0.06901375626240612,0.2766882941146177,0.1922511642249362,0.08084815838809162,-0.04958109555323057,-0.1591159214005384,0.028241823080183547,-0.5167607169467986,-0.030652567219374895,-0.0274401028404372,-0.14401007779336375
,-0.3384116383408836,-0.5149162725709802,0.02600388610413621,0.5017760269120006,-0.0368963127727523,0.15441346537349024,0.06529755863971377,0.05788663515067027,-0.1046635391901012,-0.11776474636297511,0.2210551259145612,-0.11492884179699196,0.23834416736288191,-0.40693052248687644
,-0.28301532794391626,-0.24258909486270608,0.23550921663588834,0.10587676785646237,-0.11326295910350699,0.11820589915059705,-0.08166475973310003,-0.006423017886725156,0.03683303655003437,-0.1040487904522026,0.2930366021021892,-0.016413445114646423,-0.06530753795412023,-0.31340965694410233
,-0.2267018729210921,0.21709771204012876,0.15862575909754295,0.15340437542222934,-0.11056758058435959,0.1366074526777902,-0.13866303209247433,0.1849915971089399,-0.3403439719021732,0.12151975699885949,-0.03918434954713869,-0.13665328539686328,-0.3264453506268832,-0.12900893861922486
,-0.3847151394329107,-0.06288963803568016,-0.031893062217344705,-0.22379100197438004,-0.013692120012379558,0.04014730871669481,-0.09384213696475467,0.3754329048146829,-0.22553363897952228,-0.0742517485866489,0.16396342474789374,-0.12419020514719165,-0.09006028888242222,0.2850416461222362
,-0.21292458639793277,-0.2973690527062451,0.07568666688743737,0.048399986106733274,0.06871936737667929,0.016153385244010773,-0.016127882450045723,0.06978909579059905,-0.03064524394448941,-0.06824025520111995,-0.07712802919546664,0.05232200788165001,0.22714039245801154,-0.03807741874175361
,0.13393279274588796,-0.12043783518369539,0.2185670564433684,0.5145054760166503,-0.08528941509309783,-0.18866847565894132,-0.05977268003380667,-0.06514837146547,-0.15774662801848152,0.07432403749697988,-0.05698153808492912,0.3490010151696628,-0.07862732764143834,-0.09358681946554319
,0.44248838398802953,-0.013726808059889397,0.3264709110329645,0.3376307630734666,-0.15948307324463626,-0.19991940156470517,-0.11300454361767515,0.008760659039144992,-0.26235754624408497,-0.27172198105403583,-0.29993493085876577,0.191786759338968,-0.3792029123825564,-0.4395903496615515
,0.5824107021495084,-0.12350327912765913,0.12162293270722209,0.8853519214515785,-0.08134671015071633,0.1330848823932204,-0.07569955664325165,0.12705569531277236,-0.23089207006857965,-0.3987911856989727,-0.002597635757788149,0.035931281161630794,-0.06545478077703762,-0.647521770538185
,0.17528072992614419,-0.19748856293617087,0.020805621640882854,0.533544656902562,-0.016402527845599653,0.16490969021847793,-0.0021330754468175234,0.18914414271882066,-0.17438169779562906,0.021776804132609028,0.10439144382893345,0.004149814735867436,-0.1447615723393556,-0.4681808118126975
,0.09438058751173285,0.1500273037046349,0.026552847733609646,0.3750495834099948,0.01355947386490793,0.010360120988389393,-0.14202973391128157,0.34252045958624505,-0.11824653325467649,0.27203439742834074,-0.34129663555805245,0.019336926221858453,-0.11597093376325905,-0.0871504251261942
,0.09399372962926747,0.06628131801340865,-0.020680878713960606,0.013142012212128988,-0.23707909022462584,-0.23917896893434293,-0.0554551564394733,0.052967928624373446,-0.2646927879050196,0.03233553671201699,-0.17208084824019781,-0.03068765494711943,-0.2745828514058475,-0.041283531904543806
,0.10839111829818926,-0.19663850749727516,0.05312613394192205,0.7061726352582257,-0.17397444469302442,-0.25652542681516965,-0.0017962127635080787,-0.11936232615516537,-0.1742029751457427,-0.14733502353905029,-0.30186257249947623,0.005919983920212566,0.034300081007120835,-0.21123234365479407
,-0.13792506427971407,0.13236596806330303,0.07239849144786129,0.8475712284713924,-0.054790448633535424,-0.09712393447434499,-0.13994221452188477,-0.061726239572468436,0.12463724922913533,0.4970424521683255,-0.16550222069227402,0.05997193404409829,-0.1697749208517652,-0.1587537651557119
,-0.3650267520490937,0.14454397160833476,0.09009057860404443,0.13317922948889863,-0.19465693531594463,0.22832081335034768,-0.07186764100400841,0.16822876326661926,0.22507215424815905,0.27095646029534115,0.9054605583096677,0.019197850148475436,-0.46824195733202156,-0.07412943557889194
,-0.0606050390336819,-0.02065669575263745,-0.06575292908861197,0.6707393737141453,-0.2061417151988976,0.17187063075369946,0.1290235931512442,0.19888986684991264,0.14420502012111178,-0.004886219718295221,0.4907258866160951,0.02972754768557261,-0.22000541595046508,-0.3283750757369468
,0.1291007235620272,-0.1703704937469004,-0.13430776979228723,-0.19768986803468183,0.15561205520716317,0.20493520027936762,0.05713316222730917,0.027375250485718854,-0.1645137791463748,0.15326774786961253,-0.49394598211564505,-0.11273256735202923,-0.5363520231334675,-0.7523222715314704
,0.10577044779496013,-0.44660847688755223,-0.3540712864092841,-1.4203364560244762,0.2853859333514247,-0.08193537698597007,0.060186519108638155,-0.10658551060474927,-0.4844555573402588,0.3755625452838115,-0.7757814071159466,-0.42001605682821586,-0.940860481380312,-1.2521772538162836
,0.4486916266677506,-0.6601564928818542,-0.22317152527550252,-1.0661932702943835,0.3666596252061955,-0.0390227231729752,0.06436425373598641,-0.06325025463134126,-0.3608751424752886,-0.08290079655106893,-0.6397692948194174,-0.38591857599353946,-0.8086344962478605,-1.082827364406567
,0.5514389597642768,-0.5231098571560988,-0.053115602642835734,-0.7307673245780028,0.13139644393347916,-0.08377752953747515,-0.045129922494739884,-0.1609155227594316,-0.15330852169827286,0.02279426322863526,-0.5509496888484965,-0.2670375448978199,-0.41445265146878607,-0.977774951850685
,0.3863149076382164,-0.4532869824890681,-0.02026320483516701,-0.9358584005454486,0.034835505462352985,-0.04653738489014204,0.03822135329225709,-0.11638806113413641,-0.037208573818530676,0.22518416024284865,-0.06892345347597478,-0.17029517491717922,-0.626285808262577,-0.9186992028129121
,0.32494944266150894,-0.42413672525125157,0.06488087871364924,-0.3077863355917953,-0.08550194941686434,-0.02532075943824819,0.14544998850964008,0.17200372590326513,0.18519137125256968,0.2531593802131629,-0.3405818630658161,-0.13194347444046667,-0.6933736070969054,-0.3122555368855402
,-0.04885567496501668,-0.2646994626732349,0.07113530623289624,0.47299819869344395,-0.11915059590521203,-0.08908730344416653,-0.02125764427315556,0.005788163742944072,-0.06725790217964382,0.25967476418355023,0.22108049099483681,-0.09669606180238492,-0.2735962435156557,-0.4627628990907414
,-0.17093208364722157,-0.056909850672023234,0.011838853848953534,0.5385023871152945,-0.19950602881567778,-0.21925772659539355,-0.015916712394798676,0.09219487066407003,-0.14372143658091394,0.12961024485240655,0.6913220909024268,-0.1572681577975965,-0.033649307235550235,-0.586099102867798
,-0.19651475189074688,-0.26300890206173066,0.12086450348422455,0.5454442341736675,-0.14923206293933117,-0.022248656560979647,0.020403873122333237,0.25439963275888416,-0.18712598545901496,-0.22923400794413565,1.0806661654972727,-0.1218511584858291,0.12676993588995195,-0.3945643951481679
,-0.052052963875021036,-0.19293908725349587,0.08441737769360416,0.43929551190975963,-0.09405256971454969,0.08401091216859397,-0.19077283255316257,0.08189985661685695,-0.41072256127646295,0.004719926834332322,0.5261122135721916,-0.17077812012849636,0.09433855304847741,-0.19777429583158643
,0.004815836387984759,-0.061372760705487084,0.023785199069925857,0.13615522928008614,-0.1782318661791484,-0.15523503712451264,-0.13091678206976773,0.14882888784496018,-0.1487064513268612,0.2232624409289731,0.279486739539609,-0.025357904500649165,0.20521214648817881,-0.049129407844542845
,0.03676701544816266,0.3443336186236612,0.03292703979430142,-0.43626693527782046,-0.305595017485187,-0.18250657433369866,0.1109774891517184,0.2618140822195761,-0.0698354343115299,-0.036129595258730086,0.012454157067736655,0.059188739764451395,-0.03924856749647557,0.07992122354665272
,0.24080179118256032,0.49618654491379705,0.0592031507675882,-0.45784237169291553,-0.07763825370977906,-0.04169930083244032,-0.054124492158272156,0.020356606473290684,-0.09677294242395648,-0.2597531728308633,0.09384452235144926,-0.00782032246261747,-0.03035985108360329,-0.03886381724068338
,0.3841910494503331,0.29623117007204347,0.06654626267047536,0.43442378008623006,0.263530768197795,-0.0649735818726758,-0.2107845281949216,-0.39088594293038526,0.14580841338409278,-0.3679832960843513,-0.33652149619482746,-0.16348425755335544,-0.06262319877962554,0.15234609754724993
,0.21799008599226094,0.015551951298403012,0.04865472343745514,0.11845059502913677,-0.06072954048059193,0.07198788839741979,0.08165005332942955,-0.3324626264533209,0.10959366430159155,-0.16898579422297283,-0.6257835287588317,-0.10168979484695151,0.2196559841569693,0.07951028716686329
,0.146007789370788,-0.002970553965443149,0.06780392974256731,0.050550496404727065,-0.18729728387313677,-0.11817837798176867,0.23675818368873228,-0.13554113262881204,-0.11850385110742415,-0.17343538043591386,-0.2502042716685804,0.006833440412443159,0.11571831899332287,0.08757205170218313
,-0.00395408929704465,0.049328905702532885,0.0026604150922479057,-0.07059324297985142,-0.02280198083979223,-0.017502409245819313,-0.02771844739280939,-0.15667656683456063,0.04796982915183579,0.04699109789604186,0.08006872867725565,0.05225431433394717,0.22219473224343797,-0.027394692424898576
,0.40494797529350834,0.09352980553057653,-0.030432513604229453,-0.592505253122301,0.20430730903999472,0.17297974721193138,-0.012883133523504108,0.14836928097337854,0.13599234394981324,-0.015441373260143464,-0.15375523430362903,-0.21650653846449175,-0.05220964898063574,-0.300256401022412
,0.6234990386503491,0.1830529475946751,-0.10581820875625969,0.15240261021856175,0.20982568803158663,0.08170314522567243,0.08843706988125923,0.15245922696436903,0.030241458871897012,0.14038660005045006,-0.40295551574204824,-0.17170490677639122,-0.42760774712452737,-0.245648561960595
,0.18303405267543688,-0.04555699657054815,-0.043178254119765565,0.2258832610925477,0.09051744726817258,-0.043888788305536684,-0.07530722117594953,-0.050286955229385616,0.06992219596240591,0.30788604233448574,-0.27639398517621677,-0.07575813762363873,-0.09579354708009395,-0.1382644122390849
,-0.07289565637808529,-0.04597159627152424,0.11869121767369527,-0.2923775580719595,-0.01100215182623663,-0.1046651133839237,-0.06809494138451296,-0.26418939112677725,0.07012417072242946,0.29253406112902597,-0.01208459304896499,-0.007525028735151119,0.2866429127174156,0.07313235185066402
,0.0017861314869353328,0.04788658696998419,0.02703856256731765,-0.0692025071916847,0.08842069232858693,-0.10180167142120396,-0.1542291119158006,-0.07617116379838047,-0.07662249102978924,0.21961452932358472,0.1637761171120359,0.10814314039626036,-0.012135977211378855,0.4732748466982636
,-0.245787224148413,0.1842491397659858,-0.11353494651968452,0.0633425347560368,0.42751440797934964,-0.15245866510486986,-0.04450602990071697,-0.0005550362658303425,-0.07503386310171452,-0.09237070736625108,0.32030513881617806,0.18243928718883914,-0.14945597889347595,0.07963798404474676
,-0.31806020422157905,-0.006390085455728273,-0.16120139409055392,-0.059099146543516244,0.2289139477545722,-0.012141488620432636,0.18550368292670802,0.10360856247825062,0.04670889842918743,0.11884714837336083,0.3364688713760556,0.1466536303246078,-0.053614058181110924,0.2603034638328432
,-0.45957366230782326,-0.0274288690762831,-0.10363536270082628,0.17934423883283873,0.15577143157966342,0.109970421882152,0.11655827110780095,0.003253169687903611,0.10566616943094148,-0.04080335549982028,0.046205224724149854,0.17365243592789711,0.07856293996075198,0.09275250314709814
,-0.0902736231871616,-0.3488304091953043,-0.045693740452099466,0.25365690521623757,0.10356975355256859,0.2637688623791404,0.11224717866218217,-0.09924052615564569,0.05187567718172691,-0.003929549523866881,-0.2471066513293637,0.15752019236103734,-0.19733308191233748,-0.018853146940513515
,-0.20950708503831603,-0.5507628387962833,0.03715150974520782,0.20573686627257498,-0.42921626977008087,0.09236583032583114,0.0057303774826029195,-0.014774189000384146,0.0468530286695884,0.003802317003212621,-0.43939001186925064,0.10615222365611057,-0.05358045251574451,0.09364488754382327
,-0.3211592129559614,-0.19449942475841328,0.0162800640832551,-0.4250436798820332,-0.3546700724358212,-0.02532810501792062,-0.028757795591676443,0.2766296613461799,0.0005089863958097308,-0.06481917659418432,0.17772824932337472,-0.013635721964891474,0.09444776773137911,-0.14434794677944682
,-0.47057704452890947,-0.233628048423146,0.0183349679057761,0.1436886656633458,-0.05113643941796622,0.14359230565405978,0.06023300963066182,0.3235641958187151,0.13493275812642164,-0.13439276279636952,0.7077453255316764,-0.03857667130895727,-0.14281124608092474,-0.3115630147966247
R,-0.18338696378796682,-0.18883299912400528,-0.01360029459399221,0.4289655269765464,0.16925008612042564,0.12124737617126358,-0.18547852991196867,0.30207273988926037,0.1564528638000521,-0.08885109654998612,0.2606079965188932,0.010202705044889022,-0.040457379918869364,-0.09103683066137011
,0.3417355103777987,-0.05590173797192625,-0.0820665825343466,-0.08923598169493321,0.013161712747346645,0.02307851506498027,-0.11435608280570551,0.17125982058232683,0.12898078699256801,0.13315827275641698,0.35725486863514644,0.06263548733688384,0.0333804993634952,-0.32738260561726484
,0.16124646965754452,0.3552110027805421,-0.3188252863586501,0.004490215177348488,0.05884819449269501,0.06521828688699437,0.1878053804555805,0.15795208081300702,0.42509812213612264,0.18755223167744278,-0.026339754791101008,-0.07036127945988543,-0.3681724991042433,-0.9188972465925109
,-0.07151514545835311,-0.018288307483979322,-0.08620258059464461,0.333078728953393,-0.19364439060567717,-0.049316963808077534,0.2393117164582344,0.04646276961381541,0.15179426617796005,0.5113336331397706,0.14072547925632534,-0.11768930237610277,-0.36149669843674037,-0.9685766353887516
,0.10518065404235546,0.2031768833704439,0.21532059074297707,0.5762722909957033,-0.35386365423736005,-0.09890464279258594,-0.0019325118306235596,-0.0064596429119062595,-0.011676336495184887,0.21180819694482697,0.43144707858417314,-0.17843968609165436,-0.30739265494827717,-0.715394420806132
,-0.1006572506416696,0.04141616169673649,0.10915906351607998,0.6619528045996248,-0.03244404209826944,0.006110746053140288,-0.12535659099753882,0.015860209390877483,0.049863617305331266,-0.0629861173398215,-0.23667783410033139,-0.08633509707780017,-0.05625809448822936,-0.5711210762049144
,-0.21222021587680198,-0.03989461628999301,0.13748641244725712,0.7001815390447893,-0.1469564702600385,0.11999075131124984,0.10587825344038343,0.02303266764528983,0.20844345781562307,0.2681493296017186,-0.09773271623175296,0.14068745547401293,0.03974142200671513,-0.13046303437885046
,0.053959027502775384,0.08109607925682466,-0.007454522658508235,0.904751899390498,-0.08613925186864783,-0.04391088315399919,0.06213723316208951,-0.08841267901726768,0.05029463861109033,0.3798811193567989,0.679393807870201,0.10365766604691148,0.11476472634707442,-0.026270880591737614
,0.7139371205470385,0.5049527191175631,0.16783465418708818,0.31711938365890996,-0.2992481837904844,0.07505775542932319,-0.0013530667877457853,0.07279553541762517,0.1301565530251231,0.22534213393319807,0.36683941700408,0.16662054303351476,0.09046466272885703,-0.7305897191028091
,0.3847871363541027,0.2384646841352641,0.213314662301046,0.3146081620732606,-0.32981360326422055,0.15602785293181076,-0.06594649538406858,0.3663463285678667,0.18171701829197168,-0.09629832052805849,0.22131886436000534,0.168872343505611,0.21315719320834872,-0.7047897057247635
,0.013560871794217735,0.2900774185166152,0.10731553137475452,0.014395215661432554,0.18546046511448055,0.10048870698678762,-0.04317094997829903,0.11456375048903493,0.17082316670474498,-0.3674036312579546,-0.29663725861123735,0.20611628692173165,0.2773593775631102,-0.31992806128601664
,0.29690993773006397,0.07693189373609362,0.006125018355099531,0.32033495392268013,0.15276870803067072,0.09441127425436714,0.15535699263746688,0.01529057458041716,0.06331939099044297,-0.15058539235914709,-0.32854762072499927,0.30816647832558636,0.03670387785443751,-0.28055595989474574
,0.31162304253597145,0.020645365113536103,-0.013321217473158852,0.004524770442375267,-0.004011600344327419,-0.03836118358468354,0.15664586953318183,0.18241094653986348,-0.043262876620095994,-0.03776233440779936,-0.08486173245179768,0.14784402109314942,-0.2158373012142351,-0.5839313379701255
,0.4855864022409203,-0.09326002129298631,0.03669725180981472,0.008433837464151559,0.37511362577477325,-0.1781197079291644,0.10098660110003264,-0.3337950652131565,0.02400001401043512,-0.18759555668196928,-0.16641847242267202,-0.018477351879934364,-0.22216617567299854,-0.635943348669807
,0.17759380073682474,-0.2654656112513457,-0.031196814266281344,-0.3070545048758287,-0.03522220649721038,-0.15875207771914268,-0.13391395114251525,-0.39069538073411175,-0.013573545881554908,-0.19292459988851998,0.2815027321256503,0.09706126788171139,-0.2292345703963774,-0.2600707569513572
,0.08177244848352622,0.2692782244103929,0.17337768644347878,-0.3404021990213534,-0.30067139177773405,-0.11931968045203895,-0.20750212595573178,-0.17402498630927793,0.006676177545247163,-0.19909494978966882,-0.020161711022026407,0.041837480498574484,-0.17766793662245545,-0.2856655902174341
,0.3201198846065488,0.06894441193548159,0.32456096827382785,0.4480113244535378,-0.08859707784060103,0.028745592505488856,0.05750123806211794,0.11088484129714807,0.09546014488076272,0.18072843667803595,-0.2666400291949247,0.16969381552847765,-0.15599005828618231,-0.4082678690445354
,0.13034777378697707,-0.274708382983561,0.2558660787676128,0.03386810659899566,0.019090569209267994,-0.15593821944980946,0.045133321095579604,0.10723799211277309,-0.15101577886756953,0.22460620615118967,0.24642870274738882,0.05465236008898386,0.27978005193586586,-0.7753604008140864
,0.14328866728142056,-0.13454307306893257,0.3212123319831434,0.2264168260641742,0.1323929445126167,0.03159824105729994,0.05081994449842133,0.045625497301071495,0.007108605794975798,0.3119001888995401,0.8701630804446709,-0.06002230259987442,0.4553785706220572,-1.1944950774256669
,-0.037233525980268904,0.09822006141380475,0.1734126763538577,0.06418166697984601,0.21852856600850593,0.1281602215038171,0.034342670249170724,0.03965636877515354,0.3719364468876506,0.09008292418826314,0.5508317125974583,-0.02471461001797246,0.3829618165623434,-1.3722572345137332
,-0.08646029981391129,0.046374406972900614,0.1175530013004169,0.060928710119898734,0.055181454433469966,-0.06664348719184751,0.12738522347627299,0.021030550579886974,0.30322892542460667,-0.1510416406058535,0.4680489461034573,-0.026919982618857103,0.3021866956713111,-0.9994893007411388
,0.09738583516108767,-0.10799635881448001,0.14433287077707982,0.7499409518894462,0.07351778971792489,0.01740037667534704,0.028336990554061556,0.02227494036144728,-0.10380226126790908,0.01814790467756466,0.5199866092037383,0.06047536676178731,0.2696484676069452,-0.639499936703638
,0.2620967390460976,-0.447213963811278,0.12130901511286134,0.39503694617321794,-0.09831268173871922,0.058960321991069355,0.007831592509694002,0.15259434091838173,-0.23132031632545175,-0.031185844942720305,0.7824411856352699,0.118246457241882,0.3347156132496503,-0.5589926934460999
,0.27602183127013225,-0.3175153805750218,0.2205627444434982,-0.09461035025031744,-0.12135746543990567,0.08078937799174507,0.030525377015477126,-0.05211433771089697,-0.06819083552705028,0.242063459508826,0.1911824464951929,0.045314761804965485,0.05175230715586353,-0.2101373205433299
,0.22716381048548145,-0.26417440399316366,-0.006680523036410754,0.210616084250304,0.09811237898290125,-0.02665024510842284,-0.024930348012860454,0.12931600769829119,0.1338675607602335,0.17018025161607164,-0.09975644439271406,0.030878054966029262,0.022701441333666816,-0.039835646740378976
,0.2815326746822248,0.04420079493546242,-0.0623363170173324,0.5661608570002568,0.10377394853434506,-0.07145809116693978,0.04901104864201816,0.21092528071198338,0.01825835322464327,0.048161654688174904,0.12041691125247393,0.06419824653432767,-0.031946038692082186,-0.18007312906827114
,0.5859425590484667,-0.10189085482283343,0.0030565623681327,0.7801023843457336,-0.1954921026113251,0.08681729499480863,0.06450780634490778,0.30120656613558044,0.16143822051788137,0.12161274634560534,0.47915492868620385,0.06804323627315235,-0.13986844189168227,-0.3589970346519954
,0.5243598631598055,-0.21275755396951956,-0.06216471246488634,0.3628223551883146,-0.061378871755106416,-0.11432206678442179,-0.12369575035173111,0.178744672607208,-0.033704171547829134,0.10973342804550834,-0.013743478211794748,-0.08711351426598071,-0.02119299794720472,-0.5745348451106044
,0.08303958190977967,-0.39576089180877355,0.052467688220737566,0.2222125681164659,0.012932099635876196,0.006731446678975439,-0.1333197786644195,0.16331339671365538,-0.11354579536045104,0.036492774809265924,-0.13528625116705528,0.04799461000308337,0.06640580249641477,-0.9081594673707766
,-0.005769284159892369,-0.20542138167986215,0.049595809765744514,0.5208306498488661,-0.033840228027660624,0.09062734561858032,-0.033593652365494636,0.03566606460232656,-0.04743360103691602,0.19600572449910295,0.2505161369112452,0.09567580164588059,0.1578564598200589,-0.6394652247867835
,0.29628321676469893,-0.05579632046240875,0.20171877832681387,0.7669418134218237,0.06061167358691438,-0.008296677715486873,-0.006454085577195606,-0.10669277017591075,0.005165077715033848,0.2892373846564751,0.4568563653636773,0.06367867680687116,-0.012687598925649923,-0.034951759486768486
,0.2942783340705766,-0.0994937560352498,0.1728938671210788,0.5908083010306182,-0.09861481566798733,0.1031609065638638,0.047547858159332095,-0.08685884662830513,-0.12366260182658335,0.2989290533358623,0.2874597530837659,0.19941945394827593,-0.002865107536059401,-0.21711833254662075
,0.023825607131954522,-0.014954959089998134,-0.026380346332577968,0.49693741370096994,-0.1308093248036644,-0.07292926209100356,-0.05398217875581282,-0.05684194165963961,-0.09030616823280974,0.32476647679039206,-0.10565813702556233,0.2611923079020275,-0.3430927082634433,-0.48507813894370133
,-0.08837503215856475,-0.18497480986810041,0.14772332212717867,0.5734382221393666,0.27458372939058245,-0.15103638094719896,-0.1480407647763904,-0.29302819009346137,-0.2190633592730715,-0.09001387184294177,-0.05837093305315653,0.13659158515887432,-0.30164257115400267,-0.44653011338983173
,0.08849186596377014,-0.2023048320668664,0.10134796964489043,0.3198479220276693,0.10183842985721797,-0.00035740132590640763,-0.04059723362201521,-0.1485137570277453,-0.1797784580079425,-0.3142904648183006,0.3994832977680256,0.01537102822579709,0.3775221496278015,-0.3832363613865668
,-0.08337332770355298,-0.23338106841673023,0.016733582166861907,0.8840699331120669,-0.0585563879443566,0.03858569828947603,-0.00875454430456157,-0.10239111111133482,0.0014223861154444345,-0.23257221526966063,0.40965267779116055,0.0028887568084781817,0.19601817195980048,-0.32988036890712347
,0.11591599449272236,0.1758649831215314,-0.059105819148622,0.5936557137018053,0.25739344300231315,-0.017142004703640232,0.009499876188127816,-0.062053637350189254,-0.007980171097004784,-0.130031906485688,0.3665841175540028,0.003640297889260462,0.1821672899055508,-0.5425608998010417
,0.12548903793821636,0.3844574885635635,-0.00011941018661778616,0.19763039930330925,0.26686727222842865,-0.20393602580344916,-0.043514427866059156,0.1427712254918466,-0.018867551742521416,-0.02596292297388047,-0.06623200995879369,0.10432931049555784,0.46165691882294857,-0.4548930503787034
,0.30645375674493813,0.3954968444960468,-0.2259906250013502,0.5809921956634873,-0.055183371864921775,-0.3089772855445212,0.09200027208496836,0.20554026700120123,-0.13828051154390736,-0.15303387709788377,-0.11996434242284562,0.1292232800137225,0.5297227781495363,-0.16503696772053442
,0.1331430450239273,0.49128086138622007,-0.09183789945288531,1.1604040824577888,-0.2925998290938063,-0.1947980525250387,0.1564571240744779,-0.014832486044020475,-0.05832226096141733,-0.15663443638926142,0.019700587547871195,0.16199112139151117,0.3676852050351752,-0.4593230899708673
,-0.2575838999889105,0.01522712500736729,-0.14013588869378435,0.6786879894228046,-0.27207282893301266,-0.1569363472298589,-0.011877454974348724,-0.11236584638395003,-0.09412201342743542,-0.30294667992246815,0.24783534722984582,0.18390116856750163,0.3159449605024063,-0.5659974023618468
,-0.3361921508804388,-0.20915990426635994,-0.05792506916362346,0.426825272384307,-0.05597407756828331,-0.057839767561480446,0.12154504380796903,0.10195566602795553,-0.01781402963418039,-0.26738254252141996,0.19381345817281775,0.29827752682399156,0.39129636267152046,-0.6878460765299895
,-0.10117531832004646,-0.30121141560624215,0.20416669389828532,0.19174246531577138,-0.19224814451033329,-0.09315794776381625,0.357130810810315,0.019639827594005687,0.04960371478558806,-0.025874888355170062,0.5948569034619743,0.17051171796913492,0.47803446492436497,-0.6987715442049508
,-0.15483928565912855,-0.21305804261157107,0.07290911729759564,0.32412076922830635,-0.4448080430975218,0.0101687846583361,0.06748933946053255,-0.0913993402107519,-0.044822037494301664,-0.2351331629118022,0.6013090259199771,-0.04862183738650259,-0.01190830623939612,-0.12117039949178202
,0.003399772102748507,-0.2277189306643795,0.11850939375812865,0.5199123589641849,-0.3766149432108801,-0.16435996717356835,-0.11238605198766669,-0.06606487692282412,-0.08236601821870207,-0.32915125993924266,-0.1796669968924987,0.05682819012861143,-0.12129365567452853,-0.24583999786023755
,0.1822697310350636,0.04541651401571442,0.09288842883948321,-0.0853005723975929,-0.058507616258896174,-0.21533366274201682,-0.17934632271573148,-0.09325459372961387,-0.07200836703137536,0.1429337041765467,-0.25392144609108647,0.2580960405672073,0.09603849663997428,-0.2522869247988313
,0.17551256887126046,0.059496592477375196,0.003303014145537574,-0.7226867231046101,-0.04436436646874463,-0.01952281561559446,-0.18083761472177243,-0.011010786503870369,-0.02751489300966971,-0.027968371054729158,0.1716167343475187,0.14470671136031285,0.1468121138898968,-0.43340277723076176
,0.05122690857001256,-0.04307498476191139,0.10298905926059831,-1.1704409443402424,-0.2285073277928447,0.10923992117941955,-0.3795963803511997,-0.03378912013143863,-0.10561608306503299,-0.2778384826299495,0.16438287283889,-0.14318699205776284,-0.01346476608301726,-0.3380171625723529
,0.36784125690190955,-0.034810064388564724,0.08072902211449792,-0.44444411549176344,-0.24446070324755112,0.1535779963844969,-0.16275722432269085,-0.06130516868078743,-0.28515843647532163,0.07775967236174368,0.08621449964097554,-0.22016604190745373,0.11495291961137058,0.18150769365435215
,-0.0779370429975483,-0.12372825487101197,0.015136733740593458,0.3283096695764921,-0.2624461246614447,-0.00167404037511159,-0.042154617823028526,-0.02861318233626459,-0.31959737758325396,0.34348920843472713,0.09468762585753282,-0.07450048774559241,0.08890766255327436,0.3341624544554307
,-0.22644025532908094,0.04549382571722151,0.11275241799481904,0.275027535019563,-0.4340374835199979,0.08296963782133547,0.018032262390021436,-0.08609785758795176,-0.32378494832492005,0.2797293858549999,0.6261431474291115,0.23418581999039492,0.1593974084682101,-0.1118517699985738
,-0.04119127684782895,-0.07595213238897047,-0.07511528599756821,0.310171506197148,-0.13529055591398859,0.14938716893744233,-0.3047476710348096,-0.10273774997098052,-0.38336624924424517,-0.2570071793719483,0.7854756226033024,0.0676715368992617,0.27077611997841394,-0.5587080804865983
,0.20959429517523817,-0.07333391905648526,0.14819729622920583,-0.02256567974463315,-0.14987443571322165,0.07414483096655157,-0.25989793039962894,-0.06426472506579084,-0.18932846970613787,-0.43548900023037396,0.1876890248290976,0.03997407172843813,0.007876090646810175,-0.4081921386518268
,0.37115925609607897,0.36636009392903734,0.20643729934630242,0.06405997318697094,0.02650318156948664,0.14655155201435288,-0.0260640692567698,0.038229990316861064,0.20190653363378497,-0.33367361760254427,0.1488572749585976,0.1627663205157157,0.022772347427920923,0.030018875544306163
,-0.12810863756136473,0.03086275924508143,0.19360183060078276,-0.08674144082115315,-0.18848123489273955,0.16997779397554727,0.15621906193639312,0.00948330103022458,-0.1130786950775381,-0.3525756777454919,-0.17093149786310513,0.23590805719097582,0.25171712014091485,-0.16844104904344526
,-0.1539792560984546,0.043684581304691356,0.34423301163200315,0.17100990424422663,-0.19359946469857853,0.2102996016671478,0.2001890631367789,0.09368143375213679,-0.052966052756017706,-0.22667426157296,-0.4720831459431321,0.2488106607260219,-0.09604790762811254,-0.3785100939296975
,0.10124569984783059,0.05452326616947332,0.16396899332676693,0.44803482350609564,-0.14770092202233967,0.12567997199033726,0.01802628271946971,0.0824739339739282,0.029731502841327147,0.04493627324921411,-0.05131574728775472,0.13212360556698552,-0.23283255985032383,-0.2567234296368861
,-0.01024089212296148,0.35521423066613544,0.0964569477217429,0.2740166965354887,0.037607052448280165,0.01224562810571791,0.030096407329528937,0.2618297543079901,0.02072783571976591,-0.05039852529324886,-0.1436292886737799,0.16416638482621626,-0.03392140148320098,-0.4511693345331944
,0.1117332858121805,0.4938134152496866,0.04598633008374397,0.36914659769136304,-0.030652125786545532,0.004199758021254535,-0.028062325195976637,-0.003510893401674348,-0.3114184081055807,-0.17137582256747275,-0.1276306592850695,0.11739109639640227,-0.18013013994668475,-0.9147799023979625
,0.7117077875465102,0.2833292951661352,0.05565373341768197,0.5752611999170928,-0.11026587495828118,-0.03687719734125239,-0.10362225394884204,-0.2799244551046526,-0.4641327643322536,-0.1393142480915873,0.338866803102965,-0.20380096776578155,-0.32014362771111904,-0.7506846061068104
,0.5028625841629557,-0.0968352713196458,0.1281858863754051,0.48324061718716615,-0.3264584099961237,0.06317277939731321,-0.0704977212033873,-0.014568996163448176,-0.36654330317500594,-0.05313021557291939,0.2819949592672006,-0.23390832978272402,-0.009838966315864645,-0.6557711445252982
,0.34400419140461946,-0.1275387760368805,0.11210200479080823,0.20017950252681976,-0.39277551098573676,0.03192078913882619,0.02976240389563971,-0.012753072383917381,-0.10412756658726616,-0.17923309539940846,0.5001171913983682,0.11369382696893207,0.4222955535335685,-0.47407732353243137
,0.19735402821420958,0.19391710255589156,-0.009617740469804908,0.9142463640053505,-0.2812475560488497,0.033181581176643826,-0.14098027555000608,-0.11988248199117728,0.05211032314658423,-0.280855822198405,0.6016201616989438,-0.040838179541373636,0.211627883068736,-0.18826745749163779
,0.4061059983907126,0.13278475766702563,-0.008132036407130918,0.9720812048127616,-0.0011667005522182205,0.009518442383719997,-0.16005818033024036,-0.04402831821707935,-0.023380288305951652,-0.21436399875487247,0.5771421545253941,-0.16374789091882452,-0.16753812945953975,-0.1305383258988942
,0.6641157719812589,-0.1736264070948942,0.06027384079177755,1.008179092843801,-0.02160956768426924,0.01396737261977535,-0.14944516251551815,-0.08646404689563703,-0.17983232251293577,-0.19683032610117074,0.0864467516776118,-0.08236068921695389,-0.2431271620917621,-0.16858127716400054
,0.6118907277304098,-0.43480383072276013,-0.3530101909258084,1.2771672161560497,-0.27325909350640154,0.009291011661750287,-0.14915060331778202,0.009764378881109181,-0.22946891395709584,-0.3876251888347679,-0.09170394414134356,0.07240274965066551,0.05712418297017697,-0.5287284107721648
,-0.06536856703376209,0.027697791927785338,-0.24110723833776734,1.0627940542909473,-0.03789826239199845,0.15826730215749168,0.06152484571197697,0.06099328734544355,-0.18559247427255454,-0.508782742054427,0.37285723965886236,0.06867217948643868,0.11371400284655443,-0.5299919122400061
,0.09397359550608428,0.265605026148693,-0.14213857869281926,1.0429293048108108,-0.05395891404574789,-0.09995132642030356,-0.036209660668486715,0.051646412773646094,0.10390250002333969,-0.16301822197671562,-0.011487616041528656,0.1992819338676407,-0.07848040348041793,-0.5009497728677206
,0.35316827427965924,0.210843528576454,-0.29883566197223116,0.884950694225614,-0.0231326295149808,-0.08285567235409959,-0.02880444777456585,0.21345051615462285,0.09801435837309003,0.10497914197201144,0.002408551554268815,0.2672457127537969,0.195738924108071,-0.2783903216924004
,0.2863200370409714,0.40759160652867193,-0.1271556702533314,0.5442262400661362,0.0036113643056450914,0.07456857421966288,0.08255408765439501,0.15896889347115922,0.15938397664202214,0.13019946298301321,0.34647100333809683,0.07378038391539456,-0.06913272261168098,-0.08928236273345927
,0.44696243662034,0.5609161879567539,0.031136015459745627,0.7356376659087163,-0.11212903750337791,0.14809247298695535,-0.005625022613211711,0.10137410794287106,0.1915674682787717,-0.028302632869342884,0.7433434907116102,0.07085584072274437,-0.09141749494618504,-0.5258916956091244
,0.43923943315350295,0.530239987683909,0.23196415365280074,-0.19853557581139225,-0.08430661099730165,0.09944565962982192,0.0913793800839465,0.03753402143721957,0.2069319184680278,0.17239314643665726,0.41394435035141397,0.2831822773597501,-0.11316088778865126,-0.4542502913105502
,0.11783825697510575,0.6544644874350513,0.17550863312377593,-0.2676266620430676,0.06792911975353369,-0.07287629105174702,0.12029782476400853,0.10205309797580449,0.13020173926055875,0.15283582178387134,-0.16208841891843098,0.010652943355630926,0.2790368490908765,-0.528637206348285
,0.5344713885757175,0.4861322945904845,0.09815635275548543,0.7796474238973328,-0.3351335638460189,-0.00978552979121424,0.10934289272832863,0.08526528787369084,0.14532573228332807,0.42936980875964614,0.22771035810456547,-0.07552219935819336,0.2349687693978556,-0.5883528796871016
,0.3520031700437618,0.2992109666484956,0.12777349889075407,0.005925154982629129,-0.17614844499071855,-0.17983298676497206,-0.3175547902099626,0.21557544358732905,0.11198148141604958,0.12950935182042392,0.714655646167578,0.25290487601514167,-0.45843872577071765,-0.15440494466690258
,-0.27034538447111983,0.4685563834054255,0.24247396335807445,0.04123121236787832,-0.3552675433614456,-0.03663203445298724,-0.5156832491192552,0.14056208553673702,-0.1516232624915097,-0.04368153197127378,0.05094894902205662,0.019407547293102234,-0.4777524968037955,-0.13474537150557198
,-0.363472216201943,0.6775598908696151,0.14811399859774846,0.2777631237218634,-0.22729330589259705,0.19519208884437478,-0.23388955195362304,0.2152869885186022,-0.1797645211877575,0.03699328091982079,0.06567271690382345,-0.10007759681026683,-0.10565896337732746,0.0657996982886028
,0.1263655405409048,0.42051332768517313,0.28443017014565525,0.48141013474865907,-0.13221113529686696,0.07833254143522927,-0.3413781457810234,-0.025350993673883597,-0.1426589353967926,-0.15497665945666836,-0.08270686882797461,0.14988104354862936,-0.13305795872986878,-0.33255616356559037
,0.13108168932983055,0.3702460789684088,0.3749315507232542,1.122813137645429,-0.1757303487709514,0.051541404593704224,-0.05539632391979014,-0.07710745331472851,-0.15058691277860156,0.012345709289053196,-0.006567371879854679,0.3344297375321382,0.16592595460974985,-0.544884242113538
,0.051854732863879247,0.18283580077492956,0.20627524664437275,1.3796049444608196,-0.18980440005141444,-0.0735557000147226,0.09055989285166192,-0.021553407421069155,-0.23115897814239558,0.23716008172008524,0.024481476064050534,0.25278349072635153,0.0302358811589097,-0.6904282380967405
,0.018091105248121842,0.3777983050587045,-0.027350943386328465,1.0755341413311112,0.1034820002395008,-0.0006376054019186484,0.1538760710894598,-0.19608301006985562,-0.31268986042029084,-0.059262639410277027,0.1391626527868351,0.14800766995529083,-0.05328875080183031,-0.9015310758053467
,0.06028730045600394,0.43139992766972296,-0.005706347009121444,0.2341037911788425,0.22157492039361998,0.15389004709493093,0.07953768196698292,-0.18629236248674633,-0.25058240183423663,0.15310526008506525,0.11443049673368647,0.05207008439311751,-0.014602497480617323,-0.5932187273412973
,0.2333501753630486,0.13564525971646002,0.021239453447122084,-0.08478384470541968,0.13102843483489768,-0.006131245888466992,0.1572309296592853,0.095154789761013,-0.31596701396550264,0.23053455482379803,0.10013813178994976,-0.12743762769899591,-0.10014825972699516,-0.18771500784855966
,-0.07548501663678998,-0.05680055675533242,0.04545162359151542,0.2654996575055871,0.1312141384134323,-0.0695447438133047,0.19719339838633676,-0.02210669899386526,-0.3587751533894818,0.29142695961129766,0.1967073172219686,-0.43399008004224493,-0.06258315024480739,-0.3312931270973618
,-0.08743212764046158,-0.06926001405686341,0.02528062140639346,0.8237422649440546,0.21885075037523974,-0.003107848939923655,0.05882397437452977,-0.1295452870823654,-0.3116375432008254,-0.0683396474036998,0.2902004175751074,-0.48706554298414473,-0.15729782814544535,-0.5894242018826554
,-0.002405578283747954,-0.09293140502557552,-0.17961329893230038,1.7160679768714113,-0.025603214416534084,0.1266130174817907,0.0007252741509237384,-0.23315864325666294,-0.14731359139642974,-0.20046574147496246,0.1309473172199088,-0.2503243230014986,-0.09492065956484994,-0.1857834840046613
,0.1264949814976024,-0.021296370965315857,-0.17278744878473076,1.4009454568455832,-0.6814991866792426,0.0718970890457127,-0.06370068921851607,-0.18358722842227265,-0.05564985497033109,-0.04541077792744926,-0.18745445018738638,-0.061404211470926076,-0.033881961894807494,0.19456396033605716
,0.10552604356825449,-0.24577702799636228,-0.04346771147300722,0.1412021602872441,-0.7173471426083022,0.09976354375151991,-0.21784635168750352,-0.0490773805366033,-0.09862515837317062,-0.316798615252448,-0.1358729016708854,0.046557441860464496,-0.13093486452158465,0.2089110320545499
,-0.24958899933884932,-0.08430297972583467,-0.2877377128866109,-0.09274447520777981,-0.23260656365191776,-0.03710437476727251,-0.2828542967010455,0.16543540632649426,0.014062984223222734,-0.23062896992928936,0.8874281597046885,-0.26473425372329235,0.14448194175199228,0.18467344868578298
,-0.23981870924614593,0.005994513074709229,-0.20223868052344723,0.5372450062827357,-0.08406096237198782,-0.10161121119437778,0.08410756581195006,0.034088226957753404,0.0808758177854794,0.09116178646475528,0.5876816575570151,-0.1435821241764772,0.014847179271694433,0.13892756843808618
,-0.14451715032621265,-0.24894441778703036,0.05360456884481178,0.5034246511921775,-0.2972624883115906,0.0170949349677302,-0.023546208847845272,0.0075682728051380994,0.14035334605579375,0.007327989365699673,0.19690335977531684,0.2436483827944139,0.40605353919688913,-0.41877394109042343
,0.11873431662323287,-0.25045360398539473,0.16182376500134868,-0.05334576659220879,-0.15384524075821793,-0.03616255850795438,0.04911422267828665,0.027958351377981118,0.2609655794952477,-0.26213647350680447,0.02672743409932011,-0.055427394291703555,0.22967788857555158,-0.5286747049819501
,0.17540003129833992,-0.214413915582913,-0.11740710762384868,0.6331774727300423,-0.12964283996679613,-0.1818347317874655,0.08691177724258636,0.031939267519940376,0.22266676253966425,0.13450976758304095,0.5292460819875774,-0.03676176256654578,0.14285354947475998,-0.32729015652050975
,-0.08706736899053778,-0.34237310306814583,-0.047479341169920405,1.0239627462616603,-0.3642969985018307,-0.22153277345423533,0.0039004261390310833,0.07219049142054418,-0.020451051527653342,0.33270067123170494,0.38313535576642493,-0.086506062095754,0.32157739512770905,-0.14703115950822998
,-0.4268320920682725,0.1985745519780491,-0.05302169611814673,0.6567285287939238,-0.15688404706455555,-0.030475337746255753,-0.0272464966065178,-0.10370715652575396,-0.09487792827100044,0.4210713714068484,0.28543846746922447,0.04424370965852066,0.12206055488917227,-0.16660719661540901
,-0.2963481185314711,0.05923873118319122,-0.09806255347087034,-0.03750496508547556,0.07958415500347035,-0.06914140030497516,0.1134972107661514,-0.17231827280758752,-0.4145214939383349,0.03770098201195624,0.1529641538307914,0.2633269024993623,-0.04108420105231081,-0.19124383051813107
,-0.2503998114079495,0.2658762250327535,-0.0172584375936417,0.3378591310168941,-0.3192833949521894,-0.2898695080596435,-0.009272061051703907,-0.09789167256778797,-0.2878694206248813,-0.06352495061731254,0.1312161550149739,0.34854898868752154,0.4905430246105936,-0.32345575957636813
,-0.24512868405045238,0.053918490455788004,0.08666969191792241,0.9848815326121958,-0.14850537552563609,-0.14275910498076436,-0.025491373888750123,-0.16244085517244525,-0.14900604786890267,-0.11708625896168041,0.4322639625001746,0.18655847876382547,0.3425359665054767,-0.2867310641413473
,-0.07995531865070211,-0.008146888049336854,-0.05335270775173521,1.3363423284261549,-0.2389153931542972,0.05265615529691735,-0.11381944176326818,-0.08744934356299054,-0.23616901161541615,0.1951722934683674,0.6336991661457237,-0.04381671644869459,0.10943067953691513,0.14156130672991007
,0.25319249674158334,-0.13585963587560046,-0.1575488922704663,0.5046878262113013,-0.014429724059707662,-0.10753731859769253,-0.2126896940825877,0.05422756369965534,-0.2212288766159205,0.23148614776990895,-0.04376216454637545,-0.15467334068287014,0.1764248113064102,-0.14698406002249262
,0.47239471954622586,-0.31439766454968987,-0.12893784143212736,0.12316452694806317,-0.069074825026501,-0.03660818707418277,-0.059290252733442315,0.0477486027159473,0.0010335081977587833,-0.008170545602940504,-0.4805327464727914,-0.09716411394029946,0.09372875364030706,0.08629242485548774
,0.05087748999256985,0.003926709342211761,-0.06349780682439604,0.8851266444131246,-0.26109770400403753,0.2224847731576957,0.13176652677317507,-0.1368771112051049,-0.13149884273835996,-0.042825569516618346,-0.510841359526565,0.011818659926089204,-0.07432712874490423,0.13025495116930608
,-0.1606092605151765,-0.016885616441938294,-0.04011724923328351,-0.011292172324993056,-0.14165306534674008,0.1745106072423609,0.0005560571040179776,-0.08406113852395423,-0.08724965308597052,0.28007554227944115,-0.5208201937790835,0.04675026544133361,-0.1560760293248879,-0.4100139719483794
,0.04737898955352025,0.2981243712547908,0.10032874719902642,0.047650187057054885,-0.10329349436909988,0.05869516018257805,-0.05768517263436397,0.168751705682827,0.08179953806059194,0.3605018343780105,0.16263840642140337,-0.12284112650538802,-0.3553974689651626,-0.4578172629213805
,-0.07538324375324279,0.22430318633980378,0.13046346777658638,0.22211991386209498,0.0015110567626810095,-0.018115978749566664,0.058037303828632494,0.12773862759186666,-0.20144876983337548,0.21461773525631228,0.3550407327704328,-0.09877762302488069,-0.22734702704622042,-0.30379850187939306
,-0.43149203813189957,-0.2806854849520012,-0.015005759883830976,-0.05226035276735511,0.1149903992928455,-0.03391847532719371,-0.07105858004235728,0.0735338752782039,-0.22291514397850487,0.2195583446647711,0.169269258079779,0.034861127286438774,0.19934081297804934,-0.3373303757901694
,-0.20414827766074978,-0.0768991425737714,-0.029098372244852674,-0.2122930011624984,0.0596633514472992,0.14650659083594397,-0.11320721130210581,0.06485081274003118,0.09275452555584102,-0.09917801141766498,0.3016824420957258,0.1232766696791485,0.08404441478132745,-0.4965087790256785
,-0.05468195129372002,0.24128965692378582,-0.0003235136896442316,0.014339438173980177,0.0526920637901572,0.17535077875071722,0.284557386385574,0.05018037651600302,-0.1680138160412458,-0.21172464535501725,0.6572077036169928,0.12801865834076787,0.27818245539787534,-0.24744460676593927
,-0.11289878977244301,0.16401602416770839,0.1315449818179238,-0.39241917376542707,0.3210065108049341,-0.05304035513968447,0.07905107306430452,0.061238597767236114,-0.16469560413555762,-0.30128338453145315,0.6932256386804081,-0.013903936404165982,-0.2900292351391202,0.27177085953294106
,0.0725135206416121,0.1309895863577622,-0.28796468233768235,-0.18864826626937645,0.16621579788356733,-0.10867554868727575,-0.12202921731240465,0.013602734096768078,-0.018689152341928614,-0.036149464589369545,0.7674412082349885,-0.016343691653230404,-0.24465977523430568,0.05591115899822807
,0.3128650335184898,0.20253474399982893,-0.42101151449896207,-0.014503543733992838,-0.11272296701260749,0.04967434376144883,-0.10383335128785663,0.21717979863374745,-0.23163508767906515,0.12465154222121433,0.6424793588942144,0.014073292920219428,0.15430243247504194,-0.4647137540812069
,-0.17950315923100307,0.35835552456401193,-0.1742946428973094,0.17304737834692924,-0.11065957627814067,0.15165492761593588,-0.18580432901365906,0.03710615979626695,-0.07316999860763902,-0.0648194186754901,0.5827630504783534,-0.14436617716675645,0.3664074975514595,-0.460867088735347
,-0.0681777446114144,0.5412965612414639,-0.03925075653082059,1.2259328360997623,-0.16536891891614572,0.17351404645509094,-0.1180581806937281,-0.10183363457250283,0.18447281106735489,0.09720399064991062,0.16281721369208582,-0.2074070452473281,0.47653172075828576,-0.3796294302884217
,0.5381962105714925,0.24337207741896671,-0.017156941725650927,1.3749725690992984,-0.2763982737027876,-0.030036971957483494,-0.27664830297252274,0.0923163195177252,-0.09913342750131755,0.254084800033777,0.19040475176955166,-0.07932518572730562,0.26067821370479627,-0.23378778805475187
,0.6145536366672507,-0.0690773610887653,0.13481448792189257,0.9362688125436894,0.15232390507042873,-0.06666047550037725,-0.24699111036842655,0.06639834072834108,-0.08381663205927534,0.22142850286870178,-0.18949930154765224,-0.1542017285919894,-0.002730403315205146,-0.0911285156858315
,0.3250074395612788,0.15474808812696825,0.06326444313747713,0.33891406625143394,0.19167003899242097,-0.05523884253935387,0.027628228621956012,0.13784425405146875,-0.033734772496598724,0.27801016041381327,-0.9344495184444224,-0.12317343536524653,-0.12455992975317559,0.503448133829782
,-0.13887855442452504,0.4028373678850558,-0.09710117213094116,0.32906466342981855,0.12318687756508966,0.028614452907582143,0.013550369819021113,0.1759794913135095,0.047179997330093794,0.23970154017000178,-0.5712837391540599,0.04019388236336463,0.2328860003294175,0.06646357892174704
,-0.1511506867404309,0.4067030162212166,-0.047721149180392566,0.07027498438709313,0.04369211948997589,-0.06982046944628569,-0.5334569702259079,-0.011076474658974506,0.22894778889882203,0.20861234056987826,0.3294195497225612,-0.04140750709588294,0.39095353575808495,-0.4165033390212266
,-0.024244407912765543,0.3245727641186244,0.16448099591769597,0.46664517165055974,-0.0009996239188983012,-0.1279277555309175,-0.5671554975661041,-0.08945953177526443,0.2540906382506888,0.17866090944311117,0.48802934257001,-0.08662709903908677,-0.03647678832692056,-0.19781567121086005
,0.3353013077975413,0.22457622196601246,0.14467814376953378,0.48791230516303646,0.24294446949991022,-0.07724549832155166,-0.21447196776272703,0.04211954560051793,0.10399403170022116,0.38001677297527436,0.4669558374095618,-0.06121096264963927,0.055323336814639475,0.029361715731524688
,0.056772992905302654,0.30002144566080013,0.059787957907053,0.7596023171992972,0.5021029884524564,0.06905313700927646,-0.1682276746710559,0.11874473402222013,-0.15096727837473087,0.1828906207569306,0.7254773039513956,0.06373448723940629,0.28156127616847276,-0.11414278294569764
,-0.35005906161555067,0.22970956417864394,0.03488488361926984,0.582280362413245,0.41334733118989625,0.09348867688968217,-0.053263159149929254,-0.1640888735685607,-0.2959009096944642,-0.2372276088418658,0.4465569556567483,-0.1369998273812356,0.14431051759848879,-0.19491609247787425
,-0.28147111446767986,-0.2898864347368007,0.0470723766065424,0.7425798662652975,-0.15411834462455193,0.1900928105646292,0.07899726653350395,-0.20253000582688008,-0.2105392911948513,-0.42536925495294003,0.05078789835935335,-0.13202875345007622,0.07000294026883372,-0.1760363130430099
,0.005871342370797574,-0.3258712403948478,0.11484838543296016,1.2543659718250773,-0.36491943939682997,0.04835712832166595,-0.1885874960769146,0.17550020743355849,-0.02951599853633501,-0.3891069069243889,0.02074217914750459,0.003920818522624258,0.025184547439524575,-0.30419191173634763
,0.3686923898179864,0.1837492081478548,-0.044993435422811784,0.6667144742922934,-0.12991992559178703,-0.13681566139712859,-0.3362816791749192,-0.0749679593359781,-0.06082601430994274,-0.2346270572897041,0.31162376320976154,0.09790503539835546,-0.0020284606663889134,-0.5865740248805933
,0.23885565089166694,0.14319443640990231,-0.1479712745380099,0.30118204415912186,0.17960862061709054,-0.14505462337655878,-0.1751742251023135,-0.11783313798762338,-0.019461919228962586,-0.09705531794390812,0.0031952659267164398,0.18701958144113856,0.12769088684518057,-0.34685205974306493
,-0.053987167541310895,0.13101183807862354,-0.044580022490624094,0.33203316331149696,0.05191692842058666,-0.34034554742424283,-0.23331091829369408,0.1686180856109997,0.07790143414654112,0.1430996386878243,0.17577587406196846,-0.06976011352145572,-0.08288442564430491,-0.1166427389006746
,-0.10267831693389717,-0.04509073631413941,-0.0549171768608031,0.4252897373228524,0.09985613183272168,-0.21195960237495276,-0.05364265018503921,0.22191196009935463,-0.03311721874147421,0.0826430678165446,0.49438747243861675,-0.1028122967174251,-0.2858610101835015,0.07309728830250874
,-0.12108536649112524,-0.31181197793394777,-0.06712112697989495,0.2363439377290891,-0.17957107715168683,0.10899121767264575,0.09537533811373028,0.20356689364561747,-0.0373080897272258,0.04291354495023725,-0.10796850371195219,-0.10328416517698516,-0.17913416371096527,-0.4353318862900129
,0.07047623826654417,0.050158574932483733,0.07564985401867931,0.3663582630163159,-0.14649858324174442,-0.10153674688421098,-0.3589078280847261,0.05700974636737457,-0.000856015099077858,0.09577885475820289,0.0849002478259382,0.036145606934170384,0.33327584162654,-0.4072763103528662
,0.18661598296772147,-0.0030246824904874383,0.17080757886067033,0.771076957532807,0.20919178779926942,-0.05611807397543328,-0.4619747661505304,-0.09834801601229962,0.01622414617247457,-0.05438497936795278,0.5694877192697965,0.022184246392807486,0.0571236715388764,-0.4195016158020568
,0.1799022089252221,-0.285826153250109,0.17077491882281698,1.4728074405363718,0.327303759112421,0.07291577640083895,-0.20644709203116923,0.09939537385800158,-0.1975831761118972,-0.3621216212005855,0.6153405356023728,0.07071962610198046,-0.06724537725076525,-0.7431031400853276
,0.23954015557973163,0.10596444066791552,-0.11017926788547645,1.0710568121197659,-0.09247172451057464,0.027014035746517596,-0.11156939577150796,0.2272070089832622,-0.1452110616161406,-0.09424195781584939,0.25265359130480003,0.2026072343833443,-0.053289513066974166,-0.6791803135007662
,-0.15434455498804178,0.06183910512044387,-0.19400602328125047,0.6249377580872876,0.08111588818788915,-0.16384711019446999,-0.043974005144394306,0.09854437113468181,0.2053268737488272,-0.06258852460105715,0.012354499089696375,0.14980666623556504,0.13903603943681406,-0.4938238302425574
,0.05734482118598586,-0.016662604941209733,-0.04338729245800885,0.7499368632739272,0.1244195179099645,-0.1154086065738347,-0.04406661124635392,0.0972386992972364,0.0777683880222029,0.19268077326696068,0.5279274870224102,0.15598167107133878,0.029160425719787112,-0.27731994492578604
,0.34944011444416606,0.37128098331717513,-0.0234896851773,0.6436667490399833,0.23361586382427973,0.2585600859397576,0.007663858329190859,-0.07339050969158746,-0.2733863152037246,-0.14304530370770926,0.6750574976193842,0.10316245384240694,0.07491213433008011,-0.5262822713105101
,0.3321192847699698,0.2523381052251598,-0.00331352948281956,0.9742947444599354,0.24348575270807862,0.044225918074915854,-0.14971366611425221,-0.29886852219793636,-0.19030500603694828,-0.0023565854778405315,0.042135524032025654,-0.02161189468896628,0.10654287294762123,-0.48526403301549
,0.2170507038969452,0.2768143610482351,0.14087228676218078,1.0591683568107992,0.1296898211783717,-0.00638714970725704,-0.19007457493031857,-0.28814171665761246,-0.02015862758783964,-0.25371380049876807,-0.05098006252440859,0.033077255767749204,0.10408209435052593,-0.06649244604925807
,-0.03172465644207633,0.419137503425803,0.2206875684724495,0.7756716354700808,0.10308484303204739,-0.04068058166312717,0.055775917447377046,0.07583558782529866,0.19515908173007146,-0.5209253540131054,0.15737265038408524,0.01726106672341734,0.21304343693555255,-0.0025095081381989576
,-0.1863174605293846,0.48429131502633416,0.21032577897150406,0.7044313727525258,0.4438464553095952,-0.11185223632885163,-0.03219739013639728,0.1447874853513617,-0.2244864342858604,-0.21148055037843635,0.427833842945061,-0.03589755078240993,0.3184660739785902,-0.024462729552128085
,-0.28957956111034916,0.5278861159898981,0.07057934166185036,0.40824953028669664,0.12526360619433,0.15740786245657917,-0.10093120731508785,-0.0702321649851778,-0.24112511038676776,0.1084697452760269,0.6272745405175645,-0.07639495906405783,0.5170390860734098,-0.12926627528039536
,-0.06589683102992948,0.3535199420794898,0.04395435709889446,0.6886058585189151,-0.28124437067377384,0.16741025417007702,0.07952279660037899,-0.05343426452035187,-0.2232712021541449,0.037171482019658475,0.5725617885625696,-0.14002540411976125,0.1383033097552937,-0.1687407070833069
,0.18651945412203164,0.049068635777843636,-0.04162709561690133,0.49732345597366184,-0.19696192443144328,0.0005033592638121143,-0.059675265671983536,0.002741498843214254,-0.17133519810353443,0.25632454494558354,0.42178155584395743,-0.01719743245841408,0.23108200933986292,-0.31704764052326495
,0.2556700225181326,-0.24230074669079427,0.01271027862858581,-0.08368265746799586,0.07043652836635673,-0.06891105676566094,-0.024072845134293613,-0.012592735405115041,-0.1992187884589044,0.23145208306463133,0.10346871571407387,-0.006336351569235241,0.022196169891265494,-0.44248320635642263
,0.7633172376242715,-0.19687871985433839,0.031374811443980334,1.0756233062023264,0.5002294438537669,0.020545841805174027,0.21062767827124496,0.0019769421330908324,0.04558758737440186,-0.07982905875742681,0.22178355526023072,-0.023127364646292142,0.1756660560419509,-0.3432108578652809
,0.23393161063600706,0.46441297063349085,-0.06699340636214418,0.3420583458783561,0.49043867689616144,0.0044386066130951375,-0.042511063070959386,0.07958915172620708,0.10419680250130374,-0.030005971786567505,0.6132215554944768,-0.20590642489255687,0.32048551229170796,-0.6900179737560036
,-0.2910034576110622,0.23551131055325664,-0.02975893430182625,0.17077195391637282,0.028087004422644054,0.01986119238514448,-0.13127870362992508,-0.03143729870942165,0.07230744771767189,-0.0152968836638005,0.20875158874282213,-0.21353813881244485,0.10738353853659086,-0.7767953719829154
,-0.42235145668978696,0.020043061551444405,0.25286349422307886,0.39712596953814083,-0.19128629806054118,0.08979851707566641,0.018355372512934304,0.0779174519115603,0.16058263138597148,-0.12111631215503138,0.3176170733288637,0.022931735293514135,0.03874410370450873,-0.5083061425014438
,-0.27586616449732104,0.20568177924197534,0.07743393720436538,0.36685326736800616,0.17210598651404468,-0.015089185816965774,0.007986703992424233,0.04722196449229031,0.1845844848302699,-0.03445013701645949,0.4636707695649939,0.06384120483600783,0.12159988730531036,-0.47718559458466936
,0.08685402510475441,0.4096691888572779,0.023086922001426147,-0.004526162189138861,0.08842891251381162,0.0098496075657434,-0.010292888622756886,0.07774436127416993,-0.11477070810599119,0.17102213438781427,0.2584204183626943,-0.08129451365742364,0.038357059104204796,-0.6545562649241831
,0.43643169004857607,0.5079088042567002,-0.016402756462085506,-0.5207316651287379,-0.17739721073635953,0.028257358216907207,0.052327234914117345,0.07582575428221727,0.05227475573513572,0.18831858853837852,0.10862130513498186,0.02264970026256646,0.10825632250843253,-0.5146760162842416
,0.4422089541503633,0.3038076106316915,0.20594348322270273,0.19811233758164024,-0.19166658073118284,-0.08698567250610609,-0.05015177241374637,-0.2899256962423452,0.3850633631478925,-0.0550470179891423,0.08713485099017096,0.10084811733411622,-0.19024717943344685,-0.6020686411277515
,0.3212361537803253,0.14901042693379746,0.14831822415083545,0.4907575308211552,0.17185916803020393,-0.07251274432378678,-0.04391266450973577,-0.27014402755993216,0.05734790957444257,-0.10215419576529734,-0.049395074103260286,0.030516922187096153,-0.3164972973664772,-0.5584852140705782
,-0.26628743991809734,0.4614436556169438,0.05268966010780755,0.05672040032455984,0.07701537244406083,-0.004860514908883088,0.18258482651203514,0.023788639887221713,-0.05178129886538402,-0.19277208023693498,-0.054454372956568436,-0.0636658023876652,-0.13899365225670435,-0.5187532464077015
,-0.04664795050941841,0.7009365006366909,0.18257368661209944,0.76216657210378,0.07135466205056433,0.17614099803333766,0.14332526137932708,0.15046418108447565,-0.030573914298563504,0.1649041273206242,-0.001009727830112871,-0.0398241225973919,0.06168654638358959,-0.48610186357708507
,-0.024858690048212378,0.018077385361973244,0.13375039978520556,1.3642406099865387,0.11401937393098162,0.3280154774429156,0.14523979777714818,0.02706826173178757,0.028900140772150206,0.39517022084831155,-0.05183695819674928,-0.011185703264767012,0.16569447155909464,-0.5472480628183105
,0.01959728521062994,-0.27343595581721647,0.11151458840118159,0.8934435141951552,-0.14993520787053416,0.1446304368529906,-0.00881719760456094,0.05338313576917318,-0.16871679021367647,0.1644914457309655,-0.41894104404956156,-0.06761892689478612,0.2817971404308588,-0.01972220677836879
,0.2282925051559838,-0.043629643997693444,0.04196601928069579,0.5028720250731202,-0.08022206257757411,-0.1364619039557819,-0.08998738130683719,0.03899530049380562,-0.06886467660908531,0.17572483730290042,-0.38348396342438146,0.044036293423763445,-0.027787976846846193,0.14963476254921126
,0.18545193877280275,0.402174481549504,-0.084881335254787,0.7610061128642709,-0.15264227729547944,-0.10972901129146287,0.20655498041418097,-0.08615819510409696,-0.05695681398288859,-0.1627773692432261,-0.3191056382729553,-0.03837583462371199,-0.12351650150531619,-0.12294152335985047
,-0.07935804883732389,0.13415742258481017,0.08167731333153345,-0.10481643375729208,-0.08814698951453778,-0.013058229605598135,0.23748565171942507,-0.020586569332804092,-0.2073675795436272,-0.14031012282981786,-0.4462263669245994,-0.07773153206042333,-0.08606982217288979,-0.4412219446071808
,0.2987493409286332,-0.1599488434565899,0.18893881370891802,0.01873650394492332,0.016580250061140937,0.11591862650740711,0.08629937442137925,0.19105667325270057,-0.2874540279344906,-0.13675511781425503,-0.3080785587483813,-0.04434743244701803,0.2237858929456291,-0.7662900071547616
,0.3875096225323684,0.026627764844126933,0.26659467051067065,0.4847773748287393,-0.26828397439306734,-0.014085028436231183,0.08552919209944132,0.024330737155091747,-0.37734499057008575,-0.26278410189213036,0.3831191814431335,0.04329836886664425,0.40876709233471853,-0.5312948482126952
,-0.2733286816763564,0.1366403708209263,0.0913820150135084,0.3141529672234311,-0.35049742710460446,0.02408064934842401,-0.048288615572977533,-0.16303839082000382,0.13003560769478928,-0.11365893651826503,0.24931653079103247,0.07404685899543725,0.21959410043750965,-0.4321437960225781
,-0.07550218456629201,0.32288062130131173,-0.06196840966014819,0.3991544157043829,-0.24220020538487413,0.09765466837915773,-0.12134255348182976,-0.06808780357358911,0.3091856068754654,-0.17352103842672725,0.47827942253368216,0.03349448810238751,0.2234663895414247,-0.5222143281703486
,0.5139875710787514,0.6320043948482217,0.04074550575492709,0.6525965460803081,-0.12197581242733468,0.0315856729451459,0.011992928001115994,0.06751724468592851,-0.011442535982559109,-0.02377441003281712,0.5248109674193315,-0.03713688961972752,0.1641650975688804,-0.3433467302228074
,0.12808269734528932,0.5361332016151599,0.1856175268235601,0.4820306455210324,0.13218887775864346,-0.026003907529459958,0.13819342598574938,0.12574710197173136,-0.036499853748068786,0.30831055971987376,0.10626935601978169,0.05589906802987348,-0.07639194705314539,-0.2906911176308133
,-0.31794818158383975,0.027612289196899575,0.06423853318171115,1.0235616340313696,0.01454878866835923,-0.16607322998223126,0.014506281466401774,0.22772739758710767,-0.14155429971249509,0.10151287501548614,0.05358024290394151,0.07588678817050233,-0.0844699719412059,-0.6169576041319665
,-0.1934121068737416,-0.025660670060886286,0.10540742670290015,0.8760085601078609,-0.055028990518426274,-0.214163768603722,-0.0814964046773997,0.25598856100258144,-0.26988752807579525,-0.05380833229415235,0.06489971695855555,0.029346025772255296,-0.08373238875788175,-0.5760676545318114
,-0.00030750505715889824,0.10038814299314006,0.21778432474636847,0.4785187565213988,-0.02093399173728708,0.13485286049780532,-0.06395376104176957,0.3606995599426392,-0.1794061024102234,0.2599731832006067,0.042215468847821305,-0.055233475219578373,-0.1574482943529496,-0.5410037741413594
,0.10525458010798897,0.3073062866969654,0.1109802338758502,0.6036493276612656,0.014048975211671375,0.054951705131963444,0.0013561612206951974,0.007985384396556622,-0.06400603246532009,0.1803489234531748,0.23118679098204103,-0.11362507838449581,-0.10152183723385476,-0.3587812162283208
,-0.26210945194070484,0.00256715856349809,-0.1949782360478525,0.33375496297894486,-0.02458765139330006,-0.03988252417257948,-0.07728920639905652,-0.09165881759610127,0.07556146164470888,0.23713172982835193,-0.289140568289664,-0.0871736219543433,-0.013202633092709594,-0.30328823099683444
,-0.06388519851554225,-0.15025267407700862,-0.012435141144489107,-0.02907975958882038,-0.1821898258633607,-0.039991229633424136,0.13005156883798658,-0.054675363771728935,0.1881605940486416,-0.0788856563917245,-0.36594898181155033,-0.07198658324756566,-0.05964031871195056,-0.06047420927838702
,0.06018389394051005,-0.11779297381232996,0.29723378628283803,-0.057815214935217706,-0.001356588410192118,-0.12455960821140924,-0.19819247092068903,0.04351224601889904,0.3159787997511861,-0.34133311267316574,0.5221093431813459,-0.06193349147601543,0.07774538516520858,-0.4212215926903351
,-0.3422458885151053,0.3624277605408863,0.3816736403465187,-0.3708538596903482,0.12793905050467108,-0.15141656720436314,-0.11880942156144826,0.030385542102374905,0.3164671198092813,-0.06468691227565657,1.0280947216066971,0.049289541343960595,0.18245967117799747,-0.48427947271999
,-0.05114484772489932,0.24034495455023855,0.20604698615378852,-0.5916917935876023,-0.03141951422406328,0.21648614909785668,-0.032499314989839684,-0.16702067977753798,0.027441744110082666,-0.0037768777769421856,0.12721051875355824,-0.0539230035163636,-0.09252471548330468,-0.06041446992958232
,0.133821390329231,0.48215711949771367,0.09281010380821403,0.6903554167837137,0.07978467570631909,0.2871191863798596,-0.06758059473289368,-0.27924474447007097,0.044405632370646785,-0.12944466686672232,-0.2557049194359014,-0.14659335493376321,-0.06712670059818165,-0.0961327748224701
,-0.09091204116146878,0.6763158921513369,-0.02238691158601219,0.831074188208519,0.04003442968381523,0.16251185784927383,0.03812215052535353,-0.09826463928895159,0.0641235105722962,0.010266306491904824,-0.20973308897118803,-0.1587420401239787,0.33231959599855887,-0.42632455629343197
,-0.04681400603446122,0.5170164603356578,0.038459902668712014,0.3529637746905628,-0.00695737895963463,0.002800816354409457,-0.06879986755984586,-0.21315044828252475,-0.04201073534283995,0.09388600587150425,-0.10826431072778676,0.014711943327221547,0.14890525927244325,-0.09112401262983355
,0.04692464371150418,0.3005567614741037,0.07855135081400488,0.6305997342218715,-0.0009869863180849024,-0.09112186848117723,-0.11287437712758035,-0.049003759964386585,-0.09353717629642806,-0.04769366392893996,0.30087212067163377,0.033122031889165675,0.2638051244495171,-0.15775994197556878
,-0.11122082891783631,-0.09495361938967291,0.3157839363213941,0.960354181788059,0.12089437997121616,0.05879504471466989,-0.09512121518913964,0.2159962330451785,-0.1229011790010461,0.061942824547482955,0.40147780930779,0.042228513287887987,0.13286064414814525,-0.5584377857318488
,-0.28769653159168374,0.20272154961975988,0.4519958960247569,0.8472146329137049,0.1864597268841269,0.34346015604806457,0.118947595285295,0.25278658227468404,-0.044363401625776504,-0.07641026006360063,0.8055920001376776,-0.08496064195210856,0.10194545301049916,-0.7001933404694562
,-0.043325398609328485,0.29067420635000846,-0.033503772808179885,0.49652351221933194,0.10573095476854312,0.05026088339347083,-0.19155159568117197,0.23509515973866754,-0.05427525533359757,-0.24513728728909168,0.33472103191249764,-0.09727020652872016,0.22627361536640042,-0.36549515712186287
,-0.030353268024732163,0.46932952674981776,-0.23059229968758185,0.5219847137229672,0.1918145752169164,-0.0787553756475344,-0.4294568538558766,0.07195563766051263,-0.243275610495918,-0.0800270296313625,0.05675169009607809,0.07598928945930883,0.10018845780451378,-0.3818496631071333
,0.06790464744046418,0.39110664904872283,0.03556985322202153,1.0675776384168227,0.1775451765350412,-0.03545911575487555,-0.15988503219361036,0.024596241668148545,-0.22850089978280858,-0.05177341691836114,-0.16687519191649247,0.0054046136403530076,-0.1607581022939726,0.016992422376120777
,-0.1118925961385246,-0.04974098591603826,-0.06791809381179104,0.8974591485513846,0.016769074820226944,-0.028918166116810456,-0.014783457716527075,-0.15701707177546964,0.03222536014048167,0.03928251800401413,-0.024211219633421634,-0.008043990317312056,-0.061067646101654494,0.0314344884051669
,-0.045458029359009916,-0.12694372446201285,0.027553624790267774,1.25383325167183,-0.14932446505023989,-0.05226512089701245,-0.05661362757922967,-0.008764201866946925,0.29740369589243904,-0.021633278899291508,0.10416485150576056,-0.018898381841072006,-0.2759255871883433,-0.30020282572592705
,-0.13823370560685566,-0.054806694384166375,0.24530328550072872,0.29920198965238487,-0.20369889277039194,-0.008722597352450992,-0.06408171561735759,0.08550649106593337,0.3199215912362399,-0.3833094321253326,-0.05360269030594671,-0.15497901059524202,-0.13417157116696288,-0.4637582694760618
,-0.37231121201372996,-0.09107055646671075,0.29923993569897267,0.2378575685338523,0.05174959951930133,-0.006093132899710222,0.09093378234604675,0.06556457351295525,0.08809572322876967,0.10084337938641895,0.07278928892056599,0.013672618094548014,0.16783646219027387,-0.4138440934622566
,-0.14055177781496553,0.049309256747777974,0.21064807699987295,0.6234021342246239,0.0006582087891774385,0.11899806878296929,0.2119299934748102,-0.03385031475405956,-0.11471831598993383,0.8672494382761922,0.27471608796702607,0.036039293873128916,-0.02660499367458214,-0.5152154038227243
,0.35710798735389604,0.3956442915870644,0.24471350581645623,0.5341257244552424,0.35859435495128084,0.09860477751248328,0.05860655442643572,-0.032084276646334696,0.157906538362513,0.5317817836424831,0.5621825555003221,-0.04028303908138259,-0.12131444183720529,-0.4635089748468219
,0.09894016944640109,0.2190333760313738,0.018466340950662206,0.18236272886033508,0.31091922102154557,0.07382196324898262,-0.013956301655009896,0.08962674520154665,0.0808304550169724,-0.012956377069725572,0.005252415585477009,-0.18979016903527995,0.06562738545277522,-0.5591685935376568
,0.431403438328025,0.0892562817921974,0.08064189128372697,0.5079077805933185,0.300533897954954,0.06875264489955783,-0.03435509854889188,0.23742460359406334,-0.0684274473543922,-0.2051701419150752,0.04328008431992783,-0.023155705998697117,0.08248059336950976,-0.1949485382474717
,0.42255682803266226,0.10874208522234663,0.1926456656219429,0.202794044663459,0.4294691056120687,-0.021017242214955264,-0.049954445529381435,0.013965398689217527,-0.06191658986227163,-0.15872597141164121,-0.09459151944293683,0.08464523027045773,0.05707270128813748,-0.26074713489549883
,0.23629417674959172,0.023478323922529368,0.09178478668888795,0.32856071938154446,0.630573103831735,0.03641295140954755,0.013920155470530129,0.10137432414518013,-0.06599285617173987,0.11807907527964691,0.3831047770360022,-0.05192893876934628,-0.023479554967325195,-0.4961543383973386
,0.046768141541744884,0.13661414223590207,-0.030811369648584813,1.0870735487576448,0.10289544620035909,0.026163549074938564,0.1600861681628686,0.10943555816097035,0.12488116134913962,0.16186469994812505,0.8842724279064595,0.0880675395376086,-0.0826125552843078,-0.7361754681609352
,-0.11615679893759105,0.059920160311946566,0.11670046679179459,0.8852470800338869,-0.043819810627126574,-0.029914824145382258,0.17028572711575904,-0.020053743765678964,-0.059817117467841824,-0.13102431941210502,0.6069314403442563,0.1353985920631949,0.029036608503699907,-0.8257900898551593
,-0.26615664595830985,0.3087905931188047,-0.03845165190712047,0.5949427665663772,-0.11415530974444547,0.027609668306801786,-0.18368423906871292,0.07091877481353734,-0.08590279258530663,-0.09066492676887608,0.4252341026813346,0.14742849783607076,0.16318270457526773,-0.4278751782179047
,0.07478445373557076,0.48461845731953385,0.04569975496861361,0.7710201582682813,-0.19334568862551277,-0.273611293432834,-0.2283263070134292,0.018011015828993324,0.010570091403326305,0.16717831822970708,0.10373009664725379,0.22248905217415885,0.20649199189917766,-0.4571742424861302
,0.060261900508323564,0.2378789114704442,0.02835188268129837,0.6068504266565379,0.19329532597797405,-0.19703383533081834,-0.025458511161156574,-0.09860487314526237,-0.014150231456707506,0.25425509490675613,0.5679829052824383,0.3439035849800078,0.15804145296952898,-0.26884920037270715
,-0.28831733993792896,0.03807426609604217,0.049196712574768875,0.731269291893846,0.11183004196455242,0.071051821879606,0.08157208067598713,-0.21838607775853608,-0.1706574995125201,0.12886995088377853,0.43841117576990307,0.2488925687027007,-0.05927319580571814,-0.0576530352364099
,0.009331777672343543,0.12707256116875718,0.2568206842850132,0.5399122910560273,0.146275497895597,-0.03469715346818239,-0.045240194519779425,-0.06890696956420607,-0.08261248094613825,-0.16291250969435594,0.1485975354685381,0.01024026010613178,0.026884335376196958,-0.20257079170490008
,0.17072329153981963,0.3113809874240966,0.30646714225804,0.0694657193954567,-0.052872293697117094,-0.19538799792715716,-0.01286768482939504,-0.10547436511021116,-0.11302106382398579,-0.35378952486737664,0.4401628041317283,-0.059219781432187486,-0.06327923740700954,-0.48350289489627196
,0.7067633938150185,0.4406337425886021,0.0504738212956695,0.25948889412487275,-0.18465462613222583,0.030020786664738383,0.1141869366227484,0.02746777196349147,0.1487959918531708,-0.08669460462160226,0.48647610178050155,-0.08574719537228735,0.08940461251360972,-0.42108678785744463
,0.5424674350834621,0.2312444305612118,-0.0022749229322218656,0.883960822902914,-0.07657574953830697,-0.01283611108181447,0.23918079051701702,-0.10542772449652832,0.09357220273380566,0.14755476163459172,0.1617820224827444,0.09911127662054538,0.03000782593574949,-0.4784477074971799
,0.1437329614632579,0.044730321601365655,0.1244638967248591,-0.27468209711386016,-0.07217760000037718,0.22209841394994587,0.150219682755765,-0.10025665230423529,0.09077646912879223,-0.08912999128436912,0.2504157400151925,0.0991018113149847,0.12511379288932345,-0.25668643704237765
,0.32412294304003,-0.13772334641258926,0.04297263410370216,-0.4506034468117306,0.10271587403262548,0.1981712079566097,-0.03530406056652947,0.060109823417566405,-0.16738635581121478,0.05902746414925479,0.5920070350952141,0.016430966646524187,0.21297124211705598,0.06938339911914675
,0.27048748832859426,-0.3267644302809721,0.006534953479291404,0.28614280282287224,0.12621683856522278,-0.013900076070702724,-0.0060645725776293236,-0.11123944532389902,-0.3583659997316203,0.29313141189070235,-0.14208009843100983,-0.04660064337365033,0.2743825548795772,-0.18479123562649247
,0.16214728637160256,-0.14078374156651266,0.021280049225723876,0.8253289024917008,0.3423417575883927,-0.20848905187643127,0.16175770536564718,-0.02239550469401073,-0.19158776032718222,0.4247064845106474,0.12697299796442796,-0.1177955514013338,0.3152240484533789,-0.4161239939438624
,0.1599971340060988,0.09342558119438696,0.20380192124322152,1.0251357496703168,0.3597152084960589,-0.2580069089523846,0.023811913182595366,0.27264594631010686,0.14094014900046717,-0.07726974655226068,0.2742897986449424,0.022222599402317716,0.17654052434423242,-0.40548386660849906
,0.14278762629096378,-0.18978321733768294,0.11404212106372047,0.9056782308758317,0.03914308069532405,-0.005501334721705825,-0.25093750472756393,0.09697057507899043,0.09990220493064124,-0.06469485240043221,0.22938891695258604,0.18977398380740826,0.32313657341745566,-0.5104204811303085
,0.5090594920778438,-0.1266128214465322,0.10982187261023421,1.7143754422097837,-0.058839253027663345,0.11451680966725336,-0.21279781187962263,0.32088477969451207,0.05788060278720886,0.3382501615566685,0.41110819417650496,0.2358742391340323,0.35820045761720837,-0.5949402943431403
,0.5299097074571888,-0.17773438263551009,0.17240821190393002,1.7185864441558534,-0.24826464838309692,0.00519591186880441,-0.1695384451800272,0.3811796651809811,-0.13241019812691557,0.23391417105739462,0.06243297103121176,0.12330266546203364,0.12513969110572104,-0.35389486207585996
,0.5786165369512162,0.3598040913749554,0.30811434246518926,0.8444549239210556,-0.4292232370831996,0.14245282084662145,-0.21547539665953772,0.043639749075367704,-0.3866272879214473,0.017689007646045474,0.13043246330429503,-0.027977115722291054,0.10344888928554818,-0.4350759002852467
,0.4922096695697359,-0.09310821028755835,0.2144127924730307,1.0670103810272058,-0.4513924229148953,0.18567746171513858,-0.007267875853100215,-0.16139804458736132,-0.25725908185328,-0.08166056798780483,0.08772935769978919,-0.2559122415241257,0.31793262167743463,-0.7262075957529809
,0.13961279301713456,-0.047784439463172214,0.17381829723779516,1.6194350902525667,-0.38258714465485594,0.1534820788843991,-0.0466284425569998,-0.18855620858484728,-0.16152819479371905,-0.02667955332111766,0.5291123352269147,-0.10278902619686014,0.1494957539848797,-0.7678127027990159
,0.265606928928873,0.10316554369849479,0.11220769457740463,0.9154503290552584,-0.15340237989128347,0.13947265027414735,-0.001986656382306664,-0.0673180019738947,-0.07782313780345831,-0.21554472590294207,0.6167397213786702,-0.21146717616140456,-0.16387773436231517,-0.7362941810021886
,0.33815707254967253,0.414662486929616,0.2157205536521518,0.87633021712913,-0.15105630360147382,0.06059345219131158,-0.052567968850684176,0.14440040326137632,0.044431892936174576,-0.11739007075286713,0.19273743982271377,-0.20552380748804924,-0.19913678707451768,-0.49966574733432484
,-0.048187016662129975,0.5198191610095312,0.14855469615128142,0.8559772067009879,-0.20476731112891086,-0.05155256537802488,-0.06218240332293697,0.3564803150800778,-0.046781904919445116,-0.1533378205207605,0.2148401777094284,0.05691305371872169,0.10112200619649787,-0.16618454101876434
,0.2323250612907647,0.5014058718062441,-0.038953477074539326,0.933392754834819,-0.002097063981049067,-0.2146301526320641,-0.12847503659755213,0.43218472465319796,0.029464934507980056,-0.01375692581934962,-0.38790845320267375,-0.14338157064683182,0.3060648555209506,-0.08019500172666218
,0.5300877747228494,0.4524967216557472,-0.15435921772281144,0.831219760780806,-0.47344045909721133,-0.16824720256589332,-0.308446253277927,0.3244939061577604,0.03315988496874089,-0.26755862298811894,-0.026055564555893022,0.010429753696942587,0.7474612877857817,-0.10264333988782604
,0.44615864311037307,0.25155189828749674,-0.26638805460100773,0.0182202643091641,-0.48626076767667864,-0.07681762282705679,-0.29121232668932073,0.505649612750965,-0.05809344074259866,-0.5743107768311575,0.39218926700900375,0.13045648076360847,0.4673697216334149,0.12564942607898402
,0.09666232057338733,0.18427397698823916,-0.17136137500673182,0.2814534730743446,-0.004294046808215464,-0.1148057791329028,-0.18401495751125374,0.08352391255719505,-0.1146107881474191,-0.45247412787120883,0.3846069354933599,-0.1945780723083733,0.023116876756687953,-0.09600148346028844
,0.06064470006447194,0.005621842564700601,0.17836501648410588,1.544479111654056,-0.01730124614772681,0.0011132538752197036,0.013116719154228658,0.046114235465849605,0.09104654637990733,-0.14573321963887936,0.27991846059932635,-0.2654669656432727,0.0878898214938567,-0.3855526185360813
,0.412200421040928,0.0615547606105678,0.2277603583058519,1.5622560472528704,0.0486734768128364,0.18046186422084737,0.1370120404913155,0.15248196012192,0.005713428060356438,-0.25541420876439414,0.1662434392743672,0.03515868050012619,0.18347680769363964,-0.658836272678512
,0.40221913745790133,-0.07492777113437762,0.05008752124857972,0.5612261263518403,-0.19042751069737468,-0.0530656193604522,0.00441930568166972,0.02632982781184653,-0.03156530536358123,-0.18151265188313082,0.3201607957432306,-0.0708020088292959,0.16163026766661043,-0.8382587554280008
,0.5443551327473399,-0.08510411457106876,-0.043147784969186816,-0.1336942356129389,-0.18649429591315192,-0.273129714989165,0.006997893452278601,-0.10453088578397314,-0.0783360756901474,-0.21061607074269764,-0.010413724292218773,0.002407487788503019,-0.013561494663363193,-0.9816764592841777
,0.760217778209536,0.06740050403175024,0.024029831824107006,0.16893888680042715,-0.12544976383091871,-0.17766317941368048,0.10076580485555577,-0.11960052762357466,-0.07934373905788429,-0.5466059933401936,0.03233813701911184,0.2709463775953861,-0.04536488351713086,-0.47811786093508146
,0.40639793701842647,-0.10607456618862322,-0.020949511128780254,0.450492401562231,-0.08090927020762163,-0.09202256804508535,0.05928336969445668,-0.12119750030155843,-0.20361007507722803,-0.49921953576016975,0.18084876484824927,-0.0029129538283234144,-0.19676634919941244,-0.21439926132047757
,0.19692128180877838,-0.007975912708671297,0.0818849511451544,0.5100767283267932,0.0644138418080463,0.06338285487172207,0.12672197490103504,-0.09754522889490813,-0.16881045791107085,-0.5777417924933783,0.29162360836772255,-0.2996785042581562,0.15503578131093296,-0.2599899759595159
,0.3598296620874852,-0.3361625779171993,-0.04246555868228367,-0.08724033696443655,0.3495784814236011,0.13900519099087127,0.016370335244286646,0.10581535680790487,0.02720370215013157,-0.2382946061936134,0.3859003613112859,-0.25662465422172515,0.29931345368865103,-0.5154577304737777
,0.8718193414915176,0.01442031238358852,0.04426111502823093,0.008996866860902408,0.1906627842259116,-0.03240739339133427,-0.11364037985360723,-0.08348105474337664,-0.08349972959888835,-0.31929389657836477,0.4404062230344016,0.11774006158148817,0.08548865828816134,-0.7295572506080822
,0.5984039095759658,0.3388764593133794,0.13038137958533513,0.4424753318948638,0.044774849375346745,-0.15986887272393505,-0.042705079255247864,-0.19596186835144686,-0.2560786672036892,-0.11939847549451117,0.2080772095264863,-0.19436466325985113,-0.13409705834742597,-0.48763421867124823
D,0.1496239670615381,0.3380422723660028,-0.1442389308321672,0.5116035623645601,0.18489287764094328,-0.060404901957194806,-0.04553441923610132,-0.2814983333609306,-0.3530643624713526,0.13134407906158874,-0.15646168856124218,-0.3410173887897603,-0.04949473452047592,-0.48246672772679744
,0.2830889797843863,0.2855878588771046,-0.12279593861364486,0.17348373949876172,0.3301786983997807,-0.0744037516792349,-0.347108659709436,-0.2821342941936018,-0.3186004494494768,-0.20959620654700128,0.17606708923936837,-0.29082474635514577,-0.15329791749861688,-0.42675320187231724
,0.24215313415151807,0.4029403592412305,0.2344999881119847,-0.272610556597104,0.14153477407831064,-0.0012219323049330977,-0.8176726950689852,0.010726337497250481,-0.2956394301732607,-0.4276617045844779,0.04081959014842435,0.11556113045497615,-0.37257304780455586,-0.347505061419671
,0.3734939927570073,0.24454264499535525,0.17539496773466587,0.7890958164320431,0.11701029863846626,-0.2869010030702654,-0.5888991273046804,-0.18700740665183688,-0.13914482603887726,-0.49426118653871415,0.10719411452239419,0.03912455588351729,0.049713485760868974,0.0979466861792832
,0.04547433845059045,0.3872155008733199,-0.10185259635019635,0.40342206884528853,0.1063542619384172,-0.3329343979524724,-0.08783300266979661,-0.081579925674411,-0.14174245283872516,-0.5155668934277714,-0.04571133419072704,-0.0628808582799567,0.37398636536812724,-0.4774820460323209
,-0.07963652222431176,0.24787883863316398,-0.24820149740408137,0.6288485160925478,0.036633025103179756,-0.19592321488677866,-0.04645542794129457,-0.07766655479535924,-0.13959073220944831,0.05319726997415833,-0.28577318531669726,0.030930189107203913,0.008044951104447851,-0.46832351098245334
,-0.2849855733218443,0.09790173128018324,-0.20412911890455637,1.6186055651180278,0.29200763415404013,-0.02891213874180908,0.056283449878832575,-0.07472146720316467,-0.1298126448189472,-0.11773271519649973,0.04515314477475202,0.2746308773124703,0.009073001536500095,-0.6900078850110405
,0.06601754429798791,0.06978023073526314,-0.023121782206333145,0.7229038545801875,0.2271724269459462,-0.02055849251353484,-0.013392155848584605,-0.19700535323879212,-0.034470949283477714,0.07082385285122256,0.3422247531217056,0.32444380796403544,0.027466732276353056,-0.7341740854052684
