event,eeg.af3,eeg.f7,eeg.f3,eeg.fc5,eeg.t7,eeg.p7,eeg.o1,eeg.o2,eeg.p8,eeg.t8,eeg.fc6,eeg.f4,eeg.f8,eeg.af4
,-0.9703890808730125,-2.3229549927963378,1.5573650221082465,-0.7193658115378613,0.1022120472294258,3.587445540933004,0.7917009156073267,0.8110618996708508,1.3265843760781388,5.158690773540742,-0.6261748437533211,2.763689290161029,-1.1491379634964423,-0.6105723355283625
,-3.343314995172897,-1.389479122340509,-0.007700626796064934,-0.7370469164687107,1.0055308865483645,2.305758058505025,0.0705987009857374,0.2816702111510206,2.3235393010963175,8.161415298662329,-0.8338250292606917,1.8620925646390343,0.5585169283626086,-0.7513918759638653
,-3.066008324258814,-0.5947199688621317,-1.0418010673178224,-0.6986794565475524,0.4154004396457746,0.17396876465016495,0.0023332281972473848,-0.7631312038027751,2.3568746797248017,9.709387849226664,-1.3320338097580455,-0.17211743496458873,-1.3540432037997598,-0.700215846622577
,-1.9994194187554144,-1.6179580278957413,-0.4613780706162289,-0.23235385013328075,0.20713527430181805,-0.3337314070081461,0.3545984959727902,-1.7350320229020881,2.0117438584290213,9.997273229776512,-0.46432647940704797,1.247833420469852,-1.7120773016571778,-0.5319598695958063
,-1.2875128878261972,-0.3539272586992769,-0.2885964092304063,-0.26298358029376157,1.2921545876926617,0.9539597918422762,0.43143619771514663,-0.6922913959058433,-0.544181716485967,7.7803222368073515,0.682302095946051,0.9991103762730401,0.5505212778806744,-0.47698011502279813
,-1.5017787728916536,0.18858141532782324,0.041335947997186234,0.21908083487988766,0.6915434998169238,2.3149953527218727,-0.00766906393397297,0.8776562170044016,-0.5183831574025639,10.156292950705868,0.17884024543059804,0.08506713150498879,-1.198698605868097,-0.569171697451475
,0.36911253642782443,-0.5636399188892696,-0.14190248889167847,-0.14174740202569192,-0.8942483220526123,-0.40482880734229126,-1.4985604915359823,0.3699312895475713,0.37291025514836695,2.4247306380609928,-1.6170047034606518,-0.16101816995377724,-2.186487060349734,-1.1717695881781427
,0.7202801081705115,-0.8932713375707165,0.018050538232909828,-0.47954778198417636,-0.8797218544870061,-0.829054803504762,-1.6869915208202197,-0.024194085419175705,0.24343272718789338,-1.2742889809204303,-1.2448465970620173,0.8907754733525791,-2.6636520008908477,-1.0538166675027325
,-0.08550903804069435,-2.1879031227691383,-0.7507895289500184,-0.3332469599453639,-0.8613874892758234,0.4212613291220569,0.14355629265450057,-0.4462217639466077,-0.8283831842306477,-2.7598600582828587,-1.3170031820517418,1.5124232512211155,-2.1375329365322018,-0.809797245506642
,-0.5083444578905454,-1.3971777274188881,-0.7291020284105162,-0.015336763092446894,0.303258775816844,0.7424984939518801,-0.6358426481612055,-0.048939675701132515,-1.2177879101049776,1.4396420299867694,-0.5145171463767398,2.1407077417711124,-0.8557052550034501,-0.707151254404179
,-5.043288267799867,-1.4082803890034366,0.2069242222399517,-0.27602295030923985,0.301328625622023,0.640301229843247,-0.7896823756327386,0.9514645261579546,-0.36442694794535896,3.5009521580967675,-0.03126306528646155,2.512894171182793,-2.9316635250705487,-0.8834820430261437
,-2.0017689434375563,-0.3206913963839698,0.6756467381052139,-0.34864903211332426,-0.24331546810740398,0.8578914445242622,0.3457264295873713,0.9154989352422471,-0.5997095979746594,8.485130322993182,0.13970765548248593,0.9663346955729877,-1.429876916061573,-0.9215886528646596
,-1.1172504275159243,-0.44261493033468746,0.5229680867755051,0.04052152373821344,-0.032908162816566416,2.2342054035940944,0.3807900917853991,1.0843158900878451,0.21342831124245337,10.485935414433392,-0.375887776389844,-0.09976824528493948,-1.9071139729092452,-0.8924377051776412
,-2.112019536176633,-1.9427497226411208,-0.21800146618175845,-0.29977006849684795,0.27167410296872424,1.9243643808264563,0.5385610743360413,0.19946235201760515,0.5072517055407829,0.6746825802885958,-0.41218395173120687,-0.1584196118122906,-0.9730207370302385,-0.8915639887125096
,-0.5503632342133791,-1.4804827936434035,-0.2604868159378359,-0.38268006265265847,0.35183115828785155,1.209963763827773,0.5211249844133566,0.04990948293182273,0.9982761911541167,0.5669741552446327,-0.30560806779335364,1.7783430358272307,-1.7421168287750906,-0.8914487781556517
,-0.028275270001037522,-0.2778397686568338,-0.2422068873210723,-0.5878065631593427,-0.143777183141727,0.9527271903590813,-0.08210219389941613,-0.20913143689362645,-0.5468938869224603,7.290830505916461,0.3676183396671495,3.8378192476527326,-0.377275173914236,-0.13323164984168825
,-0.8119706734319776,0.25463538445596867,0.2323259350077952,-0.4962447475501711,0.38655729428768365,0.2700030844472609,-0.2859062917405053,0.8169250660311503,-1.3348983804000651,1.2188783726526042,-0.07760347399654816,3.246442566257178,-0.2325088732160408,-0.3936389265847373
,-2.030683126396142,-0.09609843751560192,-0.7135211914349264,-0.2510052439593973,1.1904055802477556,-0.8122580355016249,0.04047451129248796,0.48929956486297266,0.5721676543801696,0.286060320452051,-1.5422342413280758,1.9599821316147013,-1.2516974426376117,-0.9891478582086087
,1.0521288631907855,-0.3115514037831397,-0.4955265700097093,-0.48767022259982945,-0.06545786818144467,-0.5300640252801175,0.4159696475651797,0.45937578815694813,0.001071206067184091,3.7860367717756587,-0.8839292038095167,-0.2602362663516276,-0.3548930615117663,-0.6792505920264038
,1.7809824830710252,0.0964940903513536,0.15746186760903352,-0.44979610043691876,-0.08652412781553934,1.4938582495216663,0.4204494875044163,1.9062997390178857,1.0747180898591278,5.8563288717988335,-1.300161853615031,0.7662074570512148,-0.9251928836644665,-0.7889463091174453
,0.09848000409820448,-0.0342260644975179,-0.6629958689299301,-0.31094757973465875,0.2515459654342343,-0.22339450245802156,-0.10761632818931192,0.12942106268724346,3.2792784570820355,8.657887035015532,-0.3063999645810817,0.4432520845475985,-6.051416345198557,-0.9687537713296269
,-1.435542594543413,-0.47616219165578066,-0.5089347972251251,-0.10127988022485998,0.48597755823469535,0.5371457110598458,-0.5779611799694537,0.12849689015133975,1.3923436228133583,0.5900102065386977,0.004105340447120434,2.025894739090072,-4.606893327795777,-0.6696565959342393
,-0.342138642015847,-0.28577681553347234,-0.2463758369273557,-0.2716812523274403,-0.3121006314050913,2.4720066145022295,-0.49806090694872746,1.9326830065263088,1.591888500275376,-5.943802886258643,-0.8122935242877496,3.509705317358375,-2.019330553433031,-0.6070154290361357
,-0.1637189624787127,-1.7608417958147191,0.2648881676029826,-0.3104800649408278,0.03485424592245512,0.37764914932362303,-0.2548093322458713,2.8826194873723363,2.5994313925951475,-13.173748827371245,-0.5707353273675573,2.614832948550868,1.7222987725302428,-0.7124733890753158
,-1.2339231002263535,-0.5058863593325996,-0.32719461331567484,-0.21921539386365183,0.0911842126348746,0.12798385100049517,-0.2947766819130801,1.1385520592794967,0.7285402053555554,-7.544111734520225,-0.8691577527641937,2.744881468680763,1.0648584032146784,-0.8331065957786069
,-3.0988977819807455,0.4198490155949351,-0.4444848351723657,-0.02826279000446865,0.5661922222712784,1.8864417251045278,0.33348960499370917,-0.17394111576011362,2.0449292545987565,-4.870704255991902,-0.6639660860812779,1.2758418560791804,-3.9480584867613184,-0.6120317345333467
,-5.681393328819357,-0.4581455874869218,0.38996689999778344,-0.17035390445115506,-0.11723975832570914,1.2915151085567704,0.11376618899538556,-1.0932077424392233,1.882442856687001,-4.8556703815578555,-0.33980802016839684,3.259620819786043,-3.0843069754217436,-0.4068678853820065
,-2.698030374045047,-1.9667198829731476,-0.2263616827612349,-0.36509894105161156,-0.5354352143083827,1.633088562601736,0.4804947780505573,-1.1054390199683974,0.9115627227907395,3.8755959893897396,-0.28434586134576306,3.8866665303081356,-1.1002994858291821,-0.9994595241271964
,0.1850061748730282,-0.43296844762450876,-0.19034846961721125,-0.10570306550714734,0.15220707401161673,1.943029374400758,-0.02384283568151098,-1.5545064919002138,1.5254670727715895,-4.461200405841401,-0.6140059349218788,0.7652716983589014,-0.7951378541116334,-0.49658606916623804
,1.2556368503424684,0.7956977487758945,-0.2640253588886124,-0.1106925015307486,0.9585029456780766,0.2815810313689548,-1.2491963665848782,-1.7189076924698856,1.3654269041126657,3.160498063447143,-0.383265342413245,0.19074667480331872,-0.5915434297573544,-0.2887489800925262
,-0.9610258010872572,-0.2324167902230579,0.28396250244220106,-0.659931608587778,1.6432904546578344,-1.683073897118451,-1.71459820098744,-0.76623176776259,1.4599506315743926,3.195120875598551,-0.10307551945278949,-0.13887629448761002,0.8754975815761722,-0.5772278900659876
,-4.355303694187897,0.59465291844922,0.5176846606958224,-0.5567008612004739,0.515441246340023,-1.787156076014475,-1.4340271691305395,-0.7411941988477097,-0.995950022061696,7.4331961193037595,0.21672863826044764,0.08939122905320483,-0.026913174078097776,-0.613080982560403
,-3.843538611960007,1.2033365254933448,-0.28628425007505615,-0.02792027522548254,-0.07565558750276405,-0.3916095491925316,-0.8364652384747041,-0.2708912430588054,-1.5569262996920932,10.74350218602534,-0.5132452291101548,-1.0776327836494348,1.456632451597282,-0.4998573282789978
,-1.414734989898356,-0.8634598063528248,0.3390707718257729,0.07997511497391833,-0.7638336706251755,1.52972747006954,-0.47416597390601395,0.9567125002418825,-0.4937575705809537,-3.293218645480879,-0.7071713812769813,0.9232251976041483,1.151866626193571,-0.7816580335768785
,-1.7349531010972534,-0.6342565835756248,0.6911117942590966,-0.4406996712227119,-1.333193230608636,1.504059274795506,0.04918783773605952,0.6356561162801347,1.1905744024951848,-7.284402275004363,-1.1397521828537314,4.097250600556833,-0.42751274917802684,-0.79323448939476
,-2.3564224574733634,0.1523774449357416,0.11564777728727126,-0.3923718501138966,-1.5462919543835107,1.0915861612185365,-0.3809323652166239,0.27492578340522794,0.5951446586206867,-3.3030005308776724,-1.4057535049641914,4.036873982475481,-1.1407461313582596,-0.7339366872927755
,-1.8406331487625414,-0.006527894243640137,-0.9111466876394747,-0.28154901510259245,-1.0537349335073471,2.718556565483827,-0.5011587990645651,-0.3542616701488583,0.4305321404812947,-3.311744409286661,-0.39663424454028234,3.2722688714005956,0.18399466492370334,-0.568540816118253
,-1.7428479307977076,0.4828727080533258,-0.797663179503189,-0.4622542681653925,-1.0647150641360246,2.4250071272990152,0.05262514478879042,-0.4920738789693175,-0.07521370058939335,4.0736560843822245,-0.49486163667399735,2.0978066918611695,1.1717923712106524,-0.876803578367539
,-2.357929257533783,-0.19126415251828424,0.06227066990369323,-0.5662484641649506,-1.4276010355316304,1.996604854275698,0.4916165801721879,0.23208316078252902,0.9188552004469163,3.1302376045674287,0.013796336679560954,0.5404293332097526,1.5541237396627217,-0.7538563115607037
,-2.839815118934391,0.4926410344047422,0.09379231816882838,-0.8085167282707815,-0.7231287803131026,1.5274463854046312,-0.012356634788411756,0.609383291483945,1.7293022835423897,-0.2515041879478932,-0.16103749571582815,1.9216588857266126,1.4354011210287516,-0.398444050942052
,-1.900036243492225,0.06301078475642895,-0.08249488340837545,-0.9367078825683115,-0.7910675496032132,0.8749939348458987,0.3421853099940554,0.28608542343430554,0.09289042211926075,8.78613591394663,-1.2558435830017998,0.6481220703322513,-0.4683747245215959,-0.11945082832893823
,-0.5910767978344976,-1.113314918200964,0.1817926672927629,-0.2941025067209627,-1.5951951790328562,1.9504674016554955,-0.1302271027691636,0.1956218187417398,0.0828104603448491,6.151747643607308,-0.9769700530406329,1.3901288648152879,-1.661601245075322,-0.20344348423281014
,1.5254407800950212,-1.2341143907955805,0.05097757634671231,-0.04538967695808356,-0.24156417751605855,2.904020597687867,0.12440306199528348,0.9511192290453716,1.215681170869329,2.248034892593532,-0.7039144433889357,2.2702964550749414,-0.9663974988202142,-0.16113169895111595
,2.4619928565983815,0.13533070737456374,-0.6242128163325726,0.03655234725142441,0.6573012616859443,1.1456712098218655,-0.44075971910896256,0.4746944370428893,0.14475688099574235,6.578916996154898,-0.16528446648531112,-0.22761468478993743,1.3801545525835643,-0.37859695310903885
,0.13423314565963107,0.5072473814289279,-0.9878729113348762,0.2072936210306928,0.8413483979795047,-0.8282644470472974,-0.8268386441021148,0.008917912168795316,-0.044785045551264446,3.6295830843057963,-0.4506105391419342,-0.043733995961043784,1.3977712824923239,-0.5564809258829764
,1.868549379745558,-0.6277218059261742,-0.28636096315038334,-0.48688705593057957,0.30548331499171494,-0.9635784998478812,-0.6686729758707066,-0.5277332582560134,-0.6460452722892408,5.748607170734455,-0.36402762532571464,1.8868436037983058,-0.6514490803857996,-0.043454008115450034
,0.8673372428695892,-0.7775518706866273,-0.3335669749302373,-0.5924894749687698,0.6489102647908223,0.3911636996843531,-0.19992974597639857,-0.6410551000793357,-1.4938649032058517,4.731395801208335,-0.9728316094429239,0.8565637771109829,-2.9054608759796725,-0.08157665984087954
,-1.1447445542038355,-1.1987777693121944,-0.6557439069835937,0.05102429873708158,0.9191083211292786,1.0800396949709468,-0.5567385883198884,-0.3915565873381487,-0.3858805804469858,11.316868513108409,-0.24268178636676624,1.869947306716012,-0.16275293001262514,-0.13052234910857385
,-1.7092785470353893,-0.11211497788172084,0.2058671217998903,0.10856218710813445,1.0511790522465128,0.6376219668538972,0.0016786124232112266,-0.11236794947467389,1.1745076886680714,11.199197840372499,-0.19287736767592933,1.791742745685573,-0.5146971740816418,0.07512848382609996
,0.7545530513534473,-0.07277747152085111,0.07981293908487588,0.04400336112554863,1.0614232593272532,-1.580786833572384,-0.8633721487951093,1.048643964507018,0.4749309926142189,3.3622217260826313,-0.04374389587116776,2.554936150788012,0.33399917696771914,0.018265009409040085
,3.4305513314015474,0.3581705157071696,-0.6058319158526797,0.2319947306533894,1.7563844782681273,-1.59898539352627,-2.0584596993349793,0.5933391732316226,0.4556368817378413,15.322310602474635,0.8027452801443857,3.141308673228024,1.654389187527904,0.19666608104311414
,0.9933079832564257,0.38591162277877855,-0.41557179753667994,0.1530145005091494,1.1705527194743204,-0.4610058253509486,-0.8422474340093717,0.3853885494430044,0.07880857379723662,15.611805319473254,0.47647511058071584,1.9312717051445403,1.5632011818016447,0.40816695854107593
,-1.5798550653611076,-0.3407824786290319,0.3437125962864524,-0.4109379095003245,-0.0851692519430491,1.5238441314122912,0.21497082439923482,0.33167679764517344,0.31860463979671844,4.85192777804635,0.39715560670463707,-1.037557630436266,-0.4114389022477093,0.30594529233550644
,-3.1639560052822873,-0.7346761191094404,0.5428538632187296,0.2188873740741676,-0.08376205452904083,2.5104155874243843,0.4516570439624344,0.15080346681038218,0.3121996531392097,6.404639820193818,-0.30483838249595085,-0.4478725445952391,0.41128067221145437,-0.17976421824022543
,-0.8522599852332342,-1.421077054126753,0.10367680091998908,0.1060764382578715,0.40612318722039276,0.6114609703383863,-0.03356101939180926,0.11721369622829197,-0.8311437278791943,15.723114914686715,-0.49806282288008114,0.861939505007284,-0.14941145658261634,-0.0336509866852527
,0.16433458006410248,-1.4170385495943467,-0.33676274075087176,0.171283231730351,0.39310915126017093,0.4959969108449563,-0.5432723501019728,-0.6697129204407363,-0.9565778878752879,15.947665671038385,-0.23195460913349025,0.8028698565246953,-2.5142636586943254,-0.001272972171251016
,1.6104078248970097,-1.4863131270922678,-0.6095156971799429,-0.13109434054500071,0.31732980015141543,0.6485540499175922,0.11516014901594938,0.38883957237624656,-0.5445059564214353,16.613910985082786,-0.5668541061596382,1.361464424350108,-2.28304512317319,-0.5287666922671719
,3.275813027729796,-0.2974126270050574,-1.0204100500316018,-0.08245144700259346,0.1275806976084839,-0.5819886477458736,0.06200203151611375,0.42632687315175366,-1.4714935009470236,13.050245477051009,-0.7866673406452552,1.5805214301369144,-1.8799352331449908,-0.27466787782050817
,3.920114278012412,0.0579866709486389,-0.5074478181986142,-0.4176711107418833,0.2416914189797644,-0.600621139652059,-0.16000921833878706,0.10697402796048977,0.4112602232472266,10.131706112540458,0.665145751710767,0.9110408308011795,-2.6814051905054415,-0.324744585063498
,2.167705540670263,-0.3604503627855132,0.09448144367338591,0.012666099263809032,0.21621717457905315,0.8319852221695424,-0.1675842505275629,-0.26100995509632835,2.179648017143221,13.465308687901498,0.8121348927481259,1.1856602801791518,-3.133863081791249,-0.16487430679967455
,1.0711014523918596,-0.34006769586680613,0.21252447063247734,0.16594676408627376,0.2563763419653912,1.1112947473195849,-0.26985602100415207,0.018948353135198277,2.547478208850355,4.889038431245684,-0.09045747962663121,2.6168723457605085,-3.7793222235652433,-0.11704511244793174
,1.1667260052560762,-1.562206994276619,0.12102258294873786,-0.1309847546603979,-0.7101692710870579,0.8058355673483242,-0.9771869598286118,0.5266694051820322,1.3749002596115714,3.4345129589762933,-0.08151487563585395,0.7484006782562411,-3.6123418593080787,-0.1367832061992966
,0.896136535467132,-1.0562749081451863,-0.22262250989929164,-0.1731424959363197,-0.7141455998976143,2.111997648619958,-0.1683114004167882,0.7206726214799875,0.7706366486225782,2.1484785316034594,-0.5722050337507679,0.9552436708254832,-3.677515995810105,-0.12921276232479273
,1.2987504349321561,-0.256737515874767,0.22966217534848946,-0.02803637068240223,0.20453051940453068,-0.14036819709981824,-0.6580236460433958,0.3063373898732215,1.166110173020672,4.2755214805442705,-0.7785075537229345,2.783597943274938,-3.125830446828622,-0.3812565617588067
,-0.012034338675776898,0.3303716003829389,0.7658914286457058,0.27183587419720645,0.5267521287510639,-0.6217586068482701,-0.5339345589867636,-0.20739408042826546,-0.4611073002457918,-6.696180528144652,-0.16576554079003153,4.6154551530998384,-0.4579562997366883,-0.18847707509822492
,-0.778194392659746,-0.21699167539277434,0.4384365262281829,0.5312319328946774,-0.25706498965770225,0.8304502917122834,0.8034041907256306,0.2812445931820651,0.9613424574508438,-1.3793655679389938,-0.33386523660250617,1.3678298377082034,0.9090947235389666,-0.18874767658237718
,2.0685740763009672,-1.1947747946976066,0.4249989905985709,0.6132449564083793,0.01835261216598472,0.6999063788062956,0.28749334737200355,0.055073711747652125,3.2470737835091987,4.731127229654193,-1.021670251534049,1.3867196195752394,0.7548221556108365,-0.0015016560912666714
,2.220249189570829,0.47815366470059595,-0.2518799098319427,0.5630766395944293,-0.07559931623082485,0.38449029046073296,-0.6970677959744533,-0.4213834419256242,-0.098518480246396,4.630057057409155,-0.343253560144418,-0.45788208892583454,-0.5186558461488907,0.1120254816807849
,1.6830279831418902,0.46436533411490155,-0.5705517484184806,-0.4486885341632758,0.5307368817340302,1.4981646101618222,-0.3198277780965117,-0.12734063857953465,-1.330982674838866,5.404943458039265,0.7666009467076943,-2.3243315183927398,-2.2049961130607807,0.21388059990589708
,1.7143208060679893,0.5741868637848239,-0.791681621529032,0.14925252660776137,1.05254807191449,0.1804782826298919,-0.13307495210156137,0.42084846276737636,-0.6098840217038727,9.390666297850233,0.19442608888823582,-0.5485762131363484,-3.2483069018015915,0.1172920605430342
,0.30992771996246493,0.005112999881967055,-0.4315465657116285,0.3061212346611074,0.7697984596314054,-1.0430482640675123,-0.6362593888128957,0.32502094781549146,-0.12205895481656778,9.469141058520272,0.21454354499592368,1.2864307013463718,-2.486254573708148,0.5387378089140972
,-1.5383926494384321,0.38573233927866735,-0.7022796863721474,0.2848831083195965,0.8115113549013416,-0.8741630847126345,-0.32994747975908484,-0.49491993940945844,-0.8702168185555118,4.936858152428248,0.5774457241722423,-0.7226111856703703,0.3210808762360125,0.3956424283441813
,0.6941070822845822,0.4916468517609334,-0.3359019263757971,0.18516555762180784,0.36040106614104034,0.34836381574275693,-0.09862951358741436,-0.7640348947136958,0.4154116571850901,3.7798798062079064,0.7021668887474776,-0.8082791688196068,-0.2743876871492888,0.19228642831214104
,1.2032918307371196,0.2825493659498178,0.966521721705353,-0.07018400821931782,-0.11489509968962346,0.17278889393637392,-0.3694377710504786,-1.0861443042458245,2.319602386609936,-3.5329044238881813,0.9054991439857667,0.38541906243429774,0.7157348972282574,0.02843386851603688
,-0.03624486008254963,-0.8187762349929998,0.7776439814187642,0.10531318121158267,0.07393775113976589,0.3764640027233824,-0.1547374335296601,-0.06437279048864446,2.5202981339770902,-0.7851824949417857,0.5382472267845385,1.1435387934702426,1.0646114499182664,-0.747113459461842
,-0.16638433330638766,0.2425957805295849,-0.07442064501698703,0.2937033442808526,-0.2621259256480411,0.18847456430360057,-1.0528141255711743,-0.593540142411385,0.15694458351451143,0.9807302165996507,0.318818493920122,-1.2633833332925342,-1.5639637789709768,-0.049452652012800837
,0.2850971146603653,0.251988838418395,-0.01709517338705508,-0.1637919073209447,0.366266786984964,0.5218800421383625,-1.0492153642281756,-0.12094455648013075,-0.19435789004714588,-0.7231011656232016,0.6840289841068486,-0.7257900254275457,-1.0346884974874173,0.16072998579179373
,0.18235324673956982,-1.5624685185880185,0.2785184256129904,-0.4787819026001949,-0.08239959895832819,-0.09972118472442729,-0.05652722172994709,0.21642963870046378,0.6787581057339098,-4.433616136047853,0.3617591131371288,2.2586090213668935,0.1419790301738916,-0.3924064539813794
,-2.851112714731765,-1.8804183546611806,-0.23758080646506222,-0.0820206640653487,0.16527756300811985,0.03931337554495875,-0.7883351368728757,1.233139180120914,1.3382780270750043,-10.712823092196338,0.056945327214758104,1.6719554089767912,0.9840217366970884,-0.49859421428382483
,-3.274272853392853,0.04636308538497013,-0.1676692275076337,-0.08603170488278346,-0.13995734445896807,0.36992657071074886,-0.007338738996263363,0.740673688926665,0.832248688433079,-16.867659196938227,0.09298133099991275,1.739145925007926,1.1881699420217515,-0.26676561483659994
,-1.5011977197810458,-0.4016402974955435,0.40798420276646125,-0.6585206594483642,-0.9672321920895641,1.404980313193413,-0.21068034915866946,0.4859269570578851,1.0327929788496915,-10.780984010223282,0.9289488788932535,0.22769125833281254,0.9012061567673797,-0.29435308670612054
,-0.01203984959754269,-1.3646513523715393,-0.2213774068533575,-0.566500536468197,0.6704001983218961,0.7061996330227451,-0.39006727055490237,0.8963612576419012,1.6260078945769074,-19.431604780481024,1.8410358203182764,0.7350363760552374,-0.1679391642134581,0.16170187886801893
,2.0557104953160312,-1.1318736830204386,-0.5655547529502793,-0.024611395171832348,1.4953641752128664,1.2159183800822946,-0.8000885304386103,0.5506101049035617,-0.011035005273452362,-15.438351152470833,1.2377181211795767,-0.10373904741376933,-1.2481058108422656,0.19350720938741034
,4.722876406406487,-0.4824307377892006,-1.120286800190349,0.01987860373832885,0.8601128622612281,-0.18964793504941224,-0.3433445810323911,-0.14941884822320303,-0.533804570557551,3.0743330935558815,0.5640973692927984,-0.8637048752751153,-2.865636224576293,-0.1281329053718659
,4.571614951505792,0.6446140798935578,-0.9915725755886865,-0.059917761562856345,-0.26952987414815044,-0.5170292051746064,0.28867333250113675,-1.6467455547691296,-0.9565617777219495,3.3289474431892,-0.20916528003897591,-0.04835314283805837,-3.326295084653055,-0.4029794491869881
,0.6071675124305017,0.35843059646065223,-0.6207855411033794,-0.5147963715336553,0.9410730520757957,-1.416862869004258,0.28969617883852905,-2.051487012332977,-0.04266378100900657,1.8299353376358904,-2.286852362126344,-0.3576928828191921,-0.8848340125484285,-0.714459806609939
,-1.1550416913498154,0.011613614089480383,-0.2203554686296807,-0.3069173792011346,0.6376637130979401,-0.4103425929058869,-0.17868024387647385,-1.686481354993033,0.4170468555833839,-3.398849785514405,-1.890073691513279,-0.025049297808076416,0.18953638889494592,-0.6058476811234093
,-0.2641681927554396,0.19948354271005417,-0.4462688040393769,0.3054547187354448,-0.16584895970767513,2.395539771077934,0.2899691907186177,-1.2960366231028086,-0.6587552584841495,1.7819633386187557,-1.0213769068486929,0.35883858718856193,-0.2840564257069406,-0.341537477571207
,-0.2202536689573556,0.5444746553126175,0.45244936224604043,0.6325491521420107,0.03788510675876524,0.20919676137273796,-0.20687362987807023,0.08653077501125002,-0.39894708635223036,8.221944463416946,0.388393654218261,2.0451016944765152,-0.6297294039414897,-0.16531461691722832
,0.46813748427183044,-0.5777703217041332,-0.16137168452821443,-0.09849292828925253,0.1350455226135261,0.05262205573684065,-0.041750407681036106,0.6649952350119037,-0.6556288754361789,6.444131223854842,0.39563772338595293,1.231276637998067,-0.5157365370580714,-0.09690633902260537
,-0.2896822611544651,0.8172264750828022,-0.12366580742222484,-0.2955489775243029,0.28227636320565014,1.0406848822728605,0.22725828466108075,-1.4115688799081836,-1.4064136322485803,6.410540281154455,0.21226756035173275,-1.535417837720354,0.8388399106835698,-0.2013406153601106
,0.06715778221268132,1.0045907929960673,0.38789971126976136,-0.5103161403428905,-0.6775872572017786,0.5584444174967241,0.04398969450050897,-1.0954500024889955,-0.4475616636974588,1.917967619464767,0.6858867590302377,-1.313682896990367,0.7229127097468875,-0.5580017221820129
,-2.0797212778067578,0.49124260044214363,0.8160698936427838,-0.3455715239275374,-0.27576952085077494,-1.4525135130808022,-0.5906441320755419,-0.3778801841689213,-1.0869317069695428,-11.587112774276298,-0.22310801192671748,1.5841276391288748,-1.1097384749688841,-0.549201337170782
,-1.5141953270650532,-0.28910032741558644,1.0459147531933382,-0.7276786620962196,0.2571893107154608,-0.9865827696852402,-0.948767960266355,-2.0971210300028926,-0.6219239172607421,0.6438584458933649,-0.4544869368404999,-0.1358506054048639,-1.0960116266176276,-0.3795944640777318
,-0.35114591673401885,-0.14350611571269975,-0.22875818075202983,-0.699206417131649,1.3785615312186454,-1.4102877640555604,-1.6299566012239612,-2.8118533688423595,-0.9116192904739369,8.666484627432384,0.7253466013338926,-1.353685147766005,0.04825170403359621,-0.02018983616550229
,2.932094312810574,-0.798600816322687,-1.4131914312122993,-0.7402056233768493,1.4862404601995034,-1.6310991007200166,-1.3000491843072415,-2.7867282723956666,-0.22825777968498434,9.115346284979992,0.2618883213445707,-0.2053736850645869,0.5590998009690666,-0.39445468487023716
,3.6598391162866792,-2.4179878144617137,-1.1819277617225965,-0.2590320538208145,0.3147133131151004,-0.6097552472205694,-0.23541699967556276,-3.767235024080011,-1.0343384335081904,5.06271093921465,0.7090444222607769,-1.0387686229753985,1.0128256540345635,-0.3448833390917651
,-0.132203341276135,-0.561778509060977,-0.11998735334203503,-0.27955464350936027,-1.2996498282790658,0.7402579564323926,-0.6304929540185708,-2.6762793111035927,-1.0839892141269765,-1.5462005125380112,0.8005237079169941,1.0980497982740285,0.9778852335341175,-0.2287250996269611
,-4.205545625841479,0.0816537594040061,0.23088890629444947,-0.057050665156278935,-1.3464150498022531,-1.819770824055046,-0.5334054299565358,-0.9405361729173372,-1.299118331930898,-1.6864452576981768,0.12234732949038812,3.0990929287154003,-0.8630957289882445,-1.0230345295246335
,-3.1295461757428216,0.32200445043443787,0.021892345808188877,0.46870931825473183,-0.7259195367905902,-2.4744343269244706,-0.9175838785521941,-0.16215537951360642,-1.3704313765192777,7.666301566020913,-0.3660240510478332,2.543846136399172,-2.150705088781027,-0.7061485756085465
,-1.9587915565879435,1.3389651671685838,-0.29164475732249445,0.4203776273084333,-0.26354465706240204,-0.7207755248351604,-0.045050642063640664,1.0742029867240415,0.7932039818495188,8.768410874803388,0.3423103426707322,3.3131744651595545,-1.457771403556959,-0.44974382201327945
,1.2405311099723082,1.474941407446323,-0.7724359197458119,0.06118686533537473,-1.0663902192097106,0.051517756654332794,0.27717591627522986,0.7389997906310444,-0.3539591208836615,11.22573803740828,0.2568618956243946,1.7119157078606912,-1.5442870335978227,-0.07557097432751013
,0.21829537269864416,0.7474184311433502,-1.109796671365876,0.219199132953316,-0.5229760028007003,-1.0785631337927557,0.033933761725043976,-1.0563149750162133,-2.0944676937181868,9.663423800760963,-0.4709475141201769,-0.3772146316186136,0.490721670983189,0.1487203650171532
,-0.16356984709193367,0.6111258027935186,-0.15883541928665668,0.05403824610633375,-0.9179147388571268,-1.7222527243735941,-0.12627894322335245,-1.7948385388684263,-2.0597826520632925,3.7136211173307414,-0.6927126514816774,-0.5554581766437502,0.3354033291964947,-0.18114282578142712
,0.9178614391194184,0.43665624760665844,0.6918959684656432,-0.433206109083124,-0.5707103855115127,-0.5752477416996782,0.2925899417970083,-0.8583761033139697,-2.17391894228629,1.4472078654161529,0.00036386257300970984,1.0758317022144075,-0.25507385495123003,-0.3378742601188512
,1.0378390381307718,-0.32026014922061546,0.27751492185324694,0.11849319001385365,-0.11144750964109053,-0.23236130289713375,0.8778762702195746,-1.056006430342467,-1.2144418944069757,-1.203426220732251,0.15781726572365412,0.10696339644155331,0.013879031913854362,-0.39822322998252657
,-0.15259880589954752,-0.41621575001380084,0.5195957891436215,0.25699981516162657,-0.23053931867554733,0.8408999284273031,1.4832121419729665,-2.390458383310228,-0.3618332008677854,3.459250983361075,0.7812306714823656,0.6821884419403231,0.6593522457872434,-0.608294481703918
,-1.2136563635895903,-2.3429271269872896,0.14968155696432903,-0.4932976016685849,-1.3007758141720671,-0.37805523178391115,0.6388910041932399,-1.2211655127742944,-0.40631104565514187,6.851174228868745,0.3895164836888112,0.8571292175292108,0.6917158543656359,-0.42178759213794287
,-1.028579634396166,-1.8100923959967925,-0.40070242807890283,0.0539343141243047,0.6167229665596505,-0.22191687933710458,-0.1645839385461932,-0.11790564543791436,0.9287129735657321,6.222765856671928,1.1251964050891625,-0.35702725087642023,0.6249025777986849,-0.42254717619991405
,-4.933058864030627,-1.3130992944264441,-0.22747617450733557,0.09923558950120723,0.9809698384321219,1.2772876532797903,-0.5793828815128347,-0.006693593321100101,1.8449298565281773,8.9608775657244,0.9676118051126081,1.1815867311255785,-0.5439051432512999,-0.3712462350841192
,-2.096330087312439,-0.7763533548701371,0.2246988848557821,0.05853203878595915,0.23750651493361866,1.0545342586555093,-0.4251159055969044,0.074368054354699,3.416169214507803,10.642657576635573,0.183120473781504,3.244103226024201,-3.642745554631859,-0.31531891490412445
,1.2918115056392383,-0.7014838490756092,0.11739643138613196,0.44063043314430655,-1.5703993152493125,1.9214476629561676,0.1909378502397889,0.4165163382632802,2.652080356511618,10.821285394289038,-0.6156788273342219,1.7599289083769762,-1.317999882473946,-0.48889958541714307
,0.3315629078569408,-0.7172612977726237,0.10041993243139755,0.6683465738118269,-2.1460056552801157,0.45388566178864037,-0.5163409919498563,0.3592244478877644,-0.6316162919810349,-4.57923115970946,-0.6889499348817643,0.5617228687248856,0.32137084838531804,-0.002312031679180355
,-4.309520435397434,-0.9496502604096151,0.3082592870993302,0.25530470919212084,-1.5406176677070373,-0.1513604828506265,-0.7645054009458309,-0.20709084678184847,-1.745622527544928,-4.083050219597956,-0.8994970036838096,1.0185040198495379,-0.54468862777545,0.001153918845516657
,-3.494430573371985,-0.9144847048211888,0.5561433021591887,0.029368979600046464,-1.1213175161758369,1.1097202873912184,-0.3392352970785958,0.010865509172906698,-0.8360913442934632,4.949345634623643,-2.1190494331782648,-0.2884398982746991,1.2516865096631529,-0.20964055897396763
,-2.385350309882422,-0.17990236003975268,0.24332002444001072,-0.46307829501799497,-0.39887759515582094,0.6367551201529473,0.21502641389217964,-0.2588422109718257,0.4702277178509861,4.808995079597225,-1.6781955284129242,-0.12626551351180498,1.8225619240683375,-0.47347646359042256
,-3.2152763366602555,-0.690968958779502,0.41918141436725154,0.10671789244940064,-0.5070868604512903,0.24635806413419956,-1.6138261439517192,-0.05905645009624993,2.5524976791316343,-1.3060791708583583,-0.22837353157020593,1.3256018581329212,0.9738702947619506,-0.7451958078700118
,-0.9102354940741927,-0.626550277630443,-0.1267493162377007,-0.1839075373904011,-0.48000796874339263,-0.10513257152753624,-1.3563761914392676,0.8974336614619621,1.7439881655079896,-5.425811060595277,0.27929493701514546,1.3118302118212493,1.144924086458597,-0.4188446530279723
,-3.1863648200200947,0.31796185945809735,-0.3493943779331684,0.3604953641376488,-0.009477907396109621,0.9030819128490037,0.15304348572231702,0.8359640024840614,1.7122048781669301,-0.3250472854528542,0.4564054575592137,1.3379330526383983,0.6934868536262055,0.01704466959797865
,-2.142471595533451,-0.2592905303704315,-0.06939190945210938,0.45360240610951413,-0.3278267643119042,1.4158133838063092,0.6588365379591611,1.264027855523478,0.952457405025337,-5.037681518966031,-1.0205078508648036,2.2102668672446306,-0.15832896569844906,0.12285707835448399
,-1.4613994546150104,-0.45397243914392893,0.5883976282319173,-0.021894557229267808,0.6637719231453846,-0.8752952939938466,0.0455503238257406,-0.3232545266962933,-0.2551802980927093,-6.262158169539861,-0.331306068004273,1.4335911646141075,-1.0442870515369616,0.40727454622032633
,-0.27622670280284867,0.016128832521259278,1.0480162065581005,0.3266338791852586,0.9819996576184635,-1.3428592700559077,-0.417152589551801,-0.5146751381499303,-0.35449518919610923,6.157956631179566,-0.02645730482604261,0.4046412514064933,-0.16641848186789585,0.31960260452826106
,0.20504837273587684,0.6492825617240727,0.9044733039632781,0.27481325372256876,-1.402666471161622,-1.0692869474348299,-0.39681787521863293,-0.12482669363670315,-0.8220255127336795,6.4138453195505445,-0.56128268388139,-0.08057326885191851,-1.6658839393131566,0.12279760757956802
,1.3737560917472635,0.6256868451427952,0.648242735276215,-0.01070647544387634,-0.9723167953225403,-2.072318557601083,-0.7621948863346004,-1.1637791947318548,-1.6629419110002932,0.3048274547338837,0.23040551417052035,0.517359350951203,-1.8921320279484473,0.19830590014759064
,0.511465823579008,1.1587192564361315,0.9325855056389863,-0.17422364657675196,-1.3982195323502618,-0.9939218030088046,-0.5759162096102867,-0.9552426090769793,-1.425220209669247,0.34634052680650823,0.41533485583785457,1.2266999636591132,0.06927995530414321,0.2788716426211819
,-0.15681258225274353,0.7738867156516416,0.16063437820902796,0.11719642629278366,-1.3195380614304089,0.114046489281779,-0.5478611261490209,-0.376077462315657,-0.906938136087403,-2.4881081269197534,0.6945679037102808,1.1299768479738093,-1.4817106405479439,-0.09250319337388603
,-2.099011219192592,1.05811790184012,0.24684489443568197,0.07304552785792523,-1.223332708011656,0.18925141765696668,0.31513693121787856,0.23797777974544634,-1.3871198843828958,-2.6852485794052616,-0.3136584623201824,1.4800615561417774,-2.1069634709579073,-0.2594180918539799
,-1.483581018591365,-0.08374593600330021,1.5365748946958329,0.05027923234016523,-0.34182667873507444,-0.8270357000014499,-0.13240023528952835,0.4962150475816369,-0.237303463403232,-8.358003348495657,0.2949051909864293,0.7535167427029882,-0.8678610810732243,-0.23519491734988243
,-0.12227937202537507,-0.35154774177263454,1.3005212207983696,0.013495987237693706,0.886003085101425,-0.5791326940485311,-0.0670313405541271,1.1214879792015053,1.2517510847722682,-2.160276299644069,0.5816332426246897,0.9191273859522012,-0.2309474610160619,0.16026205417016826
,-0.2619306169260371,0.30704986390963684,1.05994270693329,-0.5904834606220719,0.700503171713118,0.7960751277802075,0.3282686230899515,0.8072491641804609,0.06010779310206003,2.507742586652997,-0.05452921513506738,0.9639754353595914,-0.17768086996147114,0.27744202797641376
,-0.4202672730410004,-0.2842479184148556,0.5184463882754634,-0.6506965709252412,-0.12272082794195045,2.676592384464021,0.5674166153144224,0.3079049015160241,1.2693121224814403,6.702418603161186,-0.8121559169624847,1.4365577080029641,0.673737438268267,0.4479956126699626
,-1.611948830244792,-0.21656897667456404,0.08549718360415555,-0.5468282564882478,-1.12259586627028,2.269830408368358,-0.5472500927615441,-0.12215186123356758,1.031615354149639,3.084191594298821,-0.2461966171608486,0.6613211730682929,-0.7705850304850149,-0.037022196918611576
,-2.6030617773206304,0.5943788222282681,-0.1405357286121546,-0.9916790497323573,-1.3414614305603751,1.3848710583984984,-2.2295552404685663,-0.031006015791866647,-1.4430677042088391,3.3535245985328257,0.3546503805404736,1.5696349519853123,0.171567764823316,-0.2987390674148727
,-2.8809491555621403,-0.27752814810805404,0.19117099914716135,-0.032203111211101684,-0.05584375141375819,0.009594995819008098,-2.523035750946436,-0.20298393897494799,-1.4282574496738416,-2.567853750838807,-0.15596855062409468,2.0436655026926522,0.08588613186362698,-0.48521926675026716
,-1.2131967051429429,-0.5898370081726958,-0.334784400864922,0.10310695996372661,-0.021295704926419082,-1.0546389447342372,-0.9648677758814008,-0.43981587071279316,-0.9300178643787125,-5.427442398773394,-0.24806164165972272,2.675178218643779,-1.118565300514398,-0.2696911591475577
,0.3275112015902697,-0.7504217772760697,-0.3631457445895055,-0.5327020302568222,-0.5667951054431681,-1.4119055883030778,0.17122961795485153,0.2697493169749198,1.7090317057362048,-7.844446710816079,-0.8444617910937241,2.781182348864101,-1.618596044966582,0.05323046981840152
,0.872821334775945,-2.3256796592205604,-0.6464057981531054,-0.14133670877684681,-0.5146455984675583,-0.9870394042160032,-0.5428720969229368,-0.10496045044214294,-0.2362158944451726,4.134030940640523,-0.9976634055821963,0.3351479481307688,-2.255441985733808,0.23922912970133212
,-3.5616958115430783,-1.7507490436664828,-0.4029680396282145,-0.5383281589206707,0.21961365470531338,-0.34557544396611656,-0.1655433682724581,0.05301969930530485,-0.829817911985989,4.917901724186518,-0.5156021865732012,-0.6743743231850243,-1.8223937956270735,-0.2134250169650455
,-2.14318645160689,-0.62672683293879,-0.028180086672846803,-1.1803029488324879,-0.33629932937483203,-0.6557090299845908,0.003268662921203714,1.2344662404114604,-1.1533862666734107,-4.98722317042837,0.28098129476948414,0.23447614928507135,-1.047847159840324,-0.55887330126523
,1.4538205254267822,-0.1648643611925295,-0.3701737869362055,-0.793624689146695,-1.4904760828580303,-1.4474535593175157,-0.9298279692035166,0.10668695625338208,-1.4990235833135426,-6.755586228175403,0.22452686471480518,-1.761112764556618,-1.7012951639431884,-0.4398561286696064
,-1.9357272028089572,0.7891425174914811,-0.11491117343015253,-0.32207436514604065,-0.9524517325251884,0.26212107221456293,-0.7770503709753261,-0.5369103075892301,-0.6951201470718907,0.9988433385498372,-0.2798194416861418,-0.6994500496990773,-0.4243645821880625,-0.3429009570787966
,-7.744783790120497,0.2691577390777899,-0.46779321986370004,-0.4359777113101684,-1.1555758178976632,0.8514657292088736,0.10076574062005847,-0.25557794753195273,-1.0255865177684305,1.9938354290689473,-0.09696640547232077,0.9910935758391513,1.9833512302038752,-0.361868448495784
,-6.314237510716827,0.11835548328828642,-0.015552448698454622,-0.580255951389801,-0.1787840656536102,0.773624681048523,0.9445912540705144,0.4883950231174613,0.4269596208875818,-1.664315562244264,-0.29353238639174045,-0.23401978837441825,2.20566265656028,-0.4194785027946057
,-4.879105995276739,-0.3818786866826872,-0.00654591058576555,-0.015099663868457116,-0.029951895490703147,-0.22479453492781684,1.205224307066108,0.7793982386182925,3.0773600027108405,-4.452812544869452,-1.5403985795468031,-0.9232224852085856,1.1388988569827976,-0.4527713240341846
,-3.0597240360103672,-0.6531633219316386,-0.4706589190770351,0.12870383642752933,-0.42617555969521076,-0.031176268789682934,0.9260130984345608,1.4080097829586011,1.5201475469566137,-5.522417622729751,-0.9438155540466271,2.177293075543287,1.4030082134397412,-0.382804293860281
,0.12967758796643306,-0.6407452603448407,-0.48572974638518335,0.09781270248356354,-0.7611687669968555,0.34160764656369447,0.41319113634319266,0.6178849758773872,-0.04763660014507821,2.2093929907125927,-0.07966210148245134,4.563337123000277,1.836481501775164,-0.7279178289289964
,0.9555867962543986,-0.49117320207743653,-0.15352093894450175,-0.12220109471184622,-1.2705684369158459,0.34698965673879284,0.8636736718860081,0.31876067904547734,1.0957144066766547,4.046069607098082,0.06846731490219643,1.7655211759229001,0.6578063995484483,-0.8404192999755586
,0.5389360987825356,-1.1683538430930709,0.13266842562933615,-0.06931207857261597,0.18091242316703335,0.6493399894943628,0.5558474404736895,-0.24823144791268278,0.08506229474856059,-6.078000792160618,-0.6892608688368508,0.2997636521007576,-1.5464224857503146,-0.11898891657921273
,0.6385321571941418,-0.7075548656979882,-0.4815029030332379,0.5120904564998169,1.3455148131550732,0.6089395260053497,0.24238487444120937,0.0678600977055687,-1.136762709934014,2.334536116427791,-0.7729241384716952,0.16578656063093855,-0.3273522649181434,0.028107676188031932
,-1.240858956193578,0.4271324459793967,0.4667093067723771,0.1419630589791746,1.3893524562592483,0.26206549440845334,0.31833159763317065,0.3823230557543113,0.2184503642499225,4.4378235726574395,-1.053513198233873,2.6588877415780248,1.4602505729606836,0.05488821896592606
,-2.445657797198263,0.6438089807506143,0.9162490971015754,-1.005636137804763,-0.09718506641499465,0.2818185441477569,0.436314133649426,0.018414701929892256,0.7319311715825075,-8.772811312066052,-0.5405821763970177,0.5952078046420362,2.1245778218399787,-0.03295994148423241
,3.3730176863835135,1.1018716172255199,-0.09980585105167737,-0.8032526421343584,0.010981102836120077,-0.645860546173726,-0.015924151825861273,0.3767961428778647,2.4025656752382547,-0.10771055038855153,0.0577555789051763,0.17685826463545043,1.5354525869962592,-0.05912459043861396
,3.7450620333630806,0.7213848513214787,-0.9993100130661025,-0.3315150681412928,-0.2913342457718287,0.09662582823203078,-0.028419055154738908,0.4487127327646241,1.3615050192183913,4.202591796677692,0.34559977096725564,0.94145541811973,0.3457383836553512,0.007257853514587912
,2.9907880875003445,0.14973163589994054,-0.8106820523474769,-0.1932076420912233,0.7546294654911035,0.3050790015265235,-0.48000644472301646,0.43336561570471427,-0.09556585971920646,4.352051944976729,0.6435082765372556,0.1361194163992421,0.13636253383117838,0.24402100308142174
,3.5482527838957343,0.05633568237965941,-0.3448697676984041,-0.3808969431226547,-0.22283371018451298,0.3803706681576448,-0.03512850340106562,-0.050519126579480815,-1.1110931562461097,9.30222289081774,-0.17733030513348308,0.3073895118155021,1.0001655637819085,-0.14535468891757478
,2.7563420992118233,-0.9888493451735715,-0.6430197624413511,-0.733690319494371,0.11741028204001108,0.3409150767848775,1.184553827842095,0.6785645623707073,0.3078310297768914,5.216326416092086,-0.572205542801427,2.0888105830026547,-0.701675479631169,-0.7305308395976006
,0.190878248413457,-0.9360478547491023,-0.22219629807697028,-0.5780612211257422,0.6012922751604287,0.6241362639577999,0.11524388768226042,-0.47204900097649827,-1.4544089434751344,-7.5523721717398375,-0.04382529413605737,-0.1107899003078453,-1.7334862826805566,-0.420728602381666
,-1.2898764064041555,-0.5897724299083996,-0.24000004114938092,-0.12887493625109742,-0.0902988792510011,0.35367481538242296,-0.2292690343218536,-0.28930164854651447,-1.1388685102013847,4.93965041159999,-0.8727313511538253,0.34855786474142925,-2.0551507682200763,-0.2398376084536391
,1.1715645251474724,0.7104755012469909,-0.5948912845757789,0.2814069238634964,0.18853517535055198,-0.3054902823117259,0.00015369941818820702,-0.1381530671368544,0.6029103763327675,5.156701201769634,-0.9458490013904531,1.3321154423854633,-1.8965766720735209,-0.027773311895271127
,2.7911974232392818,1.3378754649917828,-0.401969295443141,0.5069139781046011,0.07182793463476216,-0.6588375878065251,-0.5056112083085108,-0.7924867386638711,0.571967343765239,-5.454564967620347,-0.16291437719161214,-0.39174994538022434,-1.7125807511818558,0.20981543784895906
,2.5377044026934046,-0.5695403651304665,-0.14455877155665509,0.3358932430429124,-0.09675560518204038,0.47723053130052456,-0.16078623200522843,0.41059996522517206,0.5548288478894924,-8.861602608057304,0.27001177100095625,-0.19847499955668346,0.20059655063856072,0.12533919643783473
,0.36487293371645657,-0.7161874891695394,-0.20927707989582048,0.5505847572033339,0.9060814424941381,0.5655088701868859,0.183927204482127,1.4025928404961387,1.342352890168493,-7.792244545894697,0.4466077803949205,-0.6297553430301763,0.8601148405450464,0.0995534161443922
,3.099374924223496,-0.24125199853670506,-0.20718520213817498,0.2911277420880823,1.4021846602528836,-0.7542005908949514,-0.005974715033318915,0.708248218293867,0.45565687255113907,-7.110878481450767,0.007910345673733828,-1.3964474981718349,-0.3256234764620658,0.0954567994163679
,2.640182979480294,0.0030119564980446004,-0.5521752865768753,0.5288635471723538,0.45227489675436977,-0.28360819145287386,0.4484129249378693,-0.14301486277083736,-0.18414339133000318,-2.6083528509293075,-0.7210978017363678,-1.2010445946201112,0.2552392559981319,0.04817763507358172
,-0.6993616136190516,0.6092826356967876,-0.3146914415046655,0.6066980486106711,-1.304670767228083,-0.6133313638562772,0.7778727212101241,-2.1380698632911685,-0.8735165213053254,0.28853536948199066,-0.12977800770411946,0.3646843988300846,-0.33718333867392075,0.2809008027136058
,1.07522146506132,1.1303861872929224,0.1318227249678222,-0.27938600740741326,-0.340734067833131,0.03588939538120273,0.17880793350111798,-1.6453682346423897,-0.6224579718518765,-0.2641471113291313,0.31716517126209415,0.7651647794071275,-2.035470603904582,0.1340770887087856
,2.612037768288174,0.6210363410230089,0.8455445008300319,-0.40086171138259685,0.888604179265618,0.6797528370160021,0.39724481106164217,-0.0232965976523038,0.9597090525326429,-0.1242704244542337,-0.13229706115945875,0.7608273309626258,-0.738057659299847,0.17444341412603015
,0.3818227796467047,-0.09811465477143591,0.9624577696102359,-0.0069531013524732335,0.7273078233377247,-0.3579242216010133,0.06572873845142505,-0.41808560732932526,2.498151439004641,6.2391674857893165,-0.29860442545787136,-0.2455549729147712,0.8375705417320687,0.2690891615863147
,-1.7716741355394436,-0.8450293082591468,-0.5152616056179198,0.1088502701188246,0.5490338628969069,-1.0278683046526071,-0.27527664477964076,0.020060402459959843,1.2888700245900946,3.4726006807056824,-0.029532785748537967,-1.9175686297997356,1.4891349872740112,0.41763406050656493
,0.6033919145562576,-1.275394088895277,-0.7371915001537804,-0.11071918164926438,0.10397484300987275,-0.8306328957960838,-1.069846420835466,0.3245993533657648,-0.4101867769004361,2.0247273979393148,-0.406663317790767,-1.629506436983503,0.695297941003193,0.33928847899473025
,-2.751937116035834,0.10660275499634102,0.008623888594335362,0.2672939143659287,-0.05461052790946823,-0.38565480790118434,-1.0126096583978879,-0.3959523015700544,-1.9002540735163023,9.568723022862537,-0.3526864708281657,-0.20514265730938497,0.8357755333589789,0.15920828378250265
,-4.988118233484303,-0.193764170652654,0.9763605455062184,0.1852282022288585,-0.1816799049531001,2.195369514808232,0.017502149863737482,-1.2425920219421043,-2.27127291851529,7.227031063683799,0.36651140719392133,-0.10050244773670136,0.4634340321446205,0.014028724776336913
,0.791259487793521,-0.9933349607579336,0.5708059480806517,-0.13062706907206267,0.020461054882612253,1.5259948952412357,0.3976190462512131,0.2489156226213303,-0.15614200846904872,0.7673664304941383,0.9257946910688054,0.15850993711284295,0.32162324453209545,0.15233621826418747
,2.3935801757841704,0.5377969667555397,0.39645835095256454,-0.8257024089836964,0.7384475443591022,0.17022775871738363,-0.025266493250608455,0.11114741612653471,1.6881946185324952,-0.4767835234734481,0.14177691745670387,1.0518883097588265,1.2991133215218562,-0.13435062135556536
,1.1900360376480232,-0.14311862596215605,-0.13180901302484063,-0.47227862085568273,0.7882678965270252,-0.7642953630837513,-0.3439029176106843,0.37692939174552403,-0.025011187294708023,8.474958713079264,0.07126617073501211,1.8565677824118052,0.3857903463798399,-0.6388452734003448
,-0.7580551307737124,0.36340686527897464,-0.11764497541964544,0.2870217017837222,-0.22035941681829227,-1.4770108440095575,-0.09786558421813434,0.09896537796267624,-1.946838309819335,7.026607229123713,-0.561079179208424,0.41269604230300144,-1.1523505164304775,-0.25788835791376763
,1.7367942785386539,1.1627701469925589,-0.18940875875677207,0.2292278851570856,-0.8157089637778453,-0.2415730705155646,-0.002809816951373888,-0.2597034331473975,-1.4019717786894166,0.7258871099246891,-0.24953492873832575,-0.4660153619110433,-1.8644164147802829,0.020023897277711065
,-0.9962613750634983,1.227865267652599,-0.08951454412756452,-0.023362894645093973,-0.4952131241372535,-0.14758481307250615,-0.08091986373140517,1.0879462296421998,-0.19506035165015256,-2.309026318129628,0.25497906343091714,1.6524264398277355,-0.43615730202242436,-0.3694339680152608
,-3.4360416235780082,-0.24074725861933952,-0.3570278126763339,-0.3266982616951294,-1.2071744884799291,0.514035220849712,-0.21782354855008085,0.8906036979074573,0.371781394007206,-3.673586560213076,-0.06112172635676285,0.572396883717126,-0.37448985520300093,-0.4445954419318586
,-4.0248299193366215,-0.44567620143212344,-0.3263277370928103,-0.8142000547283634,-1.8597313374611144,0.7196754433351913,0.8259663656045733,0.5854744064989549,0.827310150065692,-12.59471207915285,0.1403723865117362,0.394851037702769,-0.37994142835180095,-0.4844435151921497
R,-3.3432619168303943,-0.403674457621401,-0.34594663637600354,-0.686536357479387,-0.6883352053922396,1.0870044290412633,1.0784435885645764,0.6128823274536757,1.456580797903927,-4.770970842936575,0.6322791424188758,1.2004920886912303,-0.8987720258253695,-0.4526249826301466
,-1.4709241390654721,-1.408018024683239,-0.30185142705329615,-0.7663245690235881,0.4999843589540578,0.8561234947931098,0.866122843663913,0.7286739714075842,0.7880382897936151,7.301866516730307,0.3795721347429808,0.9037029897961654,-1.5937420439279661,0.16072136802436962
,-1.530257263674465,-1.5099331969361245,0.2187061682870175,-0.38135793434990317,0.26061871387546026,0.31086260085658185,1.0827823275335127,1.2585851030551507,1.377167655272203,6.651679263519291,0.20806458744653186,1.2503715141082703,-2.274217442970377,0.08366781184175226
,-1.5471134681854672,-0.8569988502038964,0.061221263888553284,-0.4332903742673655,0.6193284279697723,0.024732654243613175,0.22882223288408643,-0.051851945236767595,-1.065309745067488,5.680739107038859,-0.6267877434058788,-0.1721054412573053,-2.0437208849805497,-0.013408576866793993
,-2.0463899380055084,-0.30493903586424914,0.06061289706361141,-0.5472102392804991,-0.9293222694656925,0.5772276794872714,-0.5858800065531343,-0.6690796771694761,-2.117677871858757,1.9714303553090173,-0.6941262851207096,-0.08292186808115593,0.5943669377078146,0.38779663275882187
,-1.465473917505614,-0.006735953870484584,0.21082251420891157,-0.27910816732756577,-0.47145637285111863,2.452084587463618,-0.7023090164276812,-0.23132647216300023,-0.8924712539443908,-5.8402958822131215,0.19115801713016575,1.3276546966578262,0.9160384264948478,0.29815885425441196
,-0.18417489363049067,1.1495812733382125,0.43211177514099086,-0.13777583064196428,0.6207323932525567,2.1809612244865746,-0.10852404428241617,0.4878031069075242,-0.44693495104812475,1.786541225514257,1.0719440574192303,0.6157100876851828,-0.99358720894973,0.2074345290267518
,-0.0141786825170544,1.0665095165995166,-0.19730960262944275,0.03824153634204347,-0.2694079824541288,0.6039634157467851,0.15564122166321875,0.7146803199624313,-0.03205895587136178,4.473905898799279,0.47526456044870036,0.8389763438912679,-1.398334183617389,-0.0356667995281825
,-1.2605350345114912,-0.4025019169388323,-0.0073204348942585,-0.053563906908109006,-0.9561824760968074,2.1586700117333963,0.24272207653764716,-0.2252239558327591,-0.2851195961698756,-2.223493582932537,-0.5773776131852434,2.4776999960477313,-1.0837863583080583,-0.669157566453383
,-1.7491501438802484,-1.9613055704463722,1.2963374694774077,-0.3859425226572112,-0.7064710152758433,3.0776233620861553,0.11328717705434987,-0.7533699850418334,-0.5921354899243985,-2.4185489578896355,-2.2886399672416986,1.8581666000181651,-0.09499136501447307,-0.8611791178501457
,-1.837857134068175,-0.9949096019953066,0.5240632744773682,-0.44029157127095125,-0.9124044546126732,2.4109966147988993,0.013001123549416462,0.46670645011150885,1.4882945933260605,-12.349586582465182,-1.432474817295557,0.6555921499590665,-2.36569289023857,-0.8241031725195558
,-4.019529203175649,-1.502526530883776,0.8279542482219461,-0.9271023964815966,-0.010693192831338787,1.722154391351315,0.24008992402151821,0.041188514827955686,1.0551476920537872,-11.0129882328749,-0.788625826624085,1.6328209801945297,-2.148874739949675,-0.8816010535721552
,-6.495431754446218,-2.2834404800260595,0.055779534052617395,-0.6576643394453998,-0.5560557879962885,3.2310535126141766,0.10107895380281995,-0.35254572552209,-0.49728004089684075,-7.213357201238044,-0.042084099354351034,2.50489212113236,-0.450010799229226,-0.5613222604073865
,-2.5175747585102832,-0.8420987758770094,-1.177477102025439,-0.22940218025965692,-0.9327184048634993,0.5647419957826749,-0.4306068450086858,-1.694091943051822,0.2412196945989363,-14.20430046819064,0.4169666102140193,0.9720920102254353,0.41760516678989074,-0.6965134531011008
,-1.5500969005676017,-1.619792859527146,-1.5741529621961945,-0.2512046276550106,-0.8069415332179245,-0.5479407735857065,0.33341818213493823,-1.4942686265869738,1.0730374259801718,-11.667475508090982,-0.21184890407324286,0.9467258859924703,-0.3620950395558623,-0.7502232553819929
,-3.85110364486156,-1.201801927897337,-0.6193637781038673,-0.19234946076733273,-0.5893626094001239,1.6497696659439596,1.816642514321746,0.10963790879197134,2.5462869273166917,-2.664321568620353,0.16219918986447684,2.1656027558773143,-0.5698729466279764,-0.7876415258239859
,-1.1046285272700345,-0.9864022447109032,-0.6197301130822452,-0.3931776357892693,-0.5330759449039215,2.057634130402875,1.287395886123488,0.32199399367370524,0.600612370269003,-3.139254929000211,0.01159529559552526,1.426936370693682,-0.5557388960242325,-1.0853930724288507
,0.3704147169463638,-0.16490640477753812,-0.2217833512444583,0.09633943781146975,0.18563882202850374,1.5388857927986441,0.7626965803873725,-0.20598324094132542,0.6126380487551789,-14.801274790374826,-1.289813166309863,0.8087960061307413,-0.144123234838869,-0.7221581261116367
,-2.509331745055284,-0.963806005042365,-0.3237629675165759,0.34534964278887714,-0.27999394311927667,1.4131421792299512,0.04482194353955393,0.5573390854293759,1.2973592115431496,-6.17296741866898,-1.8515068822741094,1.8085234117023719,-0.23569244882244386,-0.6476031602439452
,-4.9435514987488895,-2.246698877352124,-0.9730112692325528,-0.13551097529904696,-0.21677168460131685,-0.6101690003010287,0.26572610324951024,0.32712473762109456,1.2927327348265776,-1.9101474505577665,-0.2093217375729027,1.9248030812971073,2.667574237320914,-0.774198729532729
,-1.3915654963140272,0.08474323948052645,-0.12537725652821594,-0.16502267962007333,0.02277775416614062,-0.8759301794209473,-1.1592513711398735,-0.3687836490886033,0.5758326261754477,-5.470125136275994,0.2870205384534765,1.5989105281321416,3.4573014403387594,-0.8066919576554746
,-1.1566288750907925,1.036564194843616,0.23263711495439127,-0.10103031392314066,0.5018267147157354,-1.2941147231226693,-1.2363907494117552,-0.3648070053883426,-0.6872051350238244,-4.564319354740352,-0.791995739183827,2.015278445940523,1.8873580780751067,-1.1786995342220943
,-1.4462778405008991,0.1759603806827546,0.532881294186867,-0.2313184475840932,0.04089037118544729,0.005535429724672138,0.28594197989931197,-0.47012014206107244,-1.5434629659733685,-5.002016507314838,-0.866995419310571,0.3314869729157085,-0.08504660391200917,-1.091595759789592
,-0.5002772456145309,0.28306432876633714,0.854863573121154,0.04422327407319593,-2.423554706609197,0.043929011461610774,0.3926752079880647,-0.522919875099874,-0.49731766298999597,-7.402533419417147,-0.2651023148575082,-0.2711247613497907,0.24763397092289943,-0.9406698678262663
,-0.431738559167706,-0.341171090678431,0.24324771048588842,-0.6048858474039264,-2.086094439633487,0.6524177572375262,-0.2459631123934417,-0.35951898518844044,-0.49007491042950685,-3.203292280762882,0.4652487209119524,0.045155683851226966,-0.7406180673361991,-0.5594197830590403
,-0.4224833464235998,-0.5731896501069642,-0.13185748013792128,-0.39450284424381427,-1.9709823521639493,0.8931391273955446,-0.42577691920076355,-0.3454587031942836,-1.6293363478416234,5.2211461762100555,0.7057697908195971,0.030145051112332642,1.6168428542485258,-0.2920282769945441
,-2.160359345813385,-0.4346099887679434,0.8027047356236013,-0.3628496159234411,-0.8627997464756553,-0.1844220172372537,-0.6883964018793377,-0.37819205054425137,-2.030848912031086,5.67105109016453,0.49079220155654124,2.348475705116667,1.8827323235760616,-0.47405155099198837
,-2.9847890047863537,-0.6892169869054595,0.23458196278760554,-0.517010620365286,-0.3343710277441568,0.2533669569026107,-0.4258226747058139,0.04537421701326244,-0.8263425098226325,4.641316151191166,-0.12092701399967543,1.86876624568623,1.301704256763023,-0.6304936268736462
,-1.1134004953170586,-0.03630851514803144,0.04622973693224699,-0.4476458240771279,-0.3793319643432934,0.8593046684243304,0.18388094522500692,0.4874949245059823,1.2720579781413108,-3.2475938333418184,-0.04022006977006253,0.24652351086265353,-1.2927537918317051,-0.7797016253164064
,-3.013448718859138,0.11962411136278897,0.31540983710368053,0.09034388269363884,0.824763195731044,-1.4988044190699146,-0.6883402872274083,1.1012159977306875,0.05455243488417614,-7.071939637999846,-0.08602605562861722,-0.5802471021172073,-0.22455470327492907,-1.0688051529697369
,-0.19511276176636447,0.6142255335256721,0.7841391318496832,0.009699014563647279,0.06828394320141071,-1.3516684733323605,-0.913684781675796,-0.36418206714160334,-1.1093419158145936,-1.685660573186441,-0.1142322974483078,0.29169126562429903,-1.2637214676926158,-1.2308584035180021
,1.330261342378574,-0.03139125754446441,0.8203874529541472,-0.22047823288115936,0.1745901429218195,-0.044946001840030246,-0.27192451409136714,-0.5121994390697886,0.20283853877991528,3.1771939364533086,-1.0992155416867846,3.2110704664065017,-1.1810371834213218,-1.1944611136447922
,-1.9044947266845051,0.6865561086748112,0.5687605428745863,-0.5751140082466569,-1.2565838313968296,-1.0261405379854984,0.01939462355371684,-0.05994997780054545,0.4193511296226151,-3.4204799614974526,-0.5703947982652322,1.8496693178211345,-0.8142335997320174,-0.9488283953942652
,-4.114477769330248,0.5548157711302886,1.5008003835994563,-0.49908261726002157,-1.15489789884098,-1.025473553362896,0.23171367679233615,-0.6047158089029843,0.21707750190786076,-10.422103893155604,0.11746877895790143,1.4979124120442828,-1.5641659675861745,-0.9729114450036759
,-4.88740599577949,0.3222868714019222,0.8333065947341517,-0.3421461294713718,-0.5116950432112078,-1.7159962148118504,0.20765995930130893,-0.11994831306416938,0.7542145620517158,-14.314492408208869,0.0929019659974026,2.632083039120026,-1.8204267362403193,-0.9753450194649745
,-2.3110908228635427,-0.38679980090922134,0.46028840917857183,-0.2384781251445967,-0.551675081456186,0.4991757564700658,1.347045199623826,0.49772173665585995,1.7484527065283573,-19.087451577506965,0.23482757852153613,1.0903435087954074,-3.7916293182167866,-0.3920047995563902
,0.5437017802099616,-2.1505928740960845,0.6151403074297075,-0.39675154304337273,-0.28281278653731057,2.7266337521007213,0.6455358937236568,0.5963746388999175,0.5759549908007494,-20.063233906050236,-0.920405580667667,0.7814127600639849,-3.8347780825096596,-0.338188108020314
,-0.21153801175195702,-1.066138355029624,0.046062879483366195,-0.22351793397786518,-1.2440962325771172,2.097500729379147,-0.23360999269557026,-0.4125912785019238,0.8253374005986479,-10.755160557501823,-1.1135234646641798,0.5930249424742632,-1.1393779449323058,-0.8856051176436046
,-2.6726353769112454,0.030937185183746888,-0.7665700964919385,-0.1572784365734819,-0.4588807087695754,1.9963498739767402,0.3323521137600528,-0.1702891586032788,3.0692069538365527,-7.2495846341442585,-0.8553386859777434,-0.26314757096098784,-0.23775115636489424,-1.0216562147721024
,-2.014958089398413,-0.5488684416762613,-0.8793451168806397,0.15768002840483825,-0.4930311392506374,1.4417161452835745,0.8293552640577031,0.2556673094868005,2.16130297109498,-4.138130224431176,-1.8355480714717658,-0.09379928762320909,-1.2624187803094413,-1.359740568973923
,-1.534440828049681,-0.13390534908506035,0.2584438374707954,0.23694752676394398,-1.1633864771844353,0.22965755847728958,-0.20342507023900774,0.11741004260320294,2.031233861939135,-3.6966351945103884,-2.0716570864630577,3.4978162948717118,-0.10842736912087705,-0.994133896744772
,-1.102459962081704,-0.32805366332904207,0.27218733646870713,-0.051250223976416834,-0.4835203689084628,-0.24647739577152658,0.1961753784628193,1.0087559932738859,1.7806232855224264,-12.633314996491347,-1.2409371877372695,1.970288385450981,-0.8301980296285314,-0.769069100429112
,-1.3868833100616202,-0.7289855615581308,0.12819528001836245,-0.23806564031514998,-0.9378263975596327,0.3413581229981808,0.8850249007556038,1.1333760400964155,1.563065477927234,-12.337819854104884,-0.608304746025823,0.4014675758735792,-1.3769264331583404,-1.1375426770811234
,-2.8675574364480885,0.09169090799634873,0.14000862334845052,-1.0048299394699176,-0.9576684356185938,0.9374150721087713,1.2151517461390984,0.09643602114626676,-1.0181656745084262,-19.203529175871576,-0.7332273373020972,1.983744625142715,-2.767494694306959,-0.8853253228161617
,0.03206281980180108,-1.004898744003897,-0.33786683791280137,-0.408647893193511,-1.3072482850988367,0.892560893732285,0.498588446528407,-0.6800308420280081,-2.2039000964635393,-10.577798662592208,-0.978983806323287,2.8716340886972893,-1.3482116473079286,-0.759699435455293
,-0.8454137656704289,-0.2990674686775791,-0.1629429923530626,-0.3042039181224218,-1.082661640673547,0.693494401821159,0.36663585297561463,-0.5053666795754548,0.3503706482067103,-5.796405731114922,-0.7712672588221972,4.368880867917317,-1.3329981732163798,-0.890578394122531
,-0.5114787013380132,-0.2710609855527274,-0.30523078551236227,0.3588128642496653,0.5252225771157072,1.0277224377529066,1.0685353777485567,-1.1216619075754963,-0.2350729958618114,-0.009319963359514155,0.42878877370408636,3.564576390657152,-1.6652679470529657,-0.7517943160413627
,-3.919106721985399,-0.7453273374364562,0.45888403422484036,0.7831454913716149,0.6749888283805525,2.695171841278703,1.672381915985811,0.031110993490705244,-0.9802539718477612,-3.7417659575621824,0.4463608034562326,4.265281756704601,-0.7224866841808277,-0.7831412076854976
,-0.5249996592166079,-1.6186474412714742,2.12279537142503,0.02134584066325168,0.12869002481091338,4.49701988725939,0.7462128823165112,-0.4207565776623455,-0.4489254275720139,-12.158759624944294,-1.0113734418645823,3.401744341466186,-0.898318154923681,-0.8330684223482254
,-1.7019910044382396,-0.640119548176951,1.247002182168914,-0.3510836588420625,-0.058648176836679035,2.9686132376782224,-0.24987959041273455,-0.5736461605101592,-0.5354514855462096,-13.074902408024334,-1.0703055447569696,3.649175081981622,-1.7726409344963028,-0.9841774733238972
,-2.1176936383643894,-0.3770192441239631,0.6497045461855455,0.016737063119873746,-0.2728404635096259,0.9473458272234754,-0.05573406245403807,-0.2476321795520181,-0.021443854565582888,0.7639144027168009,-1.301748773875217,2.8599774198916457,-1.7669520708300532,-0.6267946672896877
,-0.784280485093457,-1.1988861570031324,1.3178292922424937,-0.5002514704319465,-0.3984694929990102,1.0543396466312396,-0.6001491267747341,0.11520335170319583,1.2961420157520487,6.581372551582484,-0.913707259904641,2.2256957502419237,-2.4187887384471627,-0.5925059780417061
,-0.7280060665934739,-1.432479288648514,0.5537702675222479,-0.6420924808861699,1.2668994752221368,-0.3578621522266853,-0.111693396330254,-0.11071831235496656,1.890733678316785,3.6585640913430355,-0.4523906691641114,0.07795626412998385,-1.585886740270941,-1.098029190408844
,-1.2555118913483072,-1.2215803526233202,-0.23139301638765766,-0.3965042272961058,0.3437935869062842,0.4428122648877215,0.9251258803134583,-0.27364362144568316,0.7224750211282944,5.555979939934719,0.5984891601358696,-0.09800676836707631,-2.7741134664123415,-1.2631592703055086
,0.4435256436507202,-1.1720432029104773,0.14971742824688727,0.018158150219027218,-0.5968747975744509,1.2274677418500226,0.20879388839792076,-0.04866000297779655,0.9454761537280024,2.466608814722462,0.08125699517653506,0.8447558937842748,-1.5229046578928735,-1.3476478618172854
,0.02067991532147141,-1.814652623121368,0.30302700660987125,-0.30085747894187054,-0.9783290891951919,3.2985624802528095,0.025761107771002403,0.19127690850681658,2.055468926996796,-0.6080903078503072,0.2582525641331466,3.9546995192553918,-1.4150430023063716,-0.8567151163827798
,-3.5942283458303366,-0.7500422885780048,0.3369725132824253,-0.7872925531622305,-1.1245243014189272,2.254554608128766,0.37709651112620385,-0.038622143143997346,0.9414079426957239,-1.8390117752062776,0.061758700163778234,1.9670834314225927,-1.7928954904101262,-0.8776437391935233
,-4.938152010820358,-0.9531137807644199,0.45992864249224846,0.03214930062688327,-0.5229189774075671,0.6003227241580352,0.003203642962485952,0.7282474705818042,-0.9454350728036292,-1.1424797687824784,0.7090172385306751,2.0553193627293114,-1.1356760961886476,-1.2012878956386654
,-3.8886794353942693,-2.586069714902191,-0.25122779433291653,0.24357200278255123,0.21704291392433075,0.04119272152895604,-0.8968005267525552,0.500436757664287,0.9890721151527262,-6.843858531168225,0.5403420941243028,2.2627157614474287,-2.0244935483502684,-0.7485715113537497
,-3.2113768048264877,-2.2415280864257365,-0.018750300922502336,0.03880214260707817,-0.4287340703140416,0.4029532146591461,-1.4374209997444118,1.1851559691405296,0.6887242807995869,2.1670591042505043,-1.3391747166615808,2.7736928022223153,-2.0583955310242015,-0.8235695462843223
,-2.223269542166347,-1.6653773307240451,0.4123498390091047,-0.42231720891792496,-0.0621488241125819,1.8067714057214912,-0.2330435435337801,0.9180062495808896,-0.7963446901126963,-1.13718699243739,-1.5056948999830915,2.3986522794859977,-0.7428798611962792,-0.7750444656718731
,-2.8331871370563664,-1.3973129081976443,1.0646182360854974,0.003396009597480366,0.18756299444205216,1.0214268999621623,0.5076362353189016,0.6709584018415718,-0.13208331162755999,-13.68000926707942,-0.9477065269283105,1.3955918722679745,-1.1736694846768332,-0.5483463031910472
,-4.378157662701796,-0.6488796216656474,1.2107691323707155,0.33133568575090155,-0.3078468902223906,0.21140190863650868,0.32152655009951703,1.486561362158669,0.2728937761767088,1.727252639907804,-0.9284879494455682,1.0496663419530496,-0.3335331901566383,-0.7929535380123724
,-3.856964234874397,-0.837660903606236,-0.03770882960096897,-0.14358522822472777,-0.4929343198319472,0.07693383413129745,0.8345748143432395,3.0210250689349056,-0.5104463471146405,4.438439210282084,-0.4060891330716761,0.892639582995719,-1.4268206473994276,-0.7927500754336865
,-3.280048277668618,-0.8754566701732853,-0.6619099228634349,0.009381290275604491,-0.6522814007624403,0.04326579050593859,0.43849072882981566,0.9287851941696059,-0.8192465473736416,-6.302240494421614,0.7571929247024871,0.5556722239229781,-3.1415525135861015,-0.9519953272312914
,-3.5830159062643445,0.07673158616378857,-1.2628911413945076,-0.12139145644608977,-1.1954051531744556,-0.34690262623625046,0.07531610547589004,-0.29349399471001125,-0.20506374998279647,-8.48499489509749,0.6608363580590971,0.6521282801409948,-2.473392428984453,-1.1799249164785648
,-1.080271260052664,-1.2340144182119577,-0.8122700519496923,-0.583451139179953,-0.9206474225357796,-0.272531709850681,-0.042659833797606295,-0.07057256993950264,-0.3984405563772906,3.0753914803263758,0.4217665496585678,1.964051254769276,-0.5728595314480014,-1.5126505133002395
,-0.8666623322822766,-0.7648706539706391,-0.5980814826018876,-0.8972817541386768,-0.6973215444770033,-0.6782274819807799,-0.4459180554697479,-0.23280134594604984,-0.8267180418968229,2.213681186090428,0.6827171017203113,1.465742128579841,-0.8657734682064515,-1.3555533792951175
,-1.6144626933860313,-1.4344587612149022,-0.9825121825391349,-0.8225300912555576,0.07483570593335638,0.21427169730829845,-0.30724318682502166,-0.8617786591141121,0.21075816529259833,-2.817049005612375,-0.20413063311747645,2.490131897101478,-0.8708913648931121,-1.3960385710509968
,-2.310039850826152,-2.4061948777056203,-0.07087823230356036,-1.252323189141787,-0.5828237195337926,0.7917240468302412,0.49070862007740723,-0.2512989708388595,1.4408570382913246,-2.2222408773692295,-0.30004414353639003,3.660244180517071,0.2489465895456324,-1.1953275665006171
,-1.0872227703752613,-2.010633806244442,0.8371671143983583,-1.1840278613049096,-0.6279996795259855,1.5272146181629442,0.1796518087757838,0.7813540647362526,0.17965209145193387,-3.780214602179959,-0.2361929813252259,0.6859202800866219,-0.1944406269020375,-1.1544169031833273
,-1.1188522633886457,-0.9994203099075936,0.38222217004368136,-0.9229765144802975,-0.2639994077998827,1.43761254831518,0.01486173226032884,1.1496594763016246,-0.23764651046536198,-2.178084978657322,-0.15562868208743422,0.2608700776911202,-2.812945311154672,-1.0000437746244644
,-1.3174908318007197,-1.4824844269993578,-0.4488815893870767,-0.8690389684097752,-1.50493316847939,1.5558806623431594,-0.12159148119504096,0.9725915323009762,0.6263209400342109,-7.504193504561188,0.05363102896758601,-0.885810457061053,-3.806672167032085,-1.0041672492829985
,-2.7635160079662837,-2.209364828222472,-0.3740996961416654,-0.09510486047728768,-0.7487541076731157,0.39440742011593327,0.09833693741452872,0.5315006212709973,-0.27768279479183317,-7.050462617189169,0.011193286243308315,-0.8595477240938768,-1.8836457727199305,-0.7754321772726233
,-3.0004732108669625,-0.9409493105602869,-0.40719131969591416,0.3113017773960188,0.8120888444204887,0.9540209450959245,-1.3679713374517657,0.3753441137557424,-0.667459592649782,-2.6864053115760704,0.6776874101949881,0.5425810365136132,-1.2762132034004314,-0.47009451293840976
,-1.685855819595946,-1.05382872402236,0.09198997952876889,-0.0460807904286015,0.3756973257723675,1.651987529182081,-1.938087617825914,0.09532381977265705,0.03296965501333017,-0.2063411607085367,0.5437880144835485,0.5850884152212509,-0.44208207602843397,-0.24836830196777693
,-2.6433042114752228,-1.1322272436842775,0.86333716361808,-0.2545273605040909,-1.0169436171462771,2.78135641572316,-1.1174666591243199,-0.497977680894336,0.5807630150696752,-4.649731173113228,-0.3326583785226113,2.559142308458587,-0.5100049044977404,-0.43124451296666544
,-5.02676634377472,-1.4620446600682193,0.2569768629476329,-0.4950248846263303,-2.8635597732340474,3.455012167925987,-1.8008475022033597,0.014177288532057894,0.33468966763499325,-2.464109655673644,0.3237072597743285,3.72464092199375,0.9391799555989514,-0.4256315499587976
,-2.316242323840719,-2.4463349529920086,0.7278822157643594,-0.40122422887545706,-2.36706169736494,2.4718019683310124,-0.7816665629862999,-0.12558674060636563,-0.4164714239816296,-3.9857327384031453,0.22699149850932757,1.4377959757132759,1.0363007829664415,-1.1467290499444927
,-1.3405886669161842,-2.0656544368732352,0.35340872881264634,0.11453063882532628,-0.9714177652687992,0.7397099409179956,0.8158887892154083,0.028816512430364104,-0.8806772677389452,-7.072181964428045,-0.17225790924816478,-0.5542094488542664,1.5307443587016465,-1.035846198551954
,-2.3765995729270344,-1.846015029447129,0.5373155409116754,0.32938323673456255,-0.785585913743743,1.4362168789496583,0.9775918204971505,0.2778726326159447,-1.602836496399305,-4.767553348192872,-0.5845508556906752,0.44938184835451184,1.407203149776993,-0.36342887993281475
,-3.014223299031921,-2.1591477898678058,0.058810314404109054,-0.04447760443894279,-0.058745562194773844,-0.14116040480741882,0.5845731570447824,0.360631283341264,-0.34886790695999337,-2.4281517586320076,0.5502556371700122,1.0853717068884592,2.731145741410465,0.008555504444583969
,-1.3395534409040586,-2.6453570618066435,-0.07540261366673438,-0.5954008019607795,-0.13649588235489118,-0.800302337682519,0.02855350097262646,0.07298878053073109,-0.7663574217420566,3.027042331811694,0.33083920690027324,-0.4723988333364929,1.5815518100049477,-0.036140349062251505
,0.35152721487467364,-1.3104740274736155,0.3037757545993368,-0.8332409947771033,-0.7580904371305848,-0.15278839525121593,0.1016506321844619,0.17254381075047787,-0.11073655768465247,3.5828618101444722,-1.1474127753572438,0.09148532755642264,-2.0473468752035546,-0.10815923738376866
,-2.221897566345577,-0.599919380648684,0.3272798540548029,-0.4244898789812692,-0.1455653859401281,-0.7890856267232226,0.7810149960256996,0.45467111223987133,0.989213288926232,2.506393571938856,-0.5766182732854088,2.998254658822487,-2.3948762665662855,-0.1930677038607757
,-2.3846414225969266,-1.0838576905949198,-0.9764094288462308,-0.486194962577731,0.35651281803925416,0.49965202711535633,-0.2475235584322816,0.5411255051364827,-0.9022544755938094,-10.9294026508229,0.2083279219125553,0.899459735491618,-1.5899820750318212,-0.1452561003029759
,-0.3311867181750141,-1.0238714268943294,-0.5739718867214523,-0.22128857368832988,0.13706778775130818,1.1564517219105541,-0.5612351003453177,0.500550378849972,-0.5154726004185255,-4.50153124069995,0.2157732414692334,1.8134350410556035,-0.29736862984935447,-0.28243871024930634
,1.5083922431778143,0.02313120305301403,-0.5577171435284601,-0.08519863706967219,0.519469575295513,-0.6910467151435291,-1.6135704654342615,0.966108861126627,-0.6966312297643591,-0.44141093833497547,0.3842433931604862,1.0474014518880226,0.3671558431857783,-0.03459235070902598
,1.7378196337609604,-0.2880865481467712,-0.16285043068543023,0.05885778325477731,0.15009038380168618,-0.7470482456866335,-2.107503274044807,0.31722444935226735,-0.11524658402487294,-0.9255782903328174,0.06950699450889096,0.07708148351204422,0.0380509611451041,0.112588092054158
,1.1977663485972876,-1.3130151957153282,0.9550043901788439,0.05557538639185524,-0.9566334261199645,-0.35312466471221093,-0.6003293558598719,-0.7596836452291157,-0.08520499135882753,-10.554816940622976,0.9114811033055173,-0.8025460503639449,-0.2816565356857798,-0.16463214964413864
,1.1440558719342988,-0.11232870678758303,0.681195903119855,-0.09743180509251109,0.04167360145071165,-1.1420564254723622,0.21366514655080313,-0.8806421396512087,-1.2010822079799046,-7.534305935194967,0.3234201349072985,-0.9457397363977462,-0.3066478989113321,0.04076713291156301
,-0.6233082457644296,-0.21892529733554295,-0.47845526886451756,-0.569639361424519,-0.9430318901397637,1.1470204016948264,-0.02264656295691968,-0.1934491669110968,-0.29206945077114443,-10.114190322770646,-1.2684914463196537,-0.9448515826423042,0.5942728962192437,-0.05688448914605683
,-1.2926200725548391,-0.4686774601251616,-0.23093828328535101,-0.4718253064023226,-2.548622425393201,0.32093930675025806,0.1103449548549896,0.4874110621859249,-0.8071566308976502,-7.1216226215618645,-0.38490760761087234,-0.19407039333678444,0.5952151846079885,-0.05197604490959565
,1.3599705946568714,0.24149143672502366,0.4505891517907533,-0.15703925207828398,-2.8166056476324903,-0.2573010974485121,0.5769086537574377,1.0364782583351033,-0.798224154090586,-8.61010376168188,-0.06427956182217133,1.5753957299998314,-0.1673052850806842,0.03136442795221668
,0.2872982296043946,-1.6690736308425995,0.17823629272903502,-0.4836162472245727,-1.415823786145273,-0.1804414380166213,-0.09749121933172043,0.8511434927895195,1.3223345479198265,-5.958110507485431,-0.5974381728813425,2.2545496009218,-0.04558240657893684,-0.05266793733257894
,-1.1708656060112155,-0.5010246322810344,0.080864174026205,-0.7035572474888134,-0.2111231175477075,0.5306410143342004,-0.13193126846561928,0.3910775169848763,-0.3729157700064171,-2.6174089298002263,-0.37291463830840166,2.5547315335620637,0.8066942336707102,-0.016089752312913316
,-3.1561476452767865,0.39576905179842187,0.34882801972524696,-0.6544136982610735,-0.8464124499534482,1.568952023567695,0.3131107466201861,0.7466240484068377,-0.17440486565024146,-11.960543247778759,0.11940925186818177,1.1407842950115503,-0.47640472279658364,-0.6692678047793937
,-2.412720400955316,0.37943227343050573,1.0127648860972354,-0.27945426344793406,-2.0925393424886094,1.7907671338167075,0.6544711451180945,0.3068575033020197,0.7185927943011432,-4.156809099842162,0.20747709697582586,0.16093138537278995,-0.11381845333185264,-0.05044165896967933
,-2.6094418902859213,0.09108359124362128,-0.49519160093198467,-0.24747446527749487,-1.1056130727439666,0.22691686331042002,0.24353323756634548,0.3522941253022903,2.186803522667311,-1.4036965715276433,-0.4437328736773692,0.035138248828997055,0.897364421457909,0.12237602942615142
,0.5128575702944812,-0.7700895948125327,-0.9110854724540419,-0.3581956509982096,-1.7437543581623336,0.3388522918860289,-0.10102953465169988,0.2812883082850637,0.7210781377125967,-10.252702178601023,0.12787309035230832,1.0598891723248056,-1.3603199654777056,-0.5044496190097808
,1.1079327082457977,-0.19476297827168101,-0.7158352895456812,-0.5313349573611035,-0.9552661640628383,2.1871766735865585,0.5364292018677297,0.4952243348635215,0.5345111535429325,-4.090193995499433,0.879317878739344,-0.8810968139395463,0.3019278629562491,-0.13008538647152004
,-0.9104256084880593,0.2587370392427352,-0.24316970798554824,0.10322627035454199,-0.8743218988017817,3.618361620072243,0.18978216498827255,1.2077440477485206,1.1969251786646011,4.098032147366494,1.4646967961361506,0.38280324666750276,0.5912326328673881,0.11905582153397497
,-4.527832247199611,-0.44234598831038874,-0.33159543924242774,0.3351577485096524,-1.7251562432851908,2.8152401503312836,0.5751026156624001,0.07872440501385844,-0.47437261428788263,0.6126974757127093,0.1361290862076791,2.0746873299388446,-0.7767454229265469,-0.08980271164834257
,-3.8231695312947225,-1.8281498291602523,-0.22520954091323778,-0.19993504612142898,-1.856741890680833,3.7203893943086404,0.835291081029247,0.6025158493412784,-0.5415773890900858,-3.0432562979403546,0.3458275691839,0.7630000995462927,-1.9907788249196359,-0.5906691577711779
,-2.7363430997703384,-0.9034030811387227,0.5301160250734609,0.276661353256415,-0.2613085643777213,1.7926979192320502,1.9247095074769494,0.7187531338311612,-0.6047099667024421,-11.95111118131158,1.2389787620281998,1.178651071550963,-1.0668933842992137,-0.5191268263784954
,-1.454653416179447,-0.36345302066946805,-0.3709255092905535,0.30034136080900153,0.721364101705422,0.5437463801502367,1.0297039026007861,1.140579044381674,-0.44900489591585657,-1.6665933869270553,0.8725802837945372,3.501882162286545,0.9171342964288439,-0.5236720912462312
,-1.6808597391447293,-0.6179938431898375,-1.11418052919469,0.03266006506679037,-0.5478240866719232,0.984947692298446,0.3719789219292824,0.35633116901348816,0.26257664433171246,-1.0317283206736612,0.0988755177036711,4.3720151582089795,-0.6909831020371607,-0.7869253426906261
,-1.7923235314730885,0.17414627209359743,-0.4402050585514534,0.045628685515211556,-0.7085205224730639,0.07191996188872421,-0.36571410677312344,0.04426387716650233,-0.556492564633168,4.338634284052849,-1.3877187227175625,0.9668558578640474,-1.562513140975803,-0.7476317668348631
,-0.21601202371533898,-0.5980832793223045,-0.6418503369573922,-0.05315280904288766,-0.83763777570104,-0.8494694456331426,-1.0759970418699958,0.5904674207084376,-1.8047035310256794,4.453085549297463,-2.6156026794389007,-1.2712491557970922,0.3584094946454254,-0.0853630232499582
,0.3972874856039056,-0.9181366484667042,-1.1140552891475997,0.04357148704709198,-1.8600410114902353,-0.3192414510495111,-0.807700099195511,1.0508773785666408,-0.7414270156254497,5.624010808745703,-0.5667990016090466,-1.1918490499594503,-0.1531080861700462,-0.10353045800838814
,-1.8857310882148612,-0.6788147385063017,-1.3012281668272767,-0.4658796175162467,-0.36195331936571,1.7380583979953481,-0.8229543898773405,0.7573229668543139,-0.5544859335306627,-3.2211399458844054,0.45418317345209197,-0.750130704104281,-0.040679809515712956,-0.44873576390077247
,-2.162691938161763,-1.4688328004279891,-1.2809688698104629,-0.006425433000624057,0.5776856828268424,2.0302289454512974,-1.3277428407592913,-0.02683776869777645,-1.000107984300379,3.0631441182507566,0.00853158062730575,-1.353639817581256,-0.1565525699857367,-0.6409755234662878
,-2.6197635124425696,-0.12794023225048792,-1.447523536651943,-0.20845748617905815,-0.7412377906900222,0.8868415029569929,-0.7242589876177173,0.22314714947678127,0.6990047935940157,10.862739727285895,0.4436335047085045,-0.5354543429238475,-0.42124031951632845,-0.8777845343810807
,-1.9061191690436339,-0.36658455678401336,-1.2763078934786638,-0.2843401106895269,-0.34245748231180206,-0.6992183864191155,-0.009177882914346278,-0.004125306438361288,-0.9695829222143728,14.037637599678186,0.25517045294345964,-0.22614986407705873,0.07696869561265823,-0.39480497639028217
,-1.628339406895883,-1.8111062380547238,-0.37940442837154165,-0.08310531845507062,-1.2543818339383637,0.3612062127215819,0.41301323135017787,0.11280545825056433,-0.6937533798488537,0.9443557523636656,-0.3594438208371931,-0.21274596074467775,1.0771473887304719,-0.009865708338334344
,-1.9984218329511203,-1.0853622962253626,-1.0350812969280554,-0.6488743627282396,-1.092049828514235,0.7887740540099218,-0.2656360469409061,0.20243216479587564,-0.9138839582619267,-3.263377180569699,-0.6005692058092966,-0.8772970018665328,0.4000116001813541,0.15898962810519063
,-3.5092506136377875,-0.32292459363864723,-1.4306125293746483,-0.6518457867806475,0.052572975739014066,0.7816545408701534,-0.6406442273550897,0.08010159397523853,-0.9132989830499219,-0.43642341397925116,-0.10747138383519156,-1.3611552550351065,0.8989537490414,0.15089219592136094
,-3.75310686108946,0.5482892871604313,-0.4297820089222577,-0.5808852657269212,0.03521766924841702,0.04935919790760037,-0.7510278506881648,-0.18328366079969763,-0.905375475200024,2.439249493131987,0.14912746664689877,-1.068550148440831,0.26909523049927214,-0.21575408636839127
,0.4955905588647001,0.6143585672272368,-0.3489207886084343,-0.44690894433387546,-1.8492679092119741,0.242478422467502,-0.7232677887908696,-0.0825007001224869,-1.210743800967795,3.067043141372844,-0.3339954508423507,-0.20303936163914754,-0.7302327640551801,-0.5244022993886893
,-0.5948249640133265,-0.4756964883113007,-1.0013947019425091,-0.10641337945493647,-0.7367972523655961,-0.29644857548647763,-0.4328915101267869,-0.2338483949078649,0.32332100816205844,-3.3204916555021904,0.7064381481848547,-0.7562852565799421,0.28349844085639286,-0.023367364946397472
,-2.6861470019209985,-0.6717049099347147,-1.0878282902413605,0.23507362196872864,-1.1126560392180895,-0.6548697423426427,-0.08194089069054153,-0.2528119817447664,-0.339402115862988,0.8628072961093272,0.5208712432035936,-1.6114626492443227,1.0560867206250322,0.12839888308446676
,-3.505886208411615,0.050217526442615665,-0.5980654764868704,0.06286221057218186,-1.558870041112541,0.24703988960226425,0.907678808046251,0.16328927333846785,-1.216727588237821,1.1403441759908823,-0.01581181341759363,-0.30405259976274995,1.2662842489975714,-0.19088807110389888
,-4.467485867311612,-0.12400891678261829,-0.440692318265564,-0.12995068972204163,-0.683150504749608,0.6110365931545217,0.8936511749814025,0.6020499953000854,-0.2822775074877722,4.978533683559355,0.01125072605110045,0.7167090186290599,0.1719962585909483,-0.22651683555439023
,-2.6284404658598213,-0.7233479587257856,-0.39289433729758166,-0.8895944962957265,-0.852239828792384,-0.38213301482984124,-1.1885296993163232,-0.2601759941383724,-0.6630565468902875,6.18834162423859,-1.198156130450129,0.3206516329098273,0.996273004737549,-0.2770158160658822
,-3.9189572911545514,-2.0314763167432814,-0.2793936358476246,-0.7027710348758371,-1.6481180710477366,-0.7901496267962118,-1.8746295981505279,0.7366240298113405,1.1858440791889515,-1.337322305133179,-1.7760117189821438,-0.5220539395208424,-0.10351913553058711,-0.4117508034764084
,-4.568825542117818,-1.6535535615807335,0.05328471057941085,0.23439110031731988,-0.8618502582344463,-0.39225238454198785,-0.40504141755697637,0.23749663197283497,0.6637447940402419,-0.482488214614994,-1.062095419672706,-0.1798538628901892,-2.128154540326366,-0.2995898664964781
,-2.6157351587315953,-0.7514373402369473,-0.6127965274702551,0.28427168995447566,-1.1604151439152457,0.5066737879122685,0.36369339496485237,-0.6591220843825406,-0.33665050191955176,6.984314578333065,-0.3040251027909173,0.051195826949795416,-1.4109159684978778,-0.3452288394360235
,-2.4949517280684215,0.09469491765100015,-0.35805836131422575,-0.12488783073108328,0.05224722359899349,1.6750278616694583,0.3066432488302798,0.3559683763332333,0.41133898648399897,2.3136354179763297,-0.10510933140662447,0.8942139789630575,-0.945986692856458,0.07334882979169671
,-0.36224943378828633,0.5126410594049878,0.1459777889969667,0.23420897405545493,0.00407899802054812,2.4912349710475254,0.43640778384023976,1.7954803056174535,-0.06987876069518521,-2.955202520726347,1.0656783576503714,1.1430583797728953,0.2517292935321658,-0.12007029507420698
,0.4719448930348152,-0.05265284073993624,-0.5390632680986671,-0.06930976834215485,-2.538080704308444,2.8681993876338026,-1.6492997973296604,0.8623466061499352,-0.22108941177525693,1.0954306560199931,0.6793374315888943,0.06148708344583229,1.1706812818225332,-0.3835606514148309
,-1.980867658846043,-1.1701773916525875,-0.31929992464324475,-0.32604433018630474,-2.3415904085205668,1.7434723497587645,-1.7623035041347082,0.8804293942406289,0.8427549392527507,-1.3164396569981918,-0.4078402173757168,-0.021222663881185308,0.21482831317362724,-0.3450499711446747
,-1.9686988060716275,-1.2119667496211186,0.06345753754842179,-0.15654202179082857,-2.289953017290434,1.7586462750325382,-0.3922146409128465,0.11257123931006005,0.6565507896431633,-1.4592824687858255,0.1353031904674502,1.1462968426495437,-0.15979986153085143,-0.3378269705253521
,-1.8992422793014159,-0.5513208757326287,0.236024462345593,-0.35771996588757676,-1.0449818718744304,1.4782572176529727,0.8283322747365645,-0.644017965712603,-1.3496491302151488,2.236139280156677,0.5676099369384761,0.17592762522318936,-2.934555327345504,0.3984617685445079
,-1.455807393964101,-0.9554758109529349,0.41345499923947987,-0.5308386215631292,0.0641077500045884,0.6851072211158417,0.3562653477924647,-0.01871139027292394,-0.4260521000031615,5.2708341987649225,0.09451714988858204,0.6147348975347172,-4.590976102574192,0.4203686190819451
,-3.2123826986190767,-1.0027874073285001,0.6330614696037243,-0.40926336444312067,0.3508638836026552,1.9841372941437694,0.9684084621219532,0.6219317251867129,-0.39752268840767485,-4.434746420463966,-0.6082312358148012,1.0735646233272154,-0.09346165820197197,-0.20461617328383067
,-2.7019842720554625,-0.8080207633925963,0.774664843411044,-0.31434755546902393,-0.09510752311640973,3.0760897147596706,0.7058449687146757,-0.02547845642569291,0.2703904585215836,-1.3966876121760767,-1.148969992713068,0.34670912537072174,1.9092264221062119,-0.7772498526706733
,-2.3105342381461194,-1.0450053760901554,0.29103311858574527,-0.12201019793229585,-0.020741746791792633,0.6288087632240161,0.00956738415920977,-0.7856766195621736,-0.05114810048183936,2.2531038188570833,-0.8102908798675882,-0.03147128664638001,1.7589981691625591,-0.6980042037831719
,-2.270492555285409,-0.7587433531652674,-0.4322777252292524,0.1844721777863021,-0.7896019753328326,0.8811884769035938,0.41256223065970604,-0.06626504971016374,0.90771473093835,-4.7185701874392745,-0.41867933274540137,-1.4269542216301774,-0.44724377581562547,-0.42766200096003604
,-1.5640712777254537,-0.3424506396054066,-0.22930097850052375,0.03640746501374194,-0.9540654976142915,0.725079584756697,0.8831961539762492,0.3890324844028928,3.036430581905984,-8.026273770930745,-0.27624117479214877,-0.08211832991990134,-0.22323450062299913,-0.3132648367566875
,-3.1680163318273897,-0.6373839679140821,-0.448217711136343,-0.44804979792357086,-1.6550333885045085,-0.38050950625067786,0.2082085860579537,-0.054650687248452984,0.9542743480185608,-4.502327241046745,-0.7358107293107872,0.4954863703831326,-0.840971066496466,-0.16729722969517227
,-1.229772021970668,-0.08811012739947915,-0.5506759585366262,-0.6142942878657219,-0.9919670045147889,1.4960552906961946,0.792792791782093,1.1938435646164798,0.0272528085234709,3.763756928467316,-0.6112698391028888,1.2554924812548753,-0.7598949751893155,-0.2913221202659764
,-0.7243222712832672,-0.5568666353467466,-0.21517731128568576,0.007693275972581691,-0.6965103137015989,2.2038753430463953,1.325488352851102,1.337529433168174,-0.03928348734175832,-0.855340803275599,-0.06834068267313448,-1.1643981500998428,0.48224191312408077,-0.24256376768897084
,-0.7229931800392547,-1.6954099784628414,-0.2682204109043161,-0.1312096115592366,0.17729320072432125,2.0104137350000846,1.2429511995049913,0.897516161445048,-0.6553180111258151,7.03962638437524,0.27334082655896613,-1.228992644208842,0.17920543213977208,-0.5327280277895373
,-0.1670779510208765,-2.016569968454988,0.17861282372309262,0.03547055809974324,0.6201920353869129,3.9038041472363703,1.1433784713425381,1.5336750867004814,-0.8672274046155315,12.741776795083263,-0.09827776770706766,1.3272989138358506,1.0014831820282524,-1.1477683659442437
,-3.6525434410955526,-0.0011558315060075143,1.1482212191174963,0.3471421712575827,0.7767655088795483,3.739345864793522,0.9674089269702032,0.6599403420062718,-0.06377273052951869,3.2139220501946615,-0.088254272706462,0.7213100316048913,-0.5423076667328995,-1.221877285611398
,-5.130229006777882,0.7004739831571223,0.860876518474354,-0.4762260452655893,0.8386786032296223,3.806411452473519,0.36465039794632026,0.8994814950437799,1.5978353632203917,-0.26083422199342055,-0.45155546151411796,1.0825035930832407,-3.657322404384971,-0.813874371926011
,-1.8928111904812195,0.0028703948769948384,0.3651227034101895,-1.142896085448678,0.054845027828459285,1.6856583844108197,-0.317839679363983,1.1244736579437713,3.3509409150408045,-0.5471646460766163,-0.8785839184019693,0.10284717266595648,-3.138173423299691,-0.4773405570086032
,-1.1147095844466122,-0.9518569460938235,-0.5174490232704623,-1.2336037032394191,-0.8977561922748373,1.2342038834113729,0.4649794993076706,1.668968844266025,2.0749969086239846,-6.613275081231173,0.15510122398699236,-0.5491183426489401,-0.4073463614766678,-0.3340151911708332
,-1.8812480239749259,-0.939699637906513,-0.10714013673008338,-0.6277540805284615,-0.5903796770152411,2.8236001760049203,0.33264810599547034,0.8321910468256521,1.516437709495719,-2.14282999879395,0.14374897737167688,-0.4597307512957199,0.8289071298772529,-0.4859758340233149
,-4.19145024093888,-0.6571531840029817,0.7964948274738,-0.3027862885774643,-0.6607162235699753,2.5095729477142186,-0.3700097955705554,0.18372569994126534,0.8145405944432225,-0.014597574065194158,0.3768220639407304,-0.13170686647568575,0.9434491872012505,-0.5898468190105722
,-4.155345769411898,-0.7429317854927305,0.9854733322791132,-0.3362132955153923,-0.018355534100957388,1.0010435440325016,-0.395369079827227,0.6969419140754719,0.4881370433056122,-8.359323920399124,0.7863368159590777,0.5523712560709265,1.5782693264342043,-0.3523133510364761
,-5.52023848170019,-1.3343393137845698,-0.024466847458924922,-0.5149384093329196,-0.35014417750647653,1.3485037750318687,-0.7265739266437647,-0.8405157877666377,-0.3532629889321394,-10.087066852027295,0.6225408177861104,1.2427795560711745,0.6811561516467176,-0.7123973985417105
,-2.8718563744379964,-1.1821196503873002,-0.7378292596290147,-0.6390168347318927,-0.5463086914353865,0.9538192073992251,-0.3163294774666581,-0.6824937489955407,1.193584660291862,-1.4543714099223368,0.7790336648473281,1.8611399714039296,1.2845658455376072,-0.44548413908743556
,-4.717276584099887,-0.7507782134655867,-0.2766142281634604,-1.2934512736053305,-0.737742664905933,0.6707024122067959,-0.15066644424480977,1.0898767957789872,0.5569485449696399,4.255152493382382,-0.1113629143292593,0.475044811871544,-0.7855647770502339,-0.16959048290264978
,-3.4437749646986555,-0.6960321113952689,-0.1251436967311156,-0.6482199139353864,-0.7550276526323587,0.7729264817950084,0.22472749354787855,1.8581092502851657,-1.1790974676151065,7.025109204749339,0.07284922065129666,-0.1607459524179979,-0.45900793903203585,-0.26265696783400866
,-3.965092153087456,0.1775364512433514,-0.353838718556857,0.15252484161322946,-0.24905363415481271,-1.0027957273981314,0.4213492617259866,0.925008025879901,0.05597011507311105,-4.594275245382665,0.4320345026722882,0.9709229437010476,0.1335572908595817,-0.5512080971675862
,0.17879859507799958,0.3944451481018795,-0.37426035853350786,0.0578883308306943,-0.41221546079943455,1.1490774254043465,0.19874110273864354,0.7074003644510066,0.5051710546681591,-0.1808395896162223,-0.4163995835728229,-0.31678359940429984,-0.9766435012408051,-0.034627177567294734
,2.0294245771238337,-0.6189077374609036,-0.20666460916563414,-0.16405147650328877,-0.5899355285309148,2.081795144596939,0.566299480193697,1.1923420777144857,1.6906038269823187,0.4655694761239206,-0.6502399617050835,1.633373005859348,-1.444696461174547,-0.0704739081987604
,-1.3707254056643376,-1.759419100821648,0.2948514148794846,-0.041121488952257965,-1.180574080337799,1.1936917440467494,0.9529850491286018,1.1637539656429687,3.2581079547700535,-7.255763241987001,-0.36961716499762387,2.772357256919022,-0.3589323499990544,-0.987579342441254
,-1.9878842142373332,-1.0857051872459476,0.1413800084948732,-0.05829767510684042,-1.3785768138145311,1.1828156591288181,1.7280583555700715,1.305947251319338,3.191884101303523,-7.147919334014982,-0.676740927057251,3.6694277299638185,0.17637162465748638,-1.2275191049601129
,-4.359399014368456,-0.12821262959415697,-0.2821951485667974,-0.8193022524990302,-0.6349474354410634,0.3822378218886098,0.6803890002371129,0.5209161172653426,2.4934232276018453,-9.017693073968553,-0.3310068201957244,3.5305668346291186,1.6666954221279773,-1.3733912610934111
,-2.676238704031882,-0.037577608431187196,-0.22565719070453844,-0.861687208165734,-0.33756366480321204,1.412963666676793,0.5607471740067791,-0.10285177653458213,0.502579894282554,-8.662250056475923,-0.587807374658461,2.172711598052084,1.6274942594464659,-0.8401159027220109
,-2.403613131299286,0.03276394239368489,0.8511175866657865,-0.9302174970844188,0.3635935410756831,0.09540923080290357,0.0019380896747537184,0.38958204360451004,0.7771206692274002,-13.39793993549705,-1.2874981372360108,2.6145496115147573,1.7910611515535573,-0.7392071740480092
,-2.9938896545607907,-1.4239763165484391,0.4979634734021245,-0.38609509717846807,0.12445261214486664,0.0893261825941312,-0.4850510552310863,0.7405364719979913,-0.15219458360331137,-5.056147743197869,-1.555275424781345,1.830443362035616,1.0743497623129783,-0.3840538830234008
,-1.3802895798655006,-1.4690882895446566,-0.08488873818826774,-0.07682963209886247,-1.2690639938822528,0.24453099343718146,-0.5564024525368984,0.038202653536973254,-1.2824255950707937,3.110845559114039,-1.3906494286919169,1.7611638396843448,-0.8590885102791076,-0.6405569479694536
,-1.7768963282558867,-0.03727168390295245,-0.7328794456530004,-0.3547273841273044,-0.7481540254634694,-1.061223364879121,-0.9033079398956926,-0.23402813557763227,-1.229108766171538,4.643122523721455,-0.4957016749336937,1.3934652465284456,-2.445427926440343,-0.3130756018289329
,-3.658289912835042,-0.31748264961717554,-0.4303004769843105,-0.5454503667379589,-1.011611855200915,-1.0564377864357912,-0.7934915574743396,0.09337431611577032,1.0666375368083727,3.2748155492761377,-0.9170361568067096,2.214252261174329,-4.017906583683034,-0.3454007412461703
,-2.04933524224893,-0.6245531505234662,0.09979184689728245,-0.5379554168310994,-1.346682803265927,-0.6025765309407914,-0.5508015728516319,0.37921125480949913,0.7716928350677202,-2.17746468665272,-0.5141117183960358,4.8114549927268,-2.6534549930801847,-0.374364632780784
,-2.3489839884292265,-0.2464124788415747,0.21087194693876066,0.0956988744070786,0.04534197338051685,-0.22691236480717974,-0.5009986222911352,0.626108961134783,-0.02664826402708538,-6.094627275321312,-0.3691208787584878,3.817907108963528,-2.0654485018027717,-0.6818878986759219
,-3.353753084226377,-1.3817198339352466,0.2942475069745033,0.37727554861791174,0.18100566404715737,-0.11948102989276019,-0.7900325265514757,1.1241743831848943,-0.22572377683284245,-3.3150608156932906,-0.2268227632199049,1.8676535270737384,0.5219820860882288,-0.895296516835553
,-2.7422762184575338,-1.6348069059037533,1.3131429638735,0.2036857197228193,-0.6717610663813729,0.032983289064320374,-0.6982328338389121,0.6457970397974515,-0.4093895388123576,-0.7328495457240638,-0.18738183529062552,1.194368291915788,0.49639569032426906,-0.8066102122059898
,-1.5887188915769153,-1.354572636936642,1.5212597121529532,-0.37315991130742526,-0.61266869572664,2.005433938026441,0.8557282216948322,0.5722535879555778,-0.6446434824518762,1.3953632037338748,-0.3338425020068053,0.8382218175873435,-2.17398711923129,-0.7731675880074773
,-2.509817025927917,-0.34814449599175773,1.06057682406037,-0.4796852560370998,-1.346690019845427,0.9962690109683449,-0.012614985839641744,0.503089200472223,-0.4112909139762289,-2.682947615920587,-0.43321067656537365,0.21294559988945008,-1.1534122695047913,-0.6004135338078265
,-3.3252472729077036,-1.2106347784362124,0.4977355546069664,-0.04117633529542254,-1.8278383754129588,0.3044421921118117,-0.14828698800227955,-0.6385510065079119,-0.15717754321962782,-0.5882341776987959,-0.6462587677523155,1.5299602107710415,-1.3037662785329502,-0.33724796914626565
,-3.3852997258156363,-1.752503633860862,0.347946179301569,-0.2946996435976193,-1.8005804754501538,0.00950876679903202,0.4858617241051138,-1.4947863493544646,-0.5231870008907642,3.021043463001838,-0.23779026617939464,1.2876494441993667,-0.3956735207585453,-0.2651884794825835
,-3.305949899480245,-1.559902573973648,0.1674226858367592,-0.6740609758794024,0.14123002458933365,0.4333708954354943,0.5964791828098888,-0.43970848127918627,-0.20050771336972248,4.124063364155078,-0.13139162152360057,0.7478941696809003,-0.4929667957766546,-0.4775578723234473
,-4.12245768068901,-0.7063183796402421,-0.018701583251649893,-0.39474068601395923,0.4284128919234354,1.1128537224762272,0.22611289776244234,0.28781183187334725,2.2246656133120046,7.05129097799841,-0.20997268163649507,0.6616467898737273,-2.1327439988678827,-0.6326955383393977
,-1.0129903680019827,-0.603818090324536,0.27632638500163076,-0.11736005246761055,1.0554866191494845,1.0400872570237587,-0.1475900295341359,0.2724798045328737,1.2386794418515352,7.292786181160246,0.38877760240132136,1.5964397685016596,-1.3687141368641709,-0.07192151096707529
,0.2499416151506395,-0.2750281057519764,0.588354366700607,-0.22455324107410576,1.0702924781159784,-0.3504443230011531,-0.6230382070373102,0.04427518139662717,-0.14170914414072097,8.618472169921471,-0.8883546832822513,0.42243425657096206,-0.6254674375480972,-0.18162699645807082
,-2.1414012861622322,0.24082902831205183,0.5251777382400195,-0.1955859192269926,-0.44452721330778383,0.35989138527249237,-0.5202267596949769,0.16396223198776685,-0.1557840923168909,3.5597171317069796,0.053507863292908006,0.7835315832296541,-0.6938386769112933,-0.1273633050389644
,-2.5336860811671182,0.4775836362607909,0.01752513374783321,-0.5385952938420303,-1.0110970949805445,-0.8946988254006472,0.22357342288329915,0.84147717561993,0.010980393041449835,7.1579234146022666,0.4525002841080312,-0.12320517132720138,0.03726086098552299,-0.47915313256787984
,-3.205624114604483,-0.4044967362294012,0.0064948066660571275,-0.965259145070515,-0.26579916844017537,-0.7119681848735027,0.044795655843336474,-0.47523852893376894,-1.675148218312017,4.5653315249541535,-0.2778320493071408,-0.10411759478630796,-0.5197630296423209,-0.34771681851485886
,-2.0238020563209447,-0.5956078711162435,0.18754836335216396,-0.325573504610195,-0.05535385903129213,-0.20217121443567637,-1.2154180442625353,-0.9618342489498826,-1.026791453176114,-1.2338050816465538,0.8164160843798044,0.5163389717697765,-2.7783457734595256,0.042315561929517506
,-1.4694320227737399,-1.0055306538559377,-0.029424439343679075,-0.322961831711207,-0.5271522295216636,-0.09716999730406492,-0.5738862542222309,-0.9477989600718228,-0.06124764311506961,-1.9966653179328822,0.679894640980638,1.1700194649464528,0.08730557147860375,-0.1780479868868384
,-2.595373014371964,0.05366551811838472,-0.01934603538012091,-0.5205064148873247,0.4820248990609159,0.6178513810901817,0.35134944771809407,0.3118825064064542,0.8208558461864565,-5.875936155326431,-0.5258457053623781,1.0189060755826203,-1.617530897260862,-0.3937643379487295
,-3.2898194299617014,-0.26086764422498937,0.3593648389596301,0.016552344282291794,0.8351668288095723,1.2140293892770804,0.7857913659099335,0.45222622969202336,-0.4529004388576759,-3.89927876023203,-0.5492905027238842,1.322963125446363,-2.5856274445112986,-0.24848084915218485
,-3.4048363419439847,-0.9442500747021466,0.8989593419940265,-0.21534287163777346,0.3562513318816679,0.09526622149273756,1.6945592621599572,0.09627578120486463,-1.3939084079473376,-2.1071231328849973,-0.28938375619121626,1.2018184487456502,0.3419111159691059,-0.3554109609147842
,-1.4002314942087846,-0.30670771520020396,0.677299492134207,-0.46976809019493926,0.02209797924880003,1.4018710000735064,1.3905432784202774,0.6038159403029254,-0.3971005352092023,5.232068591236613,0.12274753719862079,1.1570471311096795,0.5764419397162136,-0.4335149538056995
,-0.05983043261556572,-0.0022586638335321623,0.24228320330254566,-0.6362032185413323,-0.5903126318934252,1.9825507899789532,0.01693082852421077,1.2327005293272437,-0.6086471634963044,2.5788500590663412,0.04582746299114824,0.7255908526083568,-0.6151964510616286,-0.5854459486796716
,0.0033303820391881603,-0.6278431760593131,-0.2485403294312614,-0.19801862822372615,-1.3093237810568061,-0.6931362345847836,0.35792626478960043,1.0148255554450663,-0.8253628261594225,0.571892798502241,0.8836564557464408,1.8745288380161735,0.25790281912069873,-0.7034674564710804
,0.5460346774571081,-0.27867886743468495,-0.1898723081564632,-0.11436694430824508,-1.303622181781626,-0.13092897773600867,0.43226563864499423,0.41074393532197,-1.1797363498093718,3.989818405956023,0.7060088739587231,1.3078357093115185,-0.09007811532031904,-0.827107723952564
,-0.35071263549090975,-1.2328230786533179,-0.09486459956119601,-0.1636265093864595,-0.6195406373246894,2.315767288866942,0.663708797370138,0.23755725798221447,-0.2562088687699318,1.298896517292626,0.29100096795066466,0.7967004685194917,-0.5193163878516096,-0.6131010514858873
,-1.4339739324398515,-0.8395585005117,-0.1698218684383487,-0.43482625439574035,0.1695990555557566,1.3577199918008078,0.6270202653228808,-0.3864776011617518,0.11591647633029581,-2.343030553834515,0.3305830084371969,-0.21806558289325842,0.2622319777798401,-0.5600839673691785
,-3.0559728561765844,-0.5415506444998407,-0.08515950415227587,-0.7865038408620142,-1.054901249821064,0.7489092595134929,-0.1915083328413146,-0.19296432696372934,1.0973476083987046,-3.1599280967214876,0.8740328594943827,-0.17081590057733279,0.152342108011497,-0.6168214035374591
,-5.673102123210473,-0.3284583660978839,0.01532007978310662,-0.814095171718242,-0.3037739944568343,1.1065398070764971,0.5937319438979796,0.9486824821759088,1.2397316267328968,-9.379571726773369,0.09861892864992781,0.5908636594066574,-2.1018907275012837,-0.7250143049399163
,-2.7069512960714945,-1.4527845596779267,-0.6683056916854758,-0.4705962034624677,1.7003426837502302,0.10578721729231785,0.2514757690207037,0.4457985836922682,0.5716132297946824,-4.570536211057042,-0.30972562797446423,2.532454246153653,-0.8698494090991682,-0.7848935029769162
,-1.9993910138125626,-1.0074306071637846,-0.8717531268060593,-0.2946167422400647,1.4415768891101222,0.7058251644995045,0.507680809746046,0.31234541345840866,1.3894710825160501,8.473969889627721,-0.9097091935200827,1.6075335392529684,0.8274083914542053,-1.0722134294638312
,-1.5363676485042566,-0.5974607726571547,-0.38986221485315464,-0.782550374614622,-0.010912398396231537,2.569213297665226,1.355996345616881,0.7288891780073458,0.6473086328629761,11.227712449647854,0.11869944872610881,2.2219993382539136,0.21888248549228714,-0.5860694756080042
,-0.949707176246738,-1.3354521216945874,0.12009685275591586,-1.0307296470459333,-1.7679881027753803,1.726762341613019,0.5589820244197397,1.1270069813786379,-0.44843957490433123,4.832144378406104,0.45676885780539,2.448087748433817,-0.5315727841189594,-0.6401132350312415
,-1.8096282154782348,-1.2149550701575664,0.806449387853828,-0.9483049512786705,-0.7918095770032672,0.4319771393003819,-0.14616056363750576,0.4704200015756009,-0.830465135859696,-3.718123830537898,-0.3655299143822517,0.1598261943288229,-0.46279976694098063,-0.6737047527984834
,-3.5893107222184404,-0.10275464788889332,0.29681213358406944,-0.29573406959875864,-1.0795029390856443,0.4410773929076742,0.10454113225637285,-0.23244132795500172,-1.5607400574145565,-11.01480513719234,-0.45223669272051265,0.3182432933630882,0.050318823957851984,-0.31458765216034373
,-2.764231478397061,-0.21482000939621995,0.4621924136863426,-0.4524288330505332,-0.9338153464663774,1.679074299146904,0.23308967002928513,-0.13139371913893824,-1.0442256748639505,-6.205542764432759,-1.1227085039289182,0.9604528369173401,-0.011822258202344095,-0.37703670639917897
,-0.7539260951695098,-0.6296095954674229,-0.3411632285635139,-0.28090290101794996,-1.4016861183135612,1.1673815137978805,0.3259220229292539,0.6006456765481542,0.680886479664074,-5.2169746942255815,-0.7447244619007427,1.9376519108439665,0.46920851136828073,-0.7702476883643574
,-2.068227533976271,-1.4212005211163639,-0.23835324875118208,-0.1307973938201885,-1.709737973673381,0.1313740904903216,-0.1605208690276652,-0.8563887462151755,1.8990705539267698,-8.186723727208639,-0.40362617448596205,2.847347942610242,-0.4134625034814508,-1.0343923450281656
,-1.6238289773273826,-1.9785466594233767,0.4881920011996875,-0.8540994867479968,-2.987276778919992,1.832221638895786,0.5113101737920587,-0.4627934351494468,0.7336207288813845,-7.810196361772563,-0.03553724547935374,3.44937505813462,-4.842136186314268,-0.9638634923907611
,-0.9740009157981434,-1.3932323131256812,0.9437324054124288,-1.2296877563701945,-2.0634392480420307,1.4318090134346444,0.39045793604911316,0.4770593669520032,1.235533380432379,-4.371613437903948,0.8931623999935433,3.7174289747182985,-4.1269740946920175,-0.9306166859713885
,-0.3807530926883476,-0.2405251431778743,1.8882039342095518,-0.9507626845090655,-0.6596953306501173,1.7259991670179138,0.22589021979106413,0.5984424985718018,2.104828229509258,10.387485735284235,0.99792244709949,1.6148842677570299,-2.0499047330451208,-0.8331148327332618
,-2.475652271576371,-0.839975765804908,0.3109755823072168,-1.2082000584459573,-0.5697837230074082,3.5931262292101693,0.6486309813098601,1.1760486045665286,1.0940039710781118,12.008486845577522,-0.14101756185743372,0.031001081267684173,-0.2911332750052154,-1.072024699294225
,-3.233991439968522,-0.5897622672570543,-0.3278470387526191,-0.7921941090344361,-0.4199220550729741,1.32640322844711,-0.4597887468381134,0.40565737312589834,0.33623833981135964,4.167909791130309,0.034559932688560356,-0.39239441506289985,-0.7644557089699513,-0.9179140403857583
,-0.35351616646624473,-0.8388934513467056,0.34017702975281444,-0.4693961437172582,-1.0201707453381308,0.929406776342378,-0.39595565993365334,-0.07178659969002713,0.780005372655584,3.911152204010776,-0.40907622553411227,1.3166335028987612,-0.0033666007179155946,-0.8820469386042418
,-0.0054193839286600385,-0.04388350186174649,0.766077382215986,-0.28355157024897837,-0.9642072669705671,0.0013763924205034102,0.007551184616031025,0.2952817334118026,2.204779626329394,-0.026729391238173774,0.22102887474318758,1.745785625348194,0.5377449458852092,-0.7928857117988821
,-2.1576727130229196,-0.9601169761107032,-0.04686773276774025,-0.13911172852152473,-0.76654472845925,-0.4316836326071762,-0.7168366871204941,-0.7732542094417985,-1.2370631890727644,9.55573150708276,-0.09670875658942887,1.3608034969026337,-1.5588099186181972,-0.8856668138319383
,-3.5862709223423854,-0.3312593188486224,0.15156634166027744,-0.45408391760661937,-1.9226604751499186,0.29622945752825014,-0.7628634337844572,-0.4923333594745264,-1.168149258993507,5.2707887000786515,0.3916055296416064,0.37909161519736323,-0.8301169194079489,-1.0319023052182756
,-0.024287616871464086,-0.2674417170520892,1.0406986696692102,-0.5751982082994861,-2.791590093343622,1.1459603914202166,-0.587745516904686,1.0055293796708158,1.2850597577220664,-0.3590852472245055,-0.36603928459186885,2.2088192981698076,-0.6159548449423133,-1.0036989686291862
,0.9021803239542645,-0.1972935161122378,1.0120818312174762,-0.329823557587587,-2.646780956230005,2.2606023240922197,-1.073378906429224,0.3811958063588285,0.8526388973900134,-1.4144910679024592,-0.06815900796859659,2.224886458526511,-0.3789228173414915,-0.7015868212757077
,0.7439872834589704,-0.5466782446555665,-0.09958662536566006,0.05377183657678405,-0.8009874264309536,1.677842553216508,-0.6625230756304369,-0.22861965790230018,-0.3040849894758102,-3.0104316703622978,-0.19500578065213564,-0.2194896054010675,-0.17469888061140776,-0.8735634724437371
,-1.3258446752008985,-0.05294757774174159,0.5255125572064268,-0.040346657432341955,-0.5598888444044416,-0.5108455338814245,-0.9706342280331672,-0.22841367422174697,-0.1097267353267504,3.3928956008882287,-0.28655204265758605,-0.0899604627495965,-2.10407058181179,-0.8435100940029874
,-0.6479119994806681,-0.33055655308008897,1.054486996072377,-0.36716381572429774,-1.2724530769057918,-0.31965292571984344,-0.6148653262443668,0.26405664293462505,0.2855813094909051,-1.1857604231657801,0.2667215168805022,-0.2061256937818991,-0.07614956240854215,-1.0223020716384843
,0.10454488127300897,-1.6936426501462112,0.012902929953185429,-0.22965751041383134,-0.038761689683824756,-0.8590837591912557,0.2341248142478837,-0.3577611814589998,-0.41865178218213017,1.9957746398410523,0.43578050028127624,-1.3317303128893478,-0.28388750805794793,-1.0646597451602977
,-1.615821569277517,-2.0982862709779795,-0.8098833240527508,-0.5335311747207772,-0.756735290129233,-0.19396603363876405,-1.1319177089109875,-0.2861657352938865,0.13919210784118435,-1.3281190788907524,0.48836494972939304,0.7209142061309785,-1.3990397799014322,-0.7451068996826806
,-2.229731443505843,0.09023282840761448,0.10855492089804637,-0.38502326005468757,-0.45195497752083547,0.05777055776736379,-0.7403155126801028,0.7997444304233136,1.5193439034399974,-5.085891007082097,0.15253020083169427,3.7297611733083254,0.7855089120830792,-0.6156613311801235
,-3.3880103051091734,0.47288322779428305,0.3128591022711071,-0.41147624555034606,-0.5571109475039706,1.1839592094311424,-0.1778082957989678,0.9417892107869463,0.8445212749546809,2.1746441759477197,0.7682475103081957,2.230171490528479,-0.7532521681203153,-0.8260183943923951
,-2.700177366777071,-0.34203949313672105,0.6579190482699877,-0.8322557330274803,-2.0277476546527233,0.3033345276405518,-0.1002737998520752,0.2693207799235637,-0.8925481015660323,4.9665806999847515,0.9826860611192523,2.139212148357927,0.49050818336261487,-0.933474496576427
,-1.4055450473292814,-1.1523691203198136,0.7110690175353994,-0.6391463170368341,-0.5977072589242316,-0.34099319350670626,0.3928664406727112,0.6129022336772476,0.18765513357299365,-4.887739784199313,0.34650260072300004,4.0580604682617425,0.360638016912231,-0.6870598464911849
,-2.6388374499994693,-1.9578711402896412,0.6826306406633971,-0.3701020830691391,0.43069889003121686,1.7010668905720205,-0.3701917606822655,0.9207947509076508,1.4252681885440162,-1.040076884808699,-0.01045922266063307,4.55666216096691,0.4042331629706685,-0.8529306158936136
,-3.5693390022042744,-1.4654979999936544,0.5347709352732651,0.014368371873375701,-0.1798121116586607,1.225347602691603,-0.40981122240829754,0.7635335802568142,-1.0083910799199571,-3.906173090162661,-0.0023272638333294406,2.0755966116033315,1.0633636120899144,-0.33717092032882073
,-4.347838931959055,-0.39458850454705985,-0.05701766984139225,-0.35690615951224475,-0.15138928396465,0.15438786944965546,0.03629744745235479,0.7914058413283417,-1.0459160968600185,-2.481145614353884,-0.055429198071660975,0.9145255621086622,0.7450945377662633,-0.4682322954943828
,-0.5034910654111394,-0.20989056611074317,0.05286693036086271,-0.08284302820607786,-1.4322675706771564,1.9691688289790075,1.438253135587912,0.12292738739088437,0.5259949787647079,1.328570370038382,0.11212304066103213,1.6854125648261993,-1.7251746970756183,-0.6679909044843343
,0.12084394642362419,-0.6227280401950366,-0.033410443327526754,-0.003136858157123267,-0.941215112466475,1.6311824712538023,1.2634835961571933,0.4934274971546895,-0.5636826395884238,-11.161602961236879,0.41261673635357315,1.3309041442973182,-1.9349639988114011,-0.35524266302737406
,-1.693738106904919,-0.7888769673806706,0.7024227646483622,-0.2868830601239739,-0.32039111034386486,1.3055726803779337,0.6399888928172193,0.03556918440573263,-0.4150603895492206,-9.272296883258928,-0.0669094363750394,2.178049249169994,-0.8666393384486365,-0.5010986259935255
,-0.05658528177496208,-0.8796440562591306,0.17308671774327056,-0.07483897458720637,0.02329125665325393,1.2636955348773016,0.8067333504647268,0.27287672953526415,0.4857560246453074,-3.396487060405274,-0.94738870984356,2.562736048623618,-2.0653158485026903,-1.2262502142154286
,-1.1967960072618713,-0.6592695000871186,0.1992324008028253,-0.3989425961376044,-0.8173007413919199,1.4076963436929761,0.25211984974462825,0.9335516182540293,-0.012048556757819776,-4.708034237527708,-1.7699409124507133,2.1687465811337012,-0.8300256057712548,-0.8917580901274272
D,-3.5363322575387586,-0.31090573899593377,0.24972569340525116,-0.5117526992902874,-0.6032104709284498,-0.5215799691541788,-0.1876875036964237,-1.180055773934341,0.19179117897651526,-0.6471738795956218,-1.1182215318826334,1.955070173852116,-0.35668948488103014,-0.564022117357294
,-1.1462519605042167,-0.544863324652552,-0.33691613352131716,-0.7081911517297229,-0.7410171369825949,-1.5176876770581318,-1.2847137016449426,-1.010037764663786,1.1484555166045938,0.8326751909038211,-0.27319743497912174,1.0269637890993752,-0.15999937324050298,-0.6223273238569206
,0.7895797031289314,-1.7226266796062508,-0.43070135807107696,-1.0858294298915592,0.6635414737618913,-0.7911349693386477,-2.56277783613697,-0.045196709446961456,0.7374707986827043,4.828980975972542,0.49014091219347034,-0.03143655304004808,-1.7258442711568411,-0.1562484981446953
,0.32556342576584185,-1.939111190477992,-0.7004146125401074,-1.6932530757121687,1.5698030909350322,0.7938602629650242,-1.7941940823558238,-0.2717278039174015,0.15926450549270615,6.640541356002674,0.6344282563164345,-0.4274028578985294,-1.2654019197032416,-0.10877489480772247
,0.3210467890625366,-1.1288191256457714,-0.06915671551772268,-1.0024472111020575,0.10910797000933173,1.8299151498031503,-0.145865682321866,1.2910780835521027,2.842682856438208,0.5525915496905877,-0.26491800757312234,0.895089840578516,-0.22679583248288368,-0.5874086903277909
,-3.1676705093232562,0.3004013800249943,0.1551243027461727,-0.05604638316060346,0.4627064211453065,0.993949450837487,0.13937475291659948,1.105381165273592,1.6875094598578908,3.5816679076282547,-1.1920415732302623,0.9149963682074655,-0.4657250265603558,-0.7189172963692704
,-1.8520162123776063,0.8842281048861702,0.9961436385403056,-0.0006656503467399394,0.4320828922244274,2.151354891088624,0.24276437055212682,0.08254080416797141,0.8095269652972901,-0.6213381675149332,-0.16211394546986033,1.9532910452708947,1.366220717884382,-0.8285165277439502
,0.9862175968654285,-0.2122815016444131,0.2768149068969266,-0.1990734619581011,0.1554399919995447,0.6643620884249132,-0.289461109902434,0.050021418195982416,0.13097679649019955,1.8595725963966672,-0.23092223261288586,2.764669526918073,1.0886531360658678,-0.5869923920284086
,-0.8154419929311241,-0.009464423721090395,0.3908180190235286,-0.28106476930018315,0.15416117032148147,0.07978661941149676,-0.07628147759763756,0.6040336013845807,0.41299677180055216,-3.1468705997491586,-0.09395201733605639,3.132575554778594,-1.5910895156142117,-0.17294054005812376
,-2.886692487818537,0.7753588872356822,0.9221115258878881,-0.00965219114762816,0.0259296278295527,0.32437133034203797,-0.320117896510164,-0.38134180878201573,-0.4818062134686646,3.089548113113093,-0.6547656512697442,1.582782444313463,-1.2115138516333956,-0.49572906781307036
,-3.6130096627395716,0.6546194193772743,0.7032046891082608,-0.13262786610287738,-0.41154079435762275,0.17481250381452598,0.18468375403535936,-0.6745128734548853,-0.22086542014107943,3.148877522761942,-2.1301906292674766,0.29788352799107704,-1.0729185837162445,-0.7354166535391696
,-1.7699910249255484,-0.8309459190874445,0.2540921621709332,-0.26377226471193027,-0.38783034354765084,1.8251303838174573,-0.1335602919601403,0.09621886087689237,0.3976600458077534,0.5360489498828495,-1.3682809822528776,1.9856714450563557,-1.9977092879632021,-0.9972890005815872
,-0.21054569390935451,-0.9416073501555329,0.1735667583212615,-0.5584968678851512,-0.48473391990066245,1.1733693880566796,-0.14633936357885244,0.48704915185227843,0.8833768630571688,-8.521693399662958,-0.6703781091668762,2.4326627470945423,-1.8558129865203437,-0.8676460734264864
,-0.47275900138914045,-1.1213597817703755,-0.008209103777399184,-0.21247408839191037,-1.5739731098880299,0.5100689618099625,-0.2842293347431934,0.17130839765362052,1.0636306202190502,-4.270050375610711,-1.4050283518502857,1.5701274216627703,-1.22039034046458,-0.9154448419448312
,-1.5520017328428277,-1.3623581885737233,-0.2296641125046289,-0.6385059022601801,-1.0635553862426341,0.5950561281526279,0.3850199223530053,-0.12751686657415132,0.27838473926725144,-0.5729702292502076,-0.4668536357077284,2.7580319816703622,-0.4349301251721638,-0.7847131565128418
,0.06706774436433817,-0.861177326566334,0.09681986707031455,-0.7294674270704267,-0.26896768550321676,0.24172365115967154,1.4165380618791816,0.16414505326184584,-0.130914340504217,-0.9129582148275319,-0.8276043122130866,4.166877194463806,-2.5173298620438342,-0.825527886300695
,1.1670226542049604,0.15555108346148452,-0.378391432699615,-0.5586699547041691,1.0348182726428907,2.037336559589264,0.9825505834862822,0.7496805147417207,-1.537220882416622,3.8164193894323395,-1.0426814827360853,1.3047452001053665,-1.6662800688681707,-0.08749476597252659
,-0.39792275604947,-0.337821565530343,-0.46529260598312727,-0.3723735764128831,0.34799458424507973,3.148275742091686,0.5491072975412984,1.2716664106503037,-0.5277146318410152,2.100789833428542,-0.751260713161343,-0.43518595085740747,0.0717022156449499,-0.008769471391442393
,-0.6851864861047391,-0.5972672210557407,0.31170540583444095,0.17925688404929846,0.021844166870395355,1.6415763248388275,0.12196400422963753,0.8204789269514515,0.6095574268589561,-1.92339991358218,-0.6702252076808892,0.005125013370577383,-0.8263071313010819,-0.67450058007451
,-0.8073439552686055,-0.41487653118058776,0.9377417919709962,-0.13870113321782437,0.16358234962110138,0.6678670334106707,0.31633380438299197,0.3989364742510891,-0.401653000393268,-10.864356742673495,-1.5524840671791753,-0.6161437326870058,-0.8315803299094743,-0.6271242042939956
,0.7264932567267931,-1.302162334380695,0.6346034324608063,-0.5735578878695696,-0.2984974642359854,0.537250035684045,0.21631465602340624,0.21932871168555054,0.04331545618722413,0.029394492070769388,-2.016695882588478,1.5804723215980077,-0.3479953888836226,-0.7601093776369046
