event,eeg.af3,eeg.f7,eeg.f3,eeg.fc5,eeg.t7,eeg.p7,eeg.o1,eeg.o2,eeg.p8,eeg.t8,eeg.fc6,eeg.f4,eeg.f8,eeg.af4
,9.047488246214677,-2.4866644515781426,-0.6359506087439493,0.14673835403099844,0.5580260830624268,0.38110315221999297,-0.3981712224704771,-1.1398344067185562,0.9275647702235695,-3.6840084265874036,-1.8670437356272205,-0.26631982728308107,-3.5907653957924452,-1.1042298247250908
,0.35658295125930317,-6.4510907910842405,0.6431093864901635,0.5889025702636529,1.2973767629044122,0.4310300778767964,-0.3655023233539025,-1.8733562123770162,2.3485301500092013,-1.5838830982585985,0.22473296459216904,0.039019596269192394,-3.775114798416767,-1.6210158662209562
,-0.7932364764169859,-8.828253584852607,0.3813770957023573,0.1206473243323006,0.44398061536939853,0.9935593321152306,-0.393654277462455,-0.9716267365220321,1.7757078254621161,1.3330733619099022,0.32583020958427444,1.225249522730477,-4.22890717195409,-1.150821099404626
,4.76935533808832,-2.83633896694571,0.7098629469130721,-0.5652427177438891,1.7897251388129929,0.9062273365235497,-0.9401357238605295,0.20979404561960677,0.5900094501410965,1.6979875459549758,0.24402166923332932,1.7962423198830313,-3.4600087336067915,-0.5097337575982982
,5.442788149341936,-1.1982140146035656,0.7346694716173391,0.03326458029529581,0.27247585536148794,-0.26575880324528006,-2.025345159393615,0.40085081002871253,0.44405303770871724,1.4400448140594078,0.06447384832752957,1.0643796974702775,-2.3123009289339267,-0.3977602165397133
,0.900389715748047,1.545313127692865,0.6552622994314009,0.14183474666287,-2.3475651729727756,-0.11981039065688828,-1.1019178988194889,0.6151076364282815,0.13254445490853126,-1.361082909718258,-0.41694122003173517,0.34178851899809415,0.33132169582305576,-0.9663114660031014
,-0.4029456307908443,-4.637088310394744,0.2934532594949973,0.10608113768637882,-0.47641338678915013,0.5478049871972874,0.05972162067598929,0.9629391182893681,-0.1876460827670184,-2.5069455764830346,-0.4486688202208192,0.6689102046618792,2.798087417664136,-0.5589925261871075
,-4.031723222407026,-0.5326246102003434,-0.3025513069378494,0.12201923252409676,0.26283019998755514,0.47653156896319665,-0.39994250445871105,0.3338975003020414,0.025941165962480008,-0.8673321785714727,-1.149634570120854,0.44120299468959406,-0.8528709361262933,-0.8268912440759112
,0.2787744540780817,-6.907349588142123,-0.1588650060840794,-0.6277824015034829,1.3611348610917007,0.6111831876735347,-1.0077411760303827,-0.07525685444348768,1.7596070423737642,0.5616783927744855,-1.2429026251529394,0.09604749509849601,-5.557086978540682,-0.5563619106203401
,5.570952865356117,-8.047350454440776,0.32607619824766465,-0.8295376822032792,0.7091109026187016,0.07970235002829211,-0.7774140102440996,0.47155895094120326,0.9561833914070532,1.487230233824779,-0.6431478985033277,0.1566276631299345,-2.1314879393704533,-0.7146917002787359
,3.848436863877183,-7.078641297106016,-0.3597297946028457,-0.8464894819759552,-0.740005472355096,-0.6604804422745432,-0.8969625303529531,0.7458820062574021,1.0743714429098747,0.18014329141298824,-0.9040668389351783,0.12011857498647555,0.69544838337311,-0.7674731319097997
,7.006411127208755,-4.6770256610419665,-0.41574842392664974,-0.8945840905035171,-1.2912485616187834,-0.31568147105003874,-0.37368789114146467,0.2878521711959055,0.004304068247271851,-0.00043727297331497354,-1.4919456713865922,0.08462070201473937,-2.6808829885329515,-0.7835437782836316
,13.435075085882502,-2.3866232918705665,0.07747188667057271,-0.9065289381306613,0.9569876150368032,-0.17788014427933393,-0.5294784475509069,-0.47425867092769336,-0.29591200183756466,1.2993392708085878,-0.9031670389385827,0.9753519888082332,-0.4648505305981369,-0.8247984719934865
,8.641773512282391,5.419623664140669,-0.2487079678352888,-0.4338654115696381,1.5086031115100027,0.3911917138845939,-0.16154967237584947,-0.4172550368452071,-0.03645905686037597,2.4581714593277693,-0.9892571742058479,0.4134207931389146,-0.46491335422080515,-0.5984461437748472
,4.558576905532086,3.981546221023801,-0.6081338761728747,0.29099421059255703,0.509001625119847,0.7461291818622996,1.0973041401756185,-0.45065984824386346,-0.1610660069226648,-0.3558122010214918,-0.9321254337902267,-0.5257299295283747,2.3266989430235254,-0.8015521701746752
,4.045816777709321,5.469792874496563,0.6158939189829193,0.22738758402161324,-0.7523220253870563,1.7661818121066692,1.3396315132831627,0.11286439254354251,-0.27647578261344163,-1.347038570837685,-0.17789189892248347,-0.13182502202953456,2.348992415522388,-1.5311581811994104
,4.065069169971526,6.915753706352086,0.9121571824202993,-0.2140076067251291,-0.34045745832523056,1.5559284362983714,0.535634648854035,0.1254516201023161,-0.20134088762691862,0.5282516166189074,0.7392434525644613,0.7103447809061454,2.0298377397803593,-1.2070294367253043
,9.91329924218523,-2.832615050263062,0.6097120149736971,-0.20353297219962194,-0.7191650637817644,0.49434910856178677,0.14441235227961982,0.19793331362601968,0.6527753659788135,-1.2700701249149138,1.2220423275837282,0.5449474488413768,-2.0509912640016448,-0.29689464648378333
,10.90507575465349,-15.238387525634096,0.3463467228204046,0.10589353255103603,0.6723078052631222,-0.4306127142697924,0.09618300366173772,0.5220121020854134,0.478453071295145,0.9551509269461819,0.669967336615095,0.04577476501705606,1.4429520210170854,-0.3002813378786896
,4.087582997868303,4.358801366670574,-0.27272694308072676,-0.8080963748394161,1.1657515707841366,0.0287246600289975,0.5631239383810238,0.4978789252412883,-0.49784334068874025,0.65369501452195,-0.23826852494859788,0.519619627561788,1.3945696537321015,-0.18947467018735553
,-3.5176768729187304,16.403053203622243,-0.3289564159934125,-1.2655527771887107,-0.5324638118940793,0.6619670444856933,-0.33627009731633634,0.19458501724660557,0.7617054996852304,-0.184916259871963,-0.6143567457521216,0.4894101266380325,2.5383479480533997,-0.4294052687643548
,-0.6247925944814765,7.95393844764388,-0.3868250206706962,-1.1054021834787648,0.7114425813622742,0.7982039418748447,-0.6351133751768847,-0.06866209161650615,1.4789102294475844,-0.7126076106901399,-1.4843202848791766,0.30401341889667166,-0.3074954184316628,-0.030841447423827165
,4.324637243497982,-4.262226457087202,-0.4669687644235595,-0.6405026489611806,-0.0773215056711563,0.25886272448127723,-0.6547136366242908,0.6867046970342024,0.9315526101523693,-0.8470026811920146,-1.831535480708444,-0.6073820664133326,-5.215624068637853,-0.590955401466539
,5.79953715977697,8.743299169987845,0.1485857825986412,-1.0318993647151018,0.3551324378100187,0.10118628585517941,-0.2595803791143338,0.36835381485093716,0.310319510872423,1.710817845445546,-2.7515515793449064,-0.2225710892576108,-3.6889181384763523,-0.8176370724733011
,10.743107929511055,6.168058440363136,0.44808859696130365,-0.47519964217145644,-0.3693517072037435,-0.03421300150078209,-0.2696276442204957,-0.00789542149989406,-0.814458901051351,1.487163869425878,-1.4646368206377023,1.0715478150776985,-0.6856841578123396,-0.6022531666744952
,4.236075248089594,-2.4569309683526273,-0.20728668566379987,-0.48415785086488144,0.4100294323342648,0.1853051999919711,-0.43983995145562893,-0.04094934299550796,-0.05781573044506379,3.0275845149206506,0.3928246445876839,1.0837476826828003,-1.5884228721903704,-0.15372334425047116
,6.655833922560951,-4.995546976197285,-0.3532416901720883,-1.420344987864412,0.8867901858785625,1.4040241598975784,-1.0668104496356816,0.049696957341587335,1.5131468959645553,5.453479593693975,0.5494837956774884,0.7657500592004236,-1.1222506931375873,-0.5186665139875201
,7.390454529120329,-7.100803794004679,-0.27090424571765376,-0.2637057246083805,0.8674256134406905,0.37269443736986263,-1.8938378820970037,0.22649390608507372,1.321159906132083,3.4778197727932323,0.7487998478415879,0.28606728341560483,-1.4714259572520574,-1.2938688518452064
,3.980624369722266,-5.7884946239596085,-0.874699172763522,-0.5911896444115643,1.0482601045621056,0.42317374657732304,-1.4684214766066002,0.6300807413417994,0.24587350026569746,0.7040259241588359,0.3742919212285964,0.5272975727557042,-3.208806887455469,-0.7874493186213624
,3.9047389814716524,-9.144384329336628,-0.6905344907201397,-0.3259231360271124,1.5924814155812648,1.3078658367115858,-0.16693618915660502,0.33508501778551714,-0.1948715962387596,-0.2527303969650855,-0.5844560329241381,-0.5994349175363193,-1.662711364000567,-0.2682809200159382
,7.529346959411165,-2.341878221974502,0.9640494139984885,-0.8055737134502214,1.7040260116401635,0.4386762568093696,-0.07658654862928636,-0.14094165491689573,0.21263516026741197,1.8640833298775341,-1.9216360742463512,-0.3176624667853795,0.744074470159601,-0.6536693579151915
,3.0340183217842434,-1.5160417701290592,1.009154543688384,-1.3014959136653241,0.21996864096917418,-0.19957595904576225,-0.3915945120590301,-0.19426946411839974,0.2517139090989245,0.26605689251970127,-1.6485185592488927,1.0379327752806755,-0.5484510604442246,-0.28947952856303
,1.8422730689933777,5.176626819800688,0.5282217489309385,-0.5145563578590509,-0.2741003753791784,0.9561619867666914,-0.6250943614432147,0.11024339758121175,0.24528241859662314,-0.13686341084812403,-1.0295621856619652,0.046590766672537955,0.41298628122469266,-0.35632435590987915
,5.223735594366014,2.8958539205921214,0.579249958407188,-0.5009464155528455,-0.2390677486448987,-0.038499766269981604,-0.5119895938770145,0.2041490103632226,0.1626061628747236,0.22055904253576808,-1.370395300299991,-0.24402525295831762,-1.8802469763510037,-0.2771010400751542
,5.422255150666084,1.9338560633084323,0.33693304605519614,-0.4509831847712577,-1.9747168751791988,-0.1692840230699926,-0.6209685805451362,-0.24330009635556424,0.41410509778164856,-0.6755983636319878,-0.5200059021381589,0.7765567483577394,-3.408252763068256,-0.1604142206560641
,3.6529339836402555,0.6115328811027498,-0.009542671220221966,-0.9963073456797128,-2.2896670995590465,-0.5445478250779502,-1.2408842300167926,0.3888216325144341,0.638602648019789,1.8292527622968289,-0.6656545724763631,1.4384180343045392,0.4631357840107358,0.11114443968692217
,1.2723141171712296,5.9232613011481865,-0.3447458240734624,-1.6377874869658162,-1.3341793220849232,-1.1333125790463303,-0.48436804321533766,1.1634431486337198,0.8852426285692845,1.0477751183263213,-0.990346864185767,0.9324572216863662,4.07433786817898,0.2692600311085688
,0.8799443629758829,6.78864202372794,-0.3307175019648639,-0.96197024592417,-0.3997197252078436,-0.2304901228409364,0.07001150144064744,-0.02233289797144349,0.10241372673137755,0.5730025983469771,0.23349436334609752,0.3520230956213917,1.5161360828733559,0.46186413410372096
,-2.5070289899675373,-1.551337097310812,-0.4247798362168988,-0.490445408544594,-2.2470390314558615,1.0286908658724103,-0.16234404008356743,0.09723830700274882,-0.41401598817674806,1.655920458382276,-0.1701034549552363,-0.04200062629146781,-1.436432082623082,0.3395220907617705
,-1.06232230582651,5.338444602413142,-0.590321101701919,-0.41030053294745084,-3.2462429893737417,0.334801808026001,-0.7874653028470608,0.1094162739613511,-0.09187332218906755,6.106836624287422,-0.5544156586749635,-0.07055627011497786,0.0767774690613761,-0.25259560493710115
,1.2272459777812055,3.098967024228318,0.14992086764318094,-0.45444354894215166,-1.2569226006852,0.38254968950691304,-0.9743456694261589,-0.10295257771332579,0.28972308390718454,5.14722254655607,0.4672314241021503,0.49504976031969283,1.0123498095451875,-0.11653055626305828
,6.154209635510751,-11.80339127771578,0.37722876694946195,0.2099876179261146,-0.21065630753749554,-0.37122542539906095,-1.043517521859552,-0.4848411160531956,-0.09730292371560158,2.1086079984342225,0.22584412225773795,-0.11441958890242392,1.4863781525718582,-0.25486903692290236
,6.162004336949182,-9.747577455819794,-0.0169933969110189,0.18721365012709207,-0.7328724681851192,-0.2180172548971944,-0.04272613276370283,0.08987585078870072,0.5198901185455697,2.4461643178425003,1.3141792863320365,-0.19349223554902148,2.1510962522739328,-0.6552290516484666
,3.2360667578975,-5.3655082586746845,0.16912036641562536,-0.8446668732148109,0.2687954667081644,0.37431392662643137,0.06897078227887184,0.02935356282099738,-0.0013441743226014669,2.2826629407985397,0.8900179746617748,-0.36573869308043216,1.2909421959202405,-0.317301663020196
,4.5556094539325525,11.479507727636392,0.2500861223893191,-0.20858549206884008,-0.40086378353088437,0.6382321138649047,-0.17461346590741855,-0.405659813818577,-0.5457538603802072,0.6554606919054877,-0.8403867834409573,-0.30667044861696285,-0.1179412694589641,-0.4399411652181295
,4.415892578246979,15.031591201084929,0.37105640231353315,-0.679832037001417,-0.30039849573894983,0.9916878918886687,-0.3472007510949661,-0.47144883488144057,-0.18779578670681585,-2.7679565660570784,1.4094936543965078,0.06890856419676734,-0.7083962847923244,-1.0125208593675736
,-2.7065125143340008,7.359629149050455,-0.1985763677385199,-0.15699478212538925,0.7177643372930189,1.5191056920272707,-0.02395759281320803,-0.681621299746883,0.6696057989366652,-3.5801363239706205,1.5725973394936323,-0.3276981860202209,-0.8399894682736861,0.04003483638558827
,-10.467411526826842,13.865749630028334,-0.3706613189598399,0.2461737719984207,0.6998704717152892,0.31130635621299024,-0.10973786106428367,-0.27402263030194757,0.5352735923148629,-2.70993215569452,1.1078929451570094,-0.5192521928647077,0.855633733810134,0.8526165212676542
,-7.338511475384315,9.300215831307419,-0.3842595720947308,-0.23984924569765415,0.7841072500079341,0.9608988481672132,-0.35610964190758065,-0.11811001137349433,-0.4201599545022446,-2.2714321697348643,1.2011480389908462,0.10731970774951623,-1.9567052366944093,0.9770851144571959
,-4.551216783106244,11.797829197145454,-0.22600473380050762,-0.6246716367613545,-0.48457267395170345,0.10901418811424995,-0.16055102915359834,-0.3285558393801812,-1.4080999267906347,-1.6002175521811661,0.6546707998368736,0.25152317366763,-2.3603677338859113,0.7969746194532749
,-2.455442097389154,7.835623429867666,-0.2289030068567568,-0.6511151602388271,0.15159190908747988,-0.1129508743097386,-0.5895099615789072,0.0026711162122741382,-0.5646837219816833,-0.12319748695942409,0.4898284233799108,0.35640833919477216,-3.335161086027681,0.840549329503435
,2.259776487887728,-8.347930692685578,-0.40165606532117426,0.2941377477422182,0.462917533504827,0.11207170870224002,-0.07428857704575964,0.4527944735193298,0.35427489415901153,2.3059186728827483,-0.023266389294601203,0.8453093383123703,-1.8232608814999518,0.3489942931948893
,0.562502224368528,-1.1025283563827033,-0.4145764097989974,-0.029980973087191994,0.9853096145313535,-0.1299163382063269,0.33991773523798047,0.19804227166907012,0.13387118752293742,-0.29113442494028585,-1.1765474485705054,0.23551977059353676,-2.084843939783541,-0.24422650774149618
,-5.278311204616893,5.935686902985618,-0.7712175491222845,-1.306204602709091,1.253228951223305,-0.719863118574584,-0.06008758580307077,0.18781144153443305,0.19903948338813207,-0.37979950852136535,-0.7286306145790918,-0.42311729484141725,0.39258014086397147,-0.03450381443158153
,-3.519010998507064,7.011179814684623,-0.060060769509088695,-0.49222266402843323,1.2541653720481205,-0.26255439287336046,-0.41988809536617033,0.02986488828259746,-0.13151158459001694,0.8663525753849362,0.730903888377484,-1.192572496581744,1.555647277349551,1.0200904897043837
,5.006310757214396,-4.834295965388055,0.8289982888304357,0.026736186729060113,0.9370856914715099,-0.5841967872775606,-0.3229358725391322,0.0839624033171031,0.6107199957205776,-1.6412281538152884,0.06916177481146456,-0.2284848569277363,-0.14899095223312941,1.193487961009935
,-0.5176803768975713,-1.7920704660481512,1.1388099044044293,0.15249961427175715,0.808879625082558,-0.28358503207873975,-0.5711723879683296,0.017802361185202946,0.2685023048753969,-1.938268211259552,0.34263102874855583,-0.4227766931878118,0.6657094455838413,0.9846112643480667
,3.8349597308596968,-5.0078246891209215,0.6591427629334472,0.7678560509881828,1.4450455085331666,-0.44510570817660094,-0.7866639318766001,0.5079419611322282,-0.10685455048798481,-0.9277764895087304,1.1704343200094003,-1.3362155207021527,4.789131919853726,0.16613373274087698
,6.217533856161698,-1.1759524374753902,0.12181998900810101,0.6187674991445323,0.6291409776638187,-0.09863607816036005,-0.613459822726509,-0.06842759451619389,0.121525910092984,-2.550891306552945,0.538545526881241,-1.0720433456569287,6.303953817438462,0.3548680071942527
,-3.7952884176401125,12.035395702743665,-0.8600726465490044,0.41327635387955824,-0.46297109898563565,0.180777646139851,0.0837523595952087,-0.48117973679638437,0.25351748446327793,-2.1065762932983736,0.6558061905428219,-0.6079689289007881,5.736687594217045,0.6676576170415651
,-7.7018474662517455,9.978150764519755,-0.764172903791199,0.4634414205362198,-0.8652815293728247,0.06431773185304342,-0.6688295641301506,-0.46575619841543553,-0.5019394605573496,2.318889048220821,0.7337846531497993,-0.2872752797818958,1.2033315283902433,0.6747586389362198
,-7.558150484983516,8.535541588627014,0.0007689980306654099,0.46944019546018784,-0.19041442785975166,0.5075850004765459,0.26993794189928644,-0.4153953513813361,0.012392159758599936,1.119181812375474,1.9853668154900237,-0.6117616502437042,1.6236283592748266,-0.25687614922848456
,-3.4256937715844655,13.94471632238734,-0.5277351395774055,0.020702604596610188,0.4723483794728296,-0.047695933948164286,0.7851786460027573,-0.7861340684078223,-1.270365562825362,-1.7645314379399415,2.0059821470408195,-0.7316793923416841,-3.866343037766846,0.22834359519508873
,0.19642305150400305,13.832334002954129,-0.6418198038211823,0.31515988142741225,-0.25281072374819763,-0.6155461743586922,0.6635606299680299,-0.799556793183003,-0.7107369442577574,-0.8138833096403247,0.9831699884249031,-0.9008316153959167,-2.179418127669211,0.268023210570936
,2.887280242757421,2.652291326612518,-0.1554110884860721,-0.34318579729475235,-0.44004342142606706,0.6326189419552944,0.003975406821462167,-0.1104144218831745,0.7311676636129509,-0.6762149411201243,0.9243581198231248,0.2341978512739392,-1.1811027740088975,-0.22936272980457478
,-0.9927015336393544,2.0825453005036083,-0.327839984897311,-0.1320205820794158,0.6282311832415726,0.4865169558844048,-0.5763439585758602,-0.18079600056710468,-0.26686336338125993,-2.340444432356556,0.3400288914277977,0.23455189382931946,-0.3092504734665129,0.19128765115045882
,-5.893720075869609,9.750311539456543,0.22200983946037656,0.3303514758158963,1.3983012650703097,-0.024142045654486313,0.011610120786939657,-0.220867429516618,-0.7087404287839217,-1.7165564867680363,-0.17084659917154416,0.03239471463205401,-1.3677138492591934,0.5991439395029903
,-4.6234408735153485,8.88232171012826,0.05856107507488671,-0.10500118159520215,0.9561921376695892,0.18171648031776175,0.11184665730234256,-0.60173969026031,-0.6972553106614913,-2.200170441798032,0.2590802090797717,-0.07395768865134593,-0.46176326110110616,0.7667475530243499
,-10.75465717039518,10.513947204455475,-0.2682678143868875,-0.1644621284538218,1.0802957221663958,0.6119406199662568,-0.6860503243618317,-0.5798141406341418,-0.10833169245974249,-2.1393734212527837,0.8926684695270649,-0.26064324434797426,0.8457161710576679,0.45792011260990606
,-9.276367173136986,-1.2333240826374534,-0.39871476487560403,-0.11175645408151484,1.5110544336082175,0.2045165775601967,-1.06245096397272,0.06293114217387283,0.711660063321712,1.6749035101665533,1.3570807356083276,-0.8883557054214357,-2.800196486331465,0.5796997192997763
,2.551333599009205,-3.0121429112990095,-0.4990654218167392,0.05738423612238926,-0.10115771294131945,-0.20367380232853438,-0.15223956787328782,0.5216362425006409,0.8535629428445105,1.809076361413713,1.7111790287112556,-0.14799387154725271,-2.4550388760651782,0.5876997970643537
,-1.500324900427564,3.957265759822071,0.22510129696870965,0.61982869460832,0.058098919004802775,0.33697244816696575,-1.297381323128154,0.5612150599801661,2.0086382963077467,0.03975384639196725,0.8067566674538583,0.22078115210446522,-3.702285271102004,0.6189110780487593
,-1.5798077599027376,-3.3676038642374393,0.8441441706687381,0.5264711247429807,0.4883823070669938,0.4746852447151998,-1.4539652781964967,0.1087962218872536,1.4781476195712957,-1.6692669157052547,-0.38562010694052196,0.04739911005269219,-7.329297460372302,0.28906830534631794
,-3.4864147289985277,-6.548305476959221,-0.09233408706523133,0.35999048360232144,-0.42835269463213327,-0.01768727620377817,0.07557414985413403,-0.556555307682009,-0.16363535468996582,-1.7587838535818898,-0.8050028623475515,-0.09994297977568545,-2.4466411522263325,0.1693363014039682
,-2.6780434686862886,-28.539746115512784,-0.4094372003102044,0.10496517673759329,0.4071005452834166,-0.20845357830992073,0.17883974870618086,-0.5857292422988435,0.03544508737332145,1.0665479656556525,-0.09796037826600835,0.2280264714431114,4.2376696062261034,0.49919277305766213
,-3.136307394470736,-2.6486690068552976,-0.47852107268876887,-0.7733927076950025,0.8807676883964182,0.49321908589270763,0.0023608301624039522,0.2583183090824426,-0.503198992752634,-1.521586064891328,0.7140501570060181,0.4817823971390747,1.7033430170432415,0.4044499460516701
,-0.6714051195705101,0.9171551135364928,-0.13314393151876905,-0.47251215935863544,-0.38768807475434397,1.7067783590748502,0.9506713971195391,0.004957816301944713,-0.3926879245724256,-2.175116424250034,0.5345750398282157,-0.4973190673304661,-2.0108798185635157,0.7004660070439436
,-0.24498418083318452,2.836589529724267,-0.20197292766490135,-0.39557265861801916,-0.4452828659340478,1.0891031903232078,1.1629799950447692,0.15201546437684027,0.34907263119959203,-1.5317249500636099,-0.3298802938327311,-0.6745582726746491,2.682443831266728,0.8612364846675659
,-2.847872526258009,9.560979260637403,-0.22730383805308385,-0.4739882231431415,-1.0653286903146761,-0.3011514745033552,0.2050376263177708,0.2504327353648772,-0.00260596088044243,1.2635126521524562,0.6697648181467852,-0.14826898792232163,-0.0666979625861392,0.257043996247358
,-2.8753532272955122,7.466061063437218,-0.39616453961844195,-0.45383059417871396,-0.46395677494823584,0.1117598973046499,-0.8879367852420097,0.14951175986068818,-0.12048430248113795,-2.1411948281064572,0.9389552904945383,0.5011310704954484,-3.386272238825533,0.5909030152000676
,-6.113979250133866,5.785855807667433,0.03517337232193969,0.056317398438018716,0.5864013010516731,0.1947895066599712,-1.155366993781564,0.6740296141179427,-0.19618336427260877,-2.41650971460193,0.7146334382489266,1.2318341966658837,-0.01812352127902411,0.882497171384896
,-6.149122510046957,-0.6318268102323229,1.1071277028717672,0.10737154435072135,0.7429390580337897,0.6240719126028038,-0.44796625076781027,0.84072417383887,0.9121443237335995,1.5728551915128561,-0.23789090169994986,0.5764762784846849,-0.14015638845702416,0.39588563863727483
,1.741188861909181,3.450497384317803,0.9538111679503585,-0.13502938832490105,-1.9738605434708378,1.019228244028043,-0.5749099246618018,0.9620827638331203,0.9563380569086305,0.4948363561778418,0.28633591134812975,0.7878583934254122,-1.840478241808844,-0.06004623251582317
,-0.855679982375813,3.9308868148893197,0.09973709761389468,-0.5867159116557178,0.19899160999892412,3.423692226245485,0.07076081772898349,-0.04999057715521075,0.4174463866314439,-2.823617337450575,1.257365765724726,0.5228571537462736,-2.8780265919746104,-0.15387521574688928
,-2.176610583298943,2.6908514154629657,-0.4674696342847681,0.024107420985540976,1.0949554322804227,1.5429775639820262,0.14483416035164917,-0.32776411163488917,-0.4407977765501542,-3.015681855619473,0.2349599187446371,-0.1628500094116874,-4.770254317178255,0.13142053028690998
,-1.1221639404850678,-4.999343385156051,-0.2960848868301208,0.5516770466886604,0.650849732091434,0.1325376193075554,-0.3519163473683903,-0.04416101493612528,-0.6082129129202132,-2.913582593025595,0.10690349835870798,0.47722383142908315,-1.497855920796775,0.15317531423741076
,2.881473316148296,-9.22519995873678,0.7050584704108792,-0.2936762832632222,0.7405227216088952,0.06753191173036201,-0.45674602695906774,-0.5664496420063595,-0.7600184375776621,-3.125656556708527,0.6249235243427524,0.7483868920191997,-2.1253976171599245,0.3393592411381374
,-5.657538896740647,-9.491069740186681,1.460806682558684,-0.9931200037501098,0.15900221658801414,1.3295831636358033,-0.6037640644690315,-0.4137020470751506,-0.2761807493731252,-2.84925486302245,1.3744314630871939,0.2967952064877139,-4.271345367885325,0.9070173395424752
,-8.561709317569857,2.880854953496732,0.010310613365805993,0.4832144575612002,0.8956737707694487,0.6577101856669999,0.14821072132709556,-0.5440925997213881,-1.1611803289053826,-2.039238368290649,0.7653946567995372,0.38246679516601767,-1.4698440500472731,0.5050440955011299
,0.3306959276545114,1.061727825140455,-0.39513740763033295,0.20129069937733127,1.4775206878305607,0.2477918540148584,-0.3543241848076296,-0.08389075877261597,-0.6447779616218177,-3.546186198947098,-0.29625612853242994,-0.003012338016888767,-3.93936252458265,0.5961693405892391
,0.3661228958464689,12.381014947472856,0.18993834923748562,-0.2902699505158846,0.33336443908971636,0.242538307401385,-0.8705799025590759,0.10708224031794544,1.1891026037159165,-2.699718694300252,0.17123140144870536,-0.11355832540112101,-5.703129768126356,0.42942600155927485
,-1.1250789059235782,9.573969521780311,-0.19834772250573832,0.24109513588935572,-0.11451814493004978,-0.7269970906010604,-0.983459788350125,-0.5641386598083705,0.598878527256846,-2.609961124250025,0.318299258408695,0.15948855213924568,-4.612645559379312,0.5859771067606161
,0.04579893869616819,-0.4909593285082078,-0.5383528889857363,0.02956655645451807,-1.2348785963020252,-1.0512350146907876,-0.7303963225532485,-1.152776898481801,-1.198477329083965,0.23512973010527485,-0.006839100369430593,-0.380712082383794,-3.9793654718593032,0.6208251832780949
,-0.966677900165502,6.53297556691122,-0.6426464631159768,-0.08188477092620447,-0.3432386600920005,-0.12711937294088385,-0.20760631826157774,-0.790237239238907,-0.6438760085225583,-0.6386750583028921,0.7028686709387969,-0.49521259558326575,-3.818313362033359,0.17891913626305037
,0.07165850142733643,6.779779056068558,-0.6053686053787342,0.1560305348658692,-0.15985199650268242,0.2876099196907005,-0.3034243717597926,0.15091696096022936,0.8692660616677539,-1.2379268344701595,0.18177315901085098,0.028723049838657838,-0.5411623450476377,-0.2594472852798475
,3.5993650323442736,10.575260826369956,-0.36151819890472575,0.20521978246741396,0.002559513963807229,0.1331748582647007,-1.279192146851293,0.7553653625633616,0.6324867240610671,1.9714280182648534,0.5742416761764372,0.31746882943642607,1.982352743939424,-0.9558218606879559
,2.8994337327241166,14.267853036266533,-0.41798761182438354,0.6222583255519095,0.05978763070031566,-0.3812226323646504,-0.9399061746566685,0.06261947703739214,0.5113578549573564,-1.1295301921128242,1.4321218085401488,0.7923249172314283,-0.1299529790306136,-0.27785883210526646
,-2.261764779652779,0.47496248271529606,-0.26173136760226173,0.5901857788295,-0.3291740001379924,-0.23730362523996518,-0.6528127715126772,-0.3242519784034667,-0.20467945000779414,-2.4941878629556613,0.8258534455080608,0.19581885843727262,-4.568502295672401,0.13214052691543923
,-0.7400521977077081,0.07227149980456536,-0.02992976030659099,0.09915263194135283,-0.13736430081036108,-0.3424054738468947,-0.7187520586303173,0.808738125857688,-0.12383080290491681,-0.9755048740947249,1.0295279149416943,0.4583757973796327,-2.217694133914802,-0.8099052010432708
,5.00240600817916,14.032633407418889,0.6648946162077539,0.28851003259470576,0.7275020935244383,-0.054070708583473105,-0.09707076249290507,1.807498854390816,0.7516681020133436,1.17976970393948,0.4641632949376965,1.029385124579195,-0.4967000613910101,-0.6193455175309546
,2.305431254729201,13.352045867194414,0.05587972919836752,0.5433154906334853,-0.15722147512117174,0.22945848151326995,0.42929917832906056,0.5940068156423446,1.1948168938691803,0.2933955919282946,-0.11080573882133321,0.4410275118423997,0.40006060254664716,0.25842832405029426
,3.6702485403981804,6.26800169036643,-0.6018148376938749,-0.00101915314602548,-0.5435068894092967,0.6643768618772106,0.371096609568833,-0.19176704784374354,1.2103106995457038,0.16137363134212224,0.6019045044707612,0.9194193650706747,-2.1245131028236055,-0.27763764086035686
,4.811866295151653,-2.651880710420473,-0.3994202275399114,0.5052531469050744,-1.3387867363971628,0.10685732825259274,-1.422883667203581,-1.475694580609449,-0.013644643605219517,-0.7706116898087871,0.48655958929165505,1.0372436315443836,2.1517610085728713,-0.7369390528618748
,-0.9661149216409195,3.477528794947101,-0.2296645141496015,0.2923562200563497,-1.3396562886970855,0.41995103775344955,-1.5634978658030576,-0.7814995264100555,-0.2050718125947532,-1.7809930908932226,-0.16626681574045088,0.4000374971746927,2.121542911066241,0.03861276673113002
,-5.608892844669075,8.616811200619356,-0.6190442088923814,-0.050873204672280445,-1.9880231609345447,1.3947400968672976,-0.3600881575121805,-0.19153767730387414,0.10903011947142598,-2.3062284933463895,-0.3551800512423363,-0.01996805265208593,-1.3107015010805847,0.21026627989681906
,-3.0154793302034544,16.15960784019591,-0.6901740610673638,0.06572874679278692,0.6934308351089837,1.1467387676984386,0.31190496706450604,-0.7321891992105967,-0.12639814772278157,-1.7625422045645533,-0.7263249505507702,-0.37914327330760084,-3.4021297067339447,0.1937274345688903
,-4.526465646503216,11.48634932136791,-0.13376765739757696,-0.5557239105757577,0.6057290622353121,0.5740019500343742,-0.21213974169520047,0.0543293798946153,-0.7598180143399735,-0.4245339230646642,0.36276617351838897,0.239145752268113,-4.48095748723686,0.66921700960503
,-4.630847645530095,11.351541043478159,-0.16309454158557168,0.43434891439712975,0.0776804348797616,1.1919039335557942,-0.8426408416253242,0.5537253416429756,-0.48285273938945905,-0.6571668062441111,0.5580528654489958,1.5088137975373404,-1.495534377904664,0.8298581740055049
,-4.231698018587928,11.20997296551641,-0.20703732537254818,0.4593964047890521,0.6695394722814819,1.0173897542123982,-1.3482621344833956,-0.4499695461543245,-0.14572883927588384,-3.0675815793313577,0.5789975622345095,1.0978350458693769,2.232304117118087,0.6667772598958139
,-3.1660728833774994,17.722438072771602,0.38105795741805865,0.377797905302388,1.1942768746255639,1.6706755859824676,-1.2773149733317783,-1.3163590944318675,-0.11470644171282374,-2.378747428788585,1.023990224649555,-0.11278625808941137,1.9674195957644978,-0.29121474648550716
,-5.73046809474664,21.65604025161685,-0.49508177648706947,0.45133544729163605,0.5263627661053689,1.8957549361550836,-0.3822205646248209,-0.602334049244758,-0.7793958622947712,0.8423825851675256,0.6568088508306851,0.12645498048772885,0.4744924838281123,0.13379193226234715
,0.37968500806088484,16.766894557685724,-0.6902891010583634,-0.42612437138199255,-0.7490207728542041,0.24769384863041263,-0.0034550871214223296,0.28892919994909855,-0.1600669702454292,-1.1273339140889886,-0.03458185447729459,0.38123399328034296,-1.6720110901865584,-0.18745142596068687
,-2.1271259473742106,11.485658490075387,-0.13057040309844656,-1.2519921019331013,-0.11453171782284031,-0.617993321970878,-0.2288960035504244,-0.5850122928472845,-0.40240697497285294,-1.1027910869886095,0.48130447667669823,-0.5849261736095552,-1.4925188820261637,0.5964772992788517
,-6.942153236526126,-1.7235741499808748,-0.35986170482468594,-0.4026161474396954,0.7939206395778994,-0.1767211575284635,-1.296779319163874,-0.23020579787779774,-0.3489493393803531,0.14547725292240976,0.227025413628971,-0.4580633254371174,-3.114547720915203,0.7660637170937603
,-4.049559103995523,-12.450642990274552,-0.06373709021345728,0.051074821690111405,0.2208738554447754,1.1283609809785096,-1.3655806426848256,0.44923411369916355,-1.3177953984711974,-1.1833566541972196,0.09265821955033253,-0.548072495894186,-2.5012135685931884,0.5681670625548125
,-1.3069063056172885,7.04125758168069,0.20512627409258727,0.10134821352305788,0.12967849259338776,0.9132903548653318,-0.3866193685089479,-0.1286852267340378,-1.055333041138728,-1.6986842832255293,-0.5055109082093923,0.07176290073272598,-1.6638028509026908,0.9144135398175411
,6.6170520031218,12.016132197562486,0.30021090579112913,-0.028245530209034333,0.6811597426474901,-0.4118944031173858,-0.6864995450644881,0.3025567952917918,0.20539350067317272,-0.703863160953569,-0.5146438506334025,-0.4062719754274175,-1.4516157402656242,0.9661445587378985
,2.450669767433707,-6.235126457998922,-0.4870913216144371,-0.06752025013882154,0.23808933013381717,-0.3313971547295404,-0.5474023858281442,-0.005333880189810412,0.39873661630547674,2.221189376121473,0.21355559069667682,-0.831364777201368,4.982411842780733,0.4488878014686051
,-2.0381686177583753,-4.243693582121913,-0.6037506094418692,-0.6436517260526049,-1.0329423996216387,-0.6795411069797206,-0.8455636294190682,-0.9023731535861154,-0.05241919084101147,1.2901578542030185,-0.6083863227919817,-0.8029287877464871,5.882209311669682,0.05074469668132409
,-0.0072285336517806924,-9.236133246376365,-0.3662459883677781,-0.12695284729565198,0.35594230886761125,-0.5199159282558004,-0.6181297199424527,-0.8525522238983076,-0.5598946449696146,1.0467426701532945,-1.0095236826434963,-0.17016993846639683,-0.7145275245398879,-0.2541982491402792
,0.21728069186232038,-5.978529503251613,-0.6445909923238646,0.4124129010413965,0.4255321209676408,-0.3939138957474384,0.44099619089048087,-0.7368149181300692,-0.3296822331976595,0.31118805652269427,-0.8999994557333522,-0.36172006845936583,-1.3866518903215106,0.1409452870866193
,2.454860201695388,-2.0741420252995426,-0.4144050958283301,0.41093673219498833,0.632120345025569,0.2714736822055711,0.4713567561785291,-1.4164297296235973,0.32397116262288356,-0.3006519017197493,0.8396593795817521,-0.37078079181766094,-0.043929545650426984,0.7871887863646608
,1.3884304498960618,4.604167001460513,1.0354204003649112,-0.01912391045401132,0.24881480376605727,0.3752071719506308,0.09443106918851195,-1.002972211192241,-0.16819179567249562,0.9198989479294084,0.6718110877863726,-0.13963273511299557,-1.5039916093828811,0.39188227986284274
,-2.0349580941704546,-8.454997410645076,0.8853171460032722,-1.2528251667023738,-0.2692997751109946,0.05952211496180522,0.02862722280962138,0.9294176853422413,0.891474961130185,-1.4199256521754373,-0.12721072183025664,0.17581909274073215,1.4750813585026377,0.08255235294361978
,-0.3984219137144623,-4.184540675926899,-0.29429175562971,-1.358451485268542,0.06600676893673672,-0.153207036689393,-0.253575805435377,0.2993521484856503,0.9612508273577409,-3.1437131198817085,-0.4946664242793691,0.10148113700824327,2.1311696022232547,-0.08192147824174639
,-2.028472705124319,12.985920156099505,-0.05854398985396769,-0.9297015793389369,-0.02559254115938989,0.3269747955982915,0.056488008057635215,0.5138873852302206,0.40171951086416213,-2.695690392005322,-0.17568428053554355,0.1096913386671195,2.964794592254156,0.156602555601833
,-0.896683952020789,15.112790136826044,0.09734737250623432,-0.5055511871058536,0.4731680013379127,0.804611537574099,0.30642845906538707,-0.27514261530439404,-1.6105576405684208,-3.0160154091452007,0.9710224207732834,0.05342298083174986,1.1138052039349156,0.5895094546910599
,-9.360413557723904,12.37383271955701,-0.6845194851531127,-0.4334496624950171,0.9883350320826253,0.17385884852197497,-0.5556873117059619,-0.7634918862931257,-3.783346652462063,-1.3544266451605869,-0.759611370504713,0.17579215489629996,-3.438362166712975,-0.6473061543646094
,-6.458148923957017,9.765954754492292,-0.7930771366657492,-0.7875306513259123,0.3133567854093499,0.7605971952757761,-0.3473598011385235,-0.19099919239456475,-2.980469408103792,4.154142744694177,-1.0800005636897019,0.6396181477340848,-7.371186934121989,-1.6490487193543604
,-4.523677507131474,9.01123127427564,0.03185588364897254,-0.11958092399554344,-0.04836641520897948,-0.32898367289580044,-0.5989264283700251,-0.06984691613502395,-1.3515339178385632,0.8818385037190978,0.33215820590650347,-0.06683907963673273,-3.9861973372975035,-0.931472275492512
,-1.976964552836982,13.365074392555075,0.2093033970934292,0.5584158003558111,-0.950101589017788,-0.0780246859094925,-0.22842434318041097,-0.15148196188613694,0.12852340704259108,-0.9810580418480385,0.712956007124944,0.3795612283455915,-0.8753215029448992,-0.8300099626471474
,5.661612237963339,12.408546301873013,0.5449274832051393,0.5114014739093068,-1.8098631055871992,0.11987092270913687,1.0152339843635534,0.6236809670845057,1.389448026332272,1.0339239425381437,0.5958090997013545,-0.23579641454003908,0.10931988986561268,-0.7774276059176153
,-2.808577442901649,6.319244896847419,-0.4033837007738552,0.06986906707033427,-1.519850078578157,-0.39676802194382904,0.028710413258383926,0.3703122536911804,0.34134624119456786,0.0017849029939434457,0.7672395502052927,-0.5095415127442987,2.665042077312548,0.5692504515265377
,-2.7299478794790826,3.7548652740592545,-0.8775339011374396,0.17871928894476666,-0.10405718084111729,-1.4603230675384902,-0.30790698914249526,0.17756930314538297,0.15476679174748975,-0.3933784128866733,0.8197439932914375,-0.4478736977662276,2.9297848526825088,0.9510831733600863
,-1.185868402860729,3.2342583890367593,0.06990670879204568,-0.5130550060311998,0.9548217700332936,-1.1201639087899327,-0.3545314756700639,0.05804293086203318,-0.37300715976114757,1.48745464194025,0.6677117549783536,-0.02279885187858644,0.5595808089217862,0.7801226841085728
,-6.261266891946148,9.985385259179308,1.069994757580666,-0.21750557272075588,-0.36440618028840394,0.41338403575849264,0.07959591103632502,0.07197041334810071,-0.4343724503791597,3.256687909101578,1.3125810659276373,-0.42686499677890544,-1.611839774110163,0.140568759236376
,-2.403547410223633,2.732043498770494,0.11384745119917626,0.2650790743745737,0.14545890066976855,0.48710442385112773,0.40565624706133774,0.6519168338010073,-0.8226608684281405,1.5679508712666523,1.198123860936345,0.07754406836417468,-3.458812013028942,-0.0859896279848348
,4.355781581130521,10.761578618645087,-0.7178188131174779,0.3308175763965301,-0.45010134897804455,0.5161242897366172,0.1621253364336848,-0.1287022662233496,-0.846947905123521,-1.0485539920526084,0.5271912109845304,-0.38697767181256093,1.8541497524220483,0.19526962512648563
,6.5377306506979735,9.717885845952841,-0.48455285474982884,0.6316684201266735,0.5484357868028736,0.7896858512140005,0.06219225043396293,-0.30462797295072314,-0.2527031706421295,-1.335419512566086,0.8132941592191261,-0.33287041675735846,0.6569875207632472,-0.003624571438894659
,3.1124010665252038,-0.9634140753638943,0.2925020972156959,0.35291842796542916,1.18099989141187,1.8841873127881785,0.04652373009108718,0.13793152339757006,0.2630154215917912,0.04891412062017675,0.2836449815180789,-0.27660585797234977,1.332371591054833,-0.020599870059558767
,-2.1710232294157525,0.11039116948109189,0.322643622665329,0.8361949076224879,0.9068337703239939,0.6437187416069898,0.11795047069105043,0.33092031703225805,-0.10298919815039542,-0.33229907294455413,-0.8366964519566774,-0.4584497728720261,2.5479719124323092,-0.3831308388411297
,-2.683127605648763,3.423283103084637,-0.42260380701627437,0.28152088315520474,-0.4347414266379543,0.961749956601857,0.509845377272365,0.4576009666575974,1.0111083240799232,0.6941577553126275,-1.424577198285191,0.2823017818056212,-1.6470648809574446,-0.7734786846893325
,5.56502061767554,-7.802453507857864,-0.4086643025102158,-0.362665289745146,-1.0822281957162505,1.1080639412331843,0.12009466068220707,0.02664834543185911,1.3724597176940065,-0.6273652192207407,-0.6964703529224366,0.9346641405985934,-4.893714235430667,-1.1132418685865688
,-2.5077775441204673,-7.202823614846312,-0.6865073275025032,0.24808424579269248,0.15185815312388973,0.21836487964830129,0.09209967681016377,-0.1879679073020553,0.4656926103918326,-0.057024318935060436,-0.5329109436660266,1.0264564295883782,-0.34778442998336295,0.2859398614198239
,-3.1621165897128196,1.8308096756153383,-0.21697981893852097,0.05909743877683422,-0.8295749692302826,-1.3412300692985313,-0.4799729014770294,-0.740329133049217,-0.5325586938021559,-0.7661120251739033,-1.155084092928968,0.6540511847041482,3.7365965485156267,0.7756898083026176
,1.1418531777621874,-0.7029722785640348,0.6059718739149201,0.12419756548138011,0.0006682583078098121,-1.1505634637221855,-0.6236649302210361,-0.6651159111908116,0.7335734740150301,-1.5427151258407517,-0.18995533037721335,0.3666304629227396,3.6724752948020423,0.35541157235171905
,-0.13836648357368947,-8.185599312701612,0.5124136919490663,-0.4270551839654435,0.19592335355140642,-0.8595334067322862,-0.4392506531624792,-0.24945092297523816,0.06259627570576377,-1.7316538356057727,0.8318478379899403,-0.09409852308750898,3.1290927288951944,0.09274226832592626
,1.0265690221494044,-9.047162157862767,0.328387693180462,-1.4565342820257638,-0.9432691285306791,-0.3154882669850801,-0.24347943799524246,0.5999469859938168,0.23360341504153556,-1.0566014884460753,1.1904067460943828,-0.5762499512379946,-4.071325950464543,0.0033541466059411095
,0.5143220223980401,-4.965285475054327,-0.06395925704187762,-0.7716869028438781,-0.27033680245510716,-0.3025043392731528,0.234511893073962,-0.08220169135210158,0.5885453678270582,1.2099523336858027,0.22528804047557582,-0.9344648102513957,-7.139631900383893,-0.0518933161161447
,-0.4990173027994139,-6.105642450855824,0.13362943397270022,-0.6568556805642004,0.6137096747143241,-0.29580778703056665,-0.3055815738459363,-0.2293337223702682,-0.35923160624261097,1.3336535954737967,-0.8260524851619582,-0.01704043061533853,0.5471700889636796,-0.4614718403165814
,0.3279159029843666,-3.207084893505399,0.16977238009614748,0.2725489344478213,0.7194380405686449,0.05124211599078928,0.21662900564464044,-0.18633379208641504,-0.7530309096008215,0.8202070887849613,-1.0355403138303452,0.6069225680441779,1.5024622376019365,-0.845891446462875
,3.9690427413589093,-3.687307964060173,0.662934072221783,0.7546420877416582,0.5804177117481152,0.16875678288451687,0.6784529890251131,-0.10879655386062798,-0.7492056771589117,-1.5296402155075657,-1.9397860324918788,0.5352658577467138,-1.963512230008747,-0.41011028586816556
R,1.1597431894357575,-2.8698739834956353,-0.4176707564265507,0.7352482553355523,-0.3479306555088058,0.6847368807750908,0.4263887490038293,0.3907183511732257,0.05578357835895373,-2.44764218815506,0.12256996931118375,-0.26490127182864265,-4.172843290592781,-0.265535403592846
,-2.4952425205214874,-1.050105465678594,-0.44099805449783736,0.49633854178169007,-0.22784924665437647,0.7805446274772962,0.27479196714776083,0.034538080632983574,0.8505482103908116,-0.8853631978997112,1.7157925904365257,-0.07676750325151446,-4.331190008772976,0.12892818418878027
,-4.047488023829294,-0.18684273586833847,-0.22311715586589242,-0.35993444667405367,0.2671216388352558,0.6845459206707775,-0.5200873758079773,-0.17883852396905023,0.8070333980639603,0.6000019770216009,0.7251222091979341,0.16526944546113595,-3.0600245324593995,0.18705046424276564
,-1.2748155807723778,2.803059065681032,-0.2588663074736687,-0.22327482915063107,0.4514413879810066,1.2840090669150457,-0.902275272281731,-0.7694516889133347,-0.49456996578762974,-0.1833492029056345,-0.39073067045155213,-0.7733320508595438,-3.953771504118136,0.7406383389275939
,5.009408510024026,-1.4007349460922183,0.512376980392858,0.3036457375899798,-0.06212805799402473,0.934828647300742,-1.0302514177912363,-0.6443479569953583,-0.9568182209466819,-2.448549616252056,0.2970243687685621,-0.7927740357874746,-1.0574000640021832,0.9029684522743309
,2.858262091620663,4.363707516372171,-0.15249960616485148,1.1230308249857484,-0.4910805724792901,0.637557068057027,0.04944223646057519,0.18890848610424754,-0.13520969392907312,-1.1370305488612384,1.4998107720370812,0.02828708550686826,0.4610130048028867,0.27544066489743174
,2.1463573857019886,7.152925021849476,0.2199594784284114,0.6320177144162017,-0.42170884170973794,0.39208502952671753,0.1570796452918792,0.40327725416070326,0.326115957621764,-0.056408865338275965,0.450266443291849,-0.11818845261276732,-1.0396628121863238,-0.48576158225063915
,5.019928541113211,6.402838189252583,0.6909312772013776,-0.09835139010279124,0.6124858332211456,0.06373033699990416,0.5164315885416022,0.5233052420448139,0.30774266866717365,-0.09618978011987767,-0.6021767755227753,0.08090801018279652,-4.590562161060631,-1.0032050599433266
,0.21049772648052684,-5.170334135638431,-0.027559895826511097,-0.4227387682916446,-0.5944911049048951,-0.9571216042120548,0.28168850368663834,-0.18544406209758946,0.9016005916406928,-1.8264440451771562,-0.6795664679180086,0.14377316675875673,-4.195585571367738,-1.6628874302075307
,-4.67910452364465,1.197771281250956,-0.31388131129315244,0.15132766036496229,-0.7880026322184653,-1.1356200139797847,0.14286782212434398,-0.05669786020997146,1.2936394117577183,-3.1011300322643685,-0.7137408962213241,-0.01647588269309416,-1.8238372264164364,-1.130328170782873
,-2.0028169185319418,5.274751892582148,-0.6573254019340873,0.1843767862080618,0.21237749524117486,-0.4810957398749891,-0.5263988166736333,0.03083783724199914,-0.438052639644408,-0.9463999938653317,-2.2347822990022284,-0.25582693757645175,0.1867984926788697,-0.4606226237418118
,4.468994316215173,5.14904531210854,-0.14184632299720087,0.052785222604887334,-1.0265771838933917,-0.3606777113586639,-0.6881791157243697,0.21881459471032347,-1.4624500450518587,0.9118662646232627,-1.9246233546728335,0.6504895510442076,-1.8422479068890452,0.26880963475479797
,-1.7365354776965036,0.27230933261169,0.053296501717856874,-0.1820431207090549,-2.4236479700984126,-0.07276306292878124,-0.42767495884741163,-0.41287831249433116,-0.15842880549425228,-0.8189018683205732,-0.4840910743150873,2.060331557056055,-3.261660375683091,0.09496916810904396
,3.3559848454547043,-12.883442105125019,0.06696145501113601,-0.22334857879773573,0.24735877820882424,0.7578864475121966,-0.0048315927191772195,-0.6474390180832917,0.4621861905420027,-1.8157190748361456,0.14477456821683082,0.5606935691159242,-2.9270259292774417,-0.6889591876191197
,6.01269983389537,-11.954463560599898,0.2934198930819871,0.07479749108634168,-0.24195746826071365,0.07020297202249352,0.1220727643493258,-0.28319173632959493,-0.18999999343510493,-0.9020980411873728,-0.6705805554573966,-0.2360529243577037,-2.3428365943739538,-0.6165801739404769
,3.5888723577404664,-10.404868886623229,0.12437054381521956,-0.6007095090836266,-0.9550745608492108,-0.6112841479629603,-1.0851456783691094,0.041798209129597974,-0.35670879872481054,3.8851349666147645,0.11056494067798099,-0.6442150129609298,0.03784792182916165,0.21766760436763663
,-1.3220222275587645,-0.8881868920492657,-0.6759573370181229,-0.43907979344273396,-1.4876546366310635,0.12808189835289224,-1.4568288194040697,-0.3207491160048314,-0.7003015720926985,0.7932613828199423,0.44173782225981106,-0.7424261691443343,-0.8659973959224009,-0.37265401853812175
,-2.9273351968087566,10.022404236381465,-0.6027271575269108,-0.5997566346458414,-0.6324193730660466,-0.10933976029709318,-0.35227688590679046,-0.15033208326931916,-0.47733180675184905,-0.7991421115316678,0.22177086667817963,-0.45083767698947674,-2.954499862989456,-1.0374405755821272
,1.4780512800903347,1.5843233960831236,0.026306013719822535,-0.11673000755945921,0.14042655681501726,-1.0112530235080932,0.4660085193806125,0.752142695821061,0.21141323210600646,0.7781365077259951,-0.11789595343366152,-0.19059348560382214,-0.1399734943887893,-0.7373585865849119
,3.5019833247223002,0.3174068379884381,0.2540021287755877,-0.0127757803559649,0.3546713557349012,-0.15602004527995644,-0.3602142424257914,0.07525959586824928,-0.17774074939356507,-0.3957041601239083,-0.4816457168435214,-0.400319990894821,0.0015084288460220135,-0.029774281542100434
,8.841719602722991,-4.42654532674477,0.567038657087111,-0.07612166983846197,0.10615714122710224,-0.07854666554533524,-0.3220071554486541,-0.028371967175801652,-0.4910586100798903,-2.621477643155828,-0.9636675763765578,-0.028251076976787207,1.4365179427272976,0.2603268246922279
,5.560368157933999,-1.719647493695234,1.2364398684265223,0.009102932669613607,0.20600079446505776,-0.3553495851623948,0.4584831730811089,-0.7264645795229595,-0.37337104339004734,-2.6211880057528263,-0.4491589960340925,-0.12864065883717246,1.2810770553222592,0.3932939163051573
,1.863428516837524,3.0202759464079163,-0.3211592752242193,-0.13712332648776632,-1.1668027974186512,0.31505747340505885,0.5348780995264062,-0.6909114016360971,-0.6565363338825573,-0.7310206828647369,1.0513755224751293,-0.43147973987700905,-0.553614802374211,0.4932973062421042
,-0.21498600854465683,-4.344513382514398,-0.7610410171962783,0.1974144459120429,-1.0421444802879969,0.6189943785464944,-0.6641407213997966,-0.14874158789049777,-1.1538929434116274,-0.19250044586022147,0.9441907260658562,-0.9033916938632074,-1.3477173293814557,0.39590342988834276
,4.147734350419427,2.1476513242275326,-0.3197133478068853,-0.3261436011721942,0.5364101520025767,0.6332083272118035,-1.0224100565980976,0.041408214482311655,-0.8405867286688906,-0.42497638163633294,-0.6128355407001567,-0.4152787264590971,-4.2662075116662574,0.35196808414010966
,4.512278895503353,-1.9246762725393702,-0.6853395968171435,0.2697677261712172,0.5887297740695729,0.31360361244994317,-0.5880637435237922,-0.38339920751203577,-0.4578004382249236,-0.2919067610796307,-0.6575569241387156,-0.4044072041528018,-0.998792735925379,0.36698765849331394
,0.7266603827559621,-15.200046047435276,-0.4320019531516882,0.44935961812976505,0.25791663648284724,0.5749344467525549,-0.16761856723476148,0.27148974755334454,0.15499548244488304,-0.7403853242852438,-0.1394698287061681,-0.1346876560723858,2.2766755346547947,0.5667654342910365
,1.4648224299377757,-7.06532877317114,-0.6577744792825108,0.034315381394148387,-0.105262791327817,1.5784588270462445,-0.35305232278121274,0.1048425887630257,0.30516345779276477,-1.2225919204356037,-0.03842703872824475,-0.19205222125152518,3.1250948433674854,0.3055803231978276
,2.93705389662244,4.201173428155932,-1.147994544360409,-0.08601192778966965,-0.024855134143385898,1.727057430015954,0.3204225672485732,-0.13918959741511636,-0.3554131939901782,-1.741606593176786,-1.1604342629978566,-0.5244540309938607,-1.9322852646545983,0.27945074713933116
,-2.3352059176711775,8.87069548707068,-0.6230701713773314,-0.9521133734776274,0.6862876103192248,0.3776145234854781,0.11188770134247593,0.30401396733044844,-0.5885866873580103,-1.2048205088612878,-0.3313383325996778,-0.03794125865232883,-2.533228022373249,0.6219297340474536
,1.7412361773509109,-3.101049591935022,-0.028959664640083965,-0.5499207659517973,0.3283529529100114,0.2907545257092125,-0.43099056135252606,-0.1531720187297154,-1.3618865463707803,0.17480065181204735,1.2643840838947393,-0.02256898597562213,0.14605011043804436,0.4146480693671058
,3.1926071293381058,-5.168723525516638,-0.5833310794556468,0.2860275861995055,-0.5511553630280628,-0.32913941497441734,-0.33727337946943353,-0.656866786212777,-1.0034917018310208,1.9886231518721813,0.3294705822491659,0.6386881333826065,0.5333138490371588,0.0441161485638727
,-0.18608740563221615,8.695406683678511,-0.3028172529282298,0.2990433902167708,-1.0114595647557203,0.6756310437398545,0.39851676625073545,-0.09084639472345707,0.2564677562971956,-1.0702035591761783,-0.8528173671535925,0.5885271776873086,-1.1512669438836802,0.4958139902701447
,4.233111675184295,7.684130276983353,0.5279743894634442,0.12630202237991087,-0.6175614594403996,1.790135112114007,0.518899563700861,-0.2068757789892677,1.0198510317552287,-0.8666918833595414,0.2341047231793352,0.30986845224973086,-1.9044459597542127,-0.07904974258148033
,1.7370414061879733,0.27736088183741436,0.190676829072873,0.6010956070969159,0.9799786187781392,-0.22799986869324987,-0.2608574330228911,0.32815322856922635,0.2287667865178648,-0.2278981347354496,0.038871405476951115,0.8811490461169782,0.053573058828909316,-0.7395586341085644
,0.2916352409111241,5.423325486660608,0.10866758799434043,0.01334198475299669,1.6964429703347848,-0.6052614873699558,-0.7729678891855718,0.5498157211772863,0.31660138252203857,0.22430077978993893,0.6860154093185761,0.9538178485674847,-1.5386254229897933,-0.2293109616441484
,5.5815502826332715,4.104387465682483,0.01278676738145874,-0.15791938776551812,0.44800601119255334,-0.6546442158987286,-0.4239998132580887,0.5629772359561079,1.4809277949811206,0.715573653734594,1.0309860314704442,0.8374781204992396,-0.6050535254341854,-0.3145318267133302
,10.79661953004569,0.50931324911955,-0.3695473538050456,-0.2581850770360544,-0.5910077892706918,0.15713665045882858,-0.3919688913421609,0.2532916343940447,2.523619128727392,0.8422545325278505,0.11806242586749205,1.1610890192191927,-2.339754808097546,-1.2953041371790104
,7.881825711930741,1.5998396721082304,-1.2561705104967638,0.12310246527709694,-0.39274911800170575,0.6693106552434642,-0.3073500890664347,0.2427845269101761,0.7982138494590263,0.6110414120523325,-1.14605203948456,0.23571898600106192,0.36140578539158885,-1.3743353184278735
,3.1547076465688675,-1.9786294276931802,-0.9458851880129326,-0.027015533511572057,-1.4333151655778211,0.5620739124544434,-0.24326346695664722,-0.5157029170787437,-0.9803467345465937,0.018804175205134548,-1.5320642485728504,0.5522040421690328,1.3911592214929207,-1.1437332300231253
,0.9100025457582959,11.259498340490815,0.1552057086604109,-0.2930336233002478,-1.7522277442721013,0.4268665011310245,-0.3211126619865608,-0.5168746352649091,-1.0699825116989248,-0.8831736095190141,-0.030652183969654415,0.33781406102307443,-1.7012083251594181,-0.48411737691289375
,4.733503908984705,8.572013755572556,-0.04963051644188256,-0.15081807358493177,0.5077545876760626,1.1480017978123447,0.04618927038529231,0.565642836339143,0.4418195043641106,-1.579658028640125,0.37798881942456203,0.21526287910032582,-0.04727618660380546,-0.12809713559124564
,7.210424813922462,2.3274230615081843,-0.09524301971056902,0.12397851246433578,0.7054914628576419,0.7744945636954155,0.5911625798697623,0.24973610907429306,0.05926074938616684,-0.5277349721348803,-0.5859505613912571,0.37997136684184213,2.877019692015297,-0.046755561923399504
,5.436619482827563,0.7736168005705385,0.6284249865882134,-0.243166178641315,0.809019116541725,0.33504491308755285,0.601009319355816,0.051101707193712084,-0.813116906202245,2.2872568306304366,-0.5319552886241112,0.9317274670131277,2.9458260440766564,0.40614313539347774
,0.2818115265073549,-7.2826405007379265,0.25281003471369984,-0.5953200054317686,0.4314913200431972,0.17630557780218678,0.3613764261316779,0.06975096630173648,0.4019789176430465,1.2100935493326113,-0.8503751600803244,1.4910695809373369,0.3755331514015666,0.05189892802141184
,2.17333673138428,-2.0011451869134973,-0.609767076798871,0.03416947031368535,0.2477393634722914,0.14932954352960645,0.5729647342984671,0.9855096930403154,0.6614558819107733,1.6644060258296665,0.9930502330275929,1.350091314763761,2.3560666058163138,0.4409838073077908
,2.0846538732731124,7.1489655104848575,-0.8566123427493659,-0.4069492631260302,1.1623857170540752,0.056071496503016176,0.2311239405381406,1.1689236063350732,0.5899100454585898,0.5396913226931843,0.6059703218695061,0.8070524945887299,3.663362047404141,0.41662698441953927
,1.5878923679415755,13.006544170980883,-0.6564827870615229,-0.19772203248152956,0.9335739638381025,0.8174213240298002,0.08197558940143582,0.39794830043254975,1.0019236888583605,-0.5614309702346068,-1.9337640050018043,0.05764540367825862,-0.06560716795926423,0.7019445986366084
,3.8837040726277485,1.7520019164377063,-0.28673920031038547,-0.08217704914109454,0.5420676459620255,-0.2202678102246535,-0.13420009413370723,-0.08623124644070408,-0.7294510580488169,-2.302541535638451,-0.41321792319786793,0.6358500657814772,-0.9698376977082617,0.7079054958498331
,-2.6918497816241325,-7.017742075184512,-0.09121184067156476,-0.22560736057159037,0.3069425119640725,-1.1724414112178418,-0.11655150072623628,-0.15483836139138168,0.4036661997149608,-2.842793811898733,0.9806660536580274,1.1711858232561703,-0.9025293319925988,-0.38868053783723866
,-4.1332272963982986,5.7465583748369955,0.3769105134023259,-0.13672903180110035,0.9549573286451399,-0.9003709448135818,0.5920675420595604,-0.01714660302309922,1.0762601669912784,-1.8483391377342318,0.26870624833622514,1.0320311828981286,-3.1368703475854685,0.03684060922722054
,-2.0151951620975477,7.629386433812691,0.4076999166322046,0.16587557211595602,1.2084784651104925,-0.3374973512929555,0.5842536064902343,0.5009148345828341,0.11974325542198389,-1.1223982502977634,0.2915466134797141,0.8238099143564173,-5.408485743267965,0.32035969531275854
,-0.3696409830969163,0.9804436391596976,-0.10407211376447853,-0.3721346875439077,1.253129341032294,-0.4102027493041774,-0.16202419254351155,0.5615585964637483,0.31534712185372793,-0.7715015210465882,0.8189185402983091,0.4333536715078798,-1.395212737338316,-1.4434903939360195
,-1.0836371160044613,10.067131678240136,0.17013888887676465,0.1113480683514756,1.653970970906701,1.1496325741372735,0.2925885434621994,-0.380429740665829,-2.337736287745474,-1.3104251829681268,0.40958678594366316,0.8081606431435117,0.7493036917427233,-1.0845498675160947
,-2.16227669685097,16.621877515472125,1.0959515446426642,0.3928352000035581,0.43535170113166965,0.7423135677181144,0.023993145876878792,-0.3345213245404108,-2.1241064061790356,-2.552124738089286,0.8579966738579066,1.6910237035276512,-1.3699209400345784,-0.840615700526651
,3.2276117962308444,15.078322067233424,0.9550101590760997,-0.2861703068967814,0.33814779734920924,-0.24756169793012836,-0.2826715937026148,0.2870404381248115,-0.27692859666420533,-1.5143857807204002,0.3989068942204643,0.6617958701985832,-2.2948736125719758,-1.2828723174011214
,1.0788729691430972,14.126546833064614,0.7646448411749521,-0.5722532366161485,-1.1139102414531352,-0.15250315673972464,-0.011390499441034834,-0.3027068074277005,0.18103300785804996,-2.5454150436567033,-0.880029394677313,0.6965631829644932,0.05414452107088441,-0.5784393716066718
,-1.0563655513546157,14.671290298241535,0.6903434131149007,0.14719327917037486,-1.6367081523674398,1.2473722609560818,0.20646507335003134,-0.2763267476343704,0.19818301743064892,-3.8847622137076656,-0.703656805132251,0.36797068719719317,-0.7050824245557483,-0.2517218094293472
,-1.6000005247527096,0.8774572097931761,0.6113988891083588,-0.1160134849487086,-0.2844650222613717,0.6275528670674614,0.3022958971987142,0.85789314686988,-0.19816424799353372,-0.8352041587562924,0.03271353645439072,0.05420906632038998,-1.287944249768806,-1.2569476064057037
,0.7940130044917921,12.298332055303248,0.7202553888287694,-0.7159703911165917,-0.06197710677939159,-0.40623119500201205,-1.2353533547702356,0.41937345163449136,0.691680136631594,-0.4607985506991844,0.1844286708690982,0.35388337029950334,-3.528852879821844,-1.3270942216402501
,-2.2959030188098404,8.439142682072417,-0.4372223594129494,0.1089563882391644,-0.6045502376501712,-0.3774785523137768,-1.6638331464454055,0.4595230909727152,0.9491281369301354,-0.3348801343037899,0.04043587850240428,0.7815288661765286,-3.288855575024405,-0.32098279620773823
,-5.005890959167847,-4.387942539066621,-0.5219552089893179,0.04726476457990397,-0.5766508218360844,-0.2694276186380055,-1.971740816400511,0.640417411380884,0.40085719783271445,-0.04850887188350284,-0.26757698064962976,-0.03967816232692835,-1.4578365808898865,0.024876318281128906
,0.15988125996455088,-3.9077500205393454,-0.4795762965073498,-0.16429920077583687,-0.6833861195392069,-0.7060505428645673,-1.0027629367218995,-0.36597277801429473,-0.7043497397767301,-1.5102342751924513,0.45809870524217244,-0.7823527366689443,-2.753640039741712,0.41068506922346987
,3.64999769181881,-2.7851312037678637,-0.5625679800440732,-0.016077193598547958,-1.244797778910597,0.27083411101841176,-0.227640025774376,-0.1679709852144252,-0.3047803341055315,-1.2007836788330084,0.3076905995367572,-0.8654136173228846,-1.0160184276589275,0.314076170595941
,3.5740612324524763,4.53039581857695,0.21610298712805226,0.7943112016811167,-0.5593095871549247,1.0600221983708336,0.20005474414304253,0.38018326404980246,0.7844133902718481,0.8581550427844132,0.6520954188104484,-0.21312218571001096,-1.37818024453897,-0.09666426526550681
,10.007218211653795,4.047582063247291,-0.06486983574951505,0.15735347713983985,-0.7567877521954933,0.940969102383219,0.25943644810736877,0.44825097791996493,0.026514492737827706,-0.22203147814729302,0.5800628291973575,-0.1544652912116167,-2.7047906057094346,-0.7356952671436905
,7.275023993988774,5.140558418493781,-0.6683961607549096,-0.8907033891093887,-1.31605751229362,0.001863844331398223,-0.14747702818686345,0.1140280061405008,-0.19872500661133372,-1.0851141824562507,-0.7910456857631172,-0.12316637948711139,-1.1998761702789948,-0.6228702078349124
,3.2208590433659072,5.016193422455125,-0.6207171709837769,-0.1981968075101598,-0.6859457189598686,-0.17278750635133996,0.36230792528237254,0.5209097155022067,-0.4474031564323475,-1.7271572004003946,-0.43150113663196366,0.36408291298829837,0.3046101242852286,-1.1460248290990702
,3.5166570658067435,-0.5014080286961647,-0.4029562780311025,0.1934309599946868,0.3007423656654202,-0.8406717597205127,0.2824088592134397,0.6598066645859834,-0.8029040239672636,-0.8632125634235253,-0.4454640536167811,1.5139778094931176,0.396304189806812,-1.839826185976973
,1.5450145628391685,3.0922054221119475,0.07002249459749879,-0.1231608772580386,0.2209260928163118,-1.1054100254071328,-0.45592756006214025,0.7588015706439253,0.44679470399008875,0.911639659178695,0.3413353132322394,0.47717423577466467,-4.755336326620399,-0.9720756389467226
,-1.4071705616330334,5.498917292519987,0.5097002604204993,0.1286155930514029,1.4029119045924043,-0.8217620429691811,-0.8546361151917097,0.42518314195866536,0.9339264494223837,-0.07989774791243905,0.5410045576815954,-0.49418388834597354,-6.818082595147272,0.1063727348244543
,1.0937108238071762,5.292879211956736,1.0810254113965296,0.5421208045661539,0.37898104210055333,0.5177286684263447,-0.24219331330198998,0.9607838370603051,0.4887339080259718,0.12204025414380536,-0.01992013027430018,0.32891500256318024,-4.414801427369171,-0.03772439665173648
,2.2984626867706655,7.508138539287465,0.04293047065883644,0.7864528080753347,-0.09795675958297476,0.26294831803319063,-0.524261630725243,0.8785531723071742,-0.20738400268877272,-0.41700387450623716,-0.5878797293735466,0.9850430001267931,-2.842094672855248,-0.5368055816030821
,0.7962218507306669,0.46646950020527506,0.09001560648690927,0.6876303637843058,0.3340482807968663,0.691829106965312,-0.3074290465270881,0.026795689253808434,-0.49714130597298134,-0.30124308936634514,-0.37844332324587066,-0.2529359318460215,-1.3558015889889174,-0.10269528935219539
,0.23469796870038503,-2.0584929820682767,-0.030394792656018833,0.010436344337066781,0.6599252585861787,0.33465296508641185,-0.7810036353739028,0.23242241594771423,0.3789609829708919,0.9453648295565369,-0.2109008879184128,-0.14219305089012824,-2.2400575135510574,-0.10684091973342766
,-1.3943082186475644,0.8983820114127204,-0.270437842144842,-0.2292301473738857,2.051621506597026,-0.13731557464010563,-0.758533147101094,0.09534365288627861,-0.42021660002233224,3.426306714217774,0.3846453116702327,0.3477844974517489,-1.0709528457771655,0.18095316254255114
,-5.297372640339946,3.570096201563943,-0.49118938503276,0.5047480000153765,1.4831060088697063,-1.0904605632929414,-0.24595669418467167,-0.06759124878671796,-0.2039287115618957,4.77108653930959,0.7916337079931436,-0.5750782771787232,-3.673226035035152,0.22221060003235227
,-3.0281822357701245,3.5636143330843417,-0.29187541462724964,1.1117207699714067,1.3464467821847619,-0.3247301211171773,-0.27440165347135625,-0.16169819812204975,-0.5211747293749684,0.7091569880935072,1.2185981548584386,-0.21517849775306677,-2.7885944211315237,-0.4515411497579253
,4.383906581661685,-5.024925021046462,0.7937639827903886,0.820258643198788,1.1009864384957453,1.1038702100790247,0.5175833945982315,0.09443827266820239,0.37681750529303204,1.1630418921168642,1.1133205057523061,0.7020828303378255,0.39666591240448057,-1.7182993324279274
,0.2580249315635277,4.306969995779801,1.0581502535287806,0.6877127731359427,0.8051146194077612,0.18580103182481097,-1.0027821483972157,0.1500022471762671,-0.3506832415938553,0.3498006948717815,0.8071888110685963,0.738755054423474,2.5539994914317212,-0.7847565632928953
,-3.551410653734698,3.9123848942293153,0.16223777528306801,0.059287622903422356,0.5169259376806588,-0.5618133922138291,-1.7860486484159603,0.32429594842511306,-0.2561215703379935,0.16596188354763255,-0.3761854573316181,0.059884288574711834,-1.4382821656874207,-1.3639532463818977
,-2.3582303968943608,-1.6382298239935371,-0.7452430635854459,-0.8281245411341678,-0.32577538759942337,-0.33982737530049467,-1.0725589652057113,0.3637252680868217,0.9480600168095046,0.28952566870526847,-0.7967915259152794,0.41046072515700677,-0.3283020877780515,-1.673628819662083
,1.5404577032547109,-14.331057472437312,-0.6486493990699707,-0.5206987212440436,-0.09559603139121733,-0.3056587215551303,-0.2836762675472674,-0.22931789973292196,0.17713064369938952,-0.9018299027449497,-0.2787773378827548,0.026564240962672587,-1.1790566873079364,-0.23393658662431158
,8.88170898904178,2.4225157398629262,-0.6252669062311794,-0.13642675502930723,0.5351140331657427,-0.46867135251587916,-0.5278472789333416,-0.4741196392633637,-0.6612359427901616,-0.40414496126950505,0.7432214619924407,0.08361261701145399,0.563751853696469,1.142582069762067
,5.331224032359613,4.022434620035019,-0.4548377984515844,0.523297821956337,-0.5009084736903672,-0.06273611708364804,-0.25139997349156823,-0.22655346037832774,-0.39340717232969497,-0.5823592605995194,-0.8833170395190577,0.10377438690099774,3.923952051224009,0.7105766209228982
,-0.8416206793906386,2.4958178083046954,-0.4785969559307183,0.7953161286533601,-1.0865920453134195,0.23639496872546653,-0.6140689466809974,-0.08291996128615124,-0.7290427816793548,0.4020582023771522,-1.2769193575646642,-0.8366282338510628,4.524900094059963,0.22032007458858432
,-1.7395839170180194,2.57459728127991,-0.3602908448136077,-0.41253905966844523,0.933105450026694,0.45828971996534534,-0.7035346699868167,0.06924644685999352,-0.6040768979000278,-0.1554378427394874,-0.15287246613750813,-1.0501506625585635,-0.05471733843528504,0.48595060195541123
,5.271332389414899,5.737868615699753,0.07927702221653792,-0.4500981977741285,1.5920487703022799,-0.05459952773519242,-0.3855624850574125,1.387682467891007,0.5475873975807878,-1.6455326263049352,-0.8145771479321315,-0.13324573112670018,1.8428997864289358,0.3538756648260937
,0.3812905738299347,2.304130255624142,0.05079697170334381,-0.1261648641725686,0.3112015948002893,1.2900326085914429,-0.21912972408163636,0.6777274358314386,0.27924389681121486,-1.2055068485542615,-1.3283376975189949,0.5757815644837871,2.489792187915069,0.35497358411450325
,-4.640664725127211,-4.781061317046673,-0.33783923997461324,-0.28107825204783216,-1.1249264760722935,0.8922239879079598,0.3430168639309116,-0.44086737757202565,-0.11070609545289066,-1.1170647942504939,-0.6580361538801033,-0.13078951670824593,1.6718489623456159,0.21103340328433454
,-1.58959477555443,-4.1087072736415875,0.02597081805342151,-0.1196431570254822,-0.22230505590153213,-0.852549031398792,-0.35723783003176596,-0.6220989899091508,-0.9778065640569487,-0.21388606472275748,0.5135123452470509,-0.4016107128333207,-1.7071128377462947,-0.09810631759919516
,-1.3035154167515048,-6.170402600558241,0.035343275250357166,-0.6561161292998614,-1.6827441339868703,-1.2634966417100737,-1.0616016055313895,0.0922318952945383,0.24707674559731713,1.6782778227638269,1.391963269677656,-0.30970399695288725,-4.2863567402887055,-0.5168313881687102
,1.491896659791416,-6.875928693691664,-0.07303826449322887,-0.2361985090700431,-1.2654405753826892,-0.3623092266258605,-0.7306967181086719,-0.2507774257511993,-0.9687892901837561,0.22440503838443282,2.0033185678743646,-0.2320121686728664,-0.5967522554434366,0.3461576697377132
,5.009888748327664,-7.445268860086627,-0.15421481669916887,0.49193776471585754,-0.58845342535571,-0.19014490049020438,-0.21548506066918735,-0.22898795266274427,-0.9089692023068308,1.1617857801366058,0.9973512314996279,-0.006543157518576153,0.03207044513540699,0.3338860083289548
,6.905539480400862,2.154526440142949,-0.4263509466622601,-0.1223393020027376,-2.5321421712662135,1.1573175099204849,-0.09114572650051021,-0.038409733277814426,0.7284893306254067,1.2962509879693314,-0.3403132945582019,0.1364765640091381,-2.446359089935624,-0.07891230328249503
,3.658578831946379,4.063600933339035,-0.4477033266149294,0.12406826948299997,-1.3523182257967612,0.7714608938133457,0.00855735428190298,-0.4688824657696435,1.1291791686862456,2.4070513425832254,-0.5898574333541868,0.6968100241208496,-2.9003693218053486,0.8607033911441073
,-1.1626996265635359,-6.426014658292633,-0.6320399408839888,0.5087564226254501,0.949319429387578,0.2755236952275608,-0.5076116206041555,-0.2594973636157954,1.612166141427281,-1.6147461681766337,0.5230116274699415,1.6212967737886967,-3.5114916057241787,0.4974536177410808
,-1.367804117405137,-3.0311013530772897,0.18071578169365887,0.281057055864508,2.1331764047707495,-0.6763345974231236,-0.44528459502739587,-0.832860372446393,-0.44819738097514805,-1.9177424170554234,0.7982102048348786,-0.019138022773534026,-3.4491829360489397,0.6023327802466648
,-1.2503160685244712,5.133289769099897,0.02874468279110929,0.3740758781623047,1.8426840167826526,-0.6780955002152352,-0.9660309892097011,-0.7763528523714731,-1.4713207380569777,-1.7011759459476121,0.006286254463483677,-0.6004552660230663,-2.435397023123963,0.8533435856723859
,-3.991903415028666,11.45377799366321,-0.08986322053425146,0.14288214562305737,0.8220477481743892,-0.971653269069011,-1.8889523960235852,-0.1880481559576347,-0.3558519821629788,-1.130200263881499,0.04239014442941748,0.3031972923272292,-3.7206793219720047,0.4213953135423476
,-6.126960032253622,6.812352350728264,-0.28405288068411694,0.029789905659186516,0.8874887992336898,-1.1481319309624236,-1.5629299622844504,-0.6854492966052436,-1.1375620234782182,0.8067263017555737,1.00324629212492,0.5613240480755916,-4.055288513713958,0.5717617531483203
,-1.2627987974174741,-1.5338255438715989,0.17804951598287866,0.13103693045559842,-0.29251827563690297,-0.1805534236300836,-0.33078377787485186,0.06352016598053929,-0.6120255697027723,0.8902408960502407,0.12614598624652576,1.5985984408725458,-1.5753936576286636,0.13295926739002265
,-5.17162661509968,-5.650163639138973,0.37236472093470896,-0.04890862491254889,-1.3621839480675222,0.8586055945639782,-0.1410455814140767,0.36321386596414185,-0.5938537057364937,0.2972956550743271,0.8148335520476937,0.16089615707762647,0.836829380927514,0.455770545288477
,-6.67207920081576,-10.854497563020582,-0.2762405165214837,-0.29784922709873707,-1.059233645857725,-0.1305586689399094,0.18308597515614752,0.16783570399345574,-1.0115623993529377,0.3774792077128164,1.0485646154763097,-0.593955257067707,-0.192308852209071,0.20997368331930874
,-2.131927002860546,-10.63024279446943,-0.6305050619288701,0.15368581964298583,-1.0813106482574744,-1.2837637420640504,-0.4801355609184802,-0.2284489731260927,-0.3347411567430781,0.0893979048411679,-0.5568280482823529,-0.08827253969865431,-0.9928230867597307,0.9531966659275083
,-2.2244315831495327,-5.68296509905837,-0.8666217255077742,0.04403028172224255,-2.544375190089591,-0.8144989661907679,-0.16986178888539813,-0.4971097345563774,-0.44152012916168365,-1.6229258114798273,0.751709386236215,-0.557197858634153,-1.9804889819270852,0.6998143582611821
,-0.5353574996164006,-6.355168075247751,-0.8513958788640996,-0.6028545301454034,-1.1026958451975395,-0.3552391062373284,0.7085529475769846,-0.051653727253248634,-0.5588848054362703,-0.6203268889625181,0.5588251830752936,-0.7250287059356625,0.23331802544338218,0.5697737828955509
,4.174399184275939,-5.151391243774557,0.009907210952898569,-0.46757216659293066,0.25317759693464004,0.11588991862546696,0.08788231473981145,0.6324421562356237,-0.007056616331536327,-0.7769984584084468,-0.04477741243930122,-0.47863308491288786,3.207489555808925,0.1620391028336999
,3.8136023132545827,1.8589669138657545,0.7437134625820563,-1.3119715157193843,-0.5518012322534778,0.30813867971884523,0.1430128105088062,-0.05286803051144459,-0.7560555004977396,-1.5977581193126562,0.20375713822006297,-0.467060769748113,-2.3246707764899486,0.31826710573845296
,6.722908190264807,0.19763312057161464,-0.047229793471176576,-0.9771193769040503,0.7285106495939627,0.5998632160159934,0.46938651771956014,-0.00477379248299044,-1.2973509151692488,0.3041330114453605,1.191906636588163,-0.242325176020531,1.5460636730508635,0.15525424301505564
,4.224614609875441,3.265466630295616,0.29012044340962895,-0.9146496238304764,0.06008945015058863,1.1476491845402845,0.8765085074964196,0.2833709791889801,0.19183745115937167,2.2306020042273884,0.6727358015381475,0.8320923427961249,3.1213836575725447,0.16100353825433913
,1.7184982080472886,4.76846643489781,0.4831454222493525,-0.35742147437378374,-0.4614750452382396,1.7737730039442365,1.2705865197612962,-0.037119542548719284,0.5932793034482285,1.3771782637376757,-0.701829196408999,0.9548721501342832,-3.9696659799916527,-0.5579829192927003
,-0.36200610698276803,5.320645697833516,0.21160926964425816,-0.05498711025031215,-0.4104829258567807,1.4644663729763925,0.23986957386180047,-0.8280095736301517,-1.0636717486377247,0.8147967291915835,0.46001724916864023,0.7453411943351755,-8.425050898202144,-0.5751763622900044
,-2.564837750399639,2.9471384152997344,0.15944079857504592,0.14029006786725906,-0.8010573113512282,0.9977418093192246,0.13094858990666033,-0.8322642406560832,-1.0422454417345155,1.6744789707988974,-0.36060831947202776,0.3102448738426863,-3.209633617307826,-0.3590746799236413
,3.8851384098781896,-7.120124210035594,-0.24436179208774048,0.8149013363632268,-0.029198589476250168,0.20200498065936917,-0.08233685040169281,-0.5580689183036754,0.7929145589599238,0.21745853816640684,0.7504719386256387,0.3835304279274379,-3.8672897866706393,-0.36863784602208827
,11.55145169093093,-21.774997607158973,0.050980293235712355,0.8429727233368904,-0.6749535691356636,1.0931632108484255,-0.5400573355055667,-0.03639971237715844,2.157935316082468,-0.038283511810443135,0.11149437674882567,1.5143864277755987,-5.83683227266722,-0.5826416902946835
,7.0662643580377935,3.7881142973426902,0.1909158101415127,-0.058690786871288037,-0.9116259981224268,0.18746956376946372,-0.3393752668779366,0.6884249502992388,1.752852766654029,1.2367717550656105,-1.2884881514863393,0.8448747582090028,-1.0600656948466174,-0.5674972585140962
,1.4828941450522735,15.447341345827793,-0.37174865505658644,-0.4399597874403122,-0.09937099589608323,-0.5123173356953955,0.37440700060027593,0.41453125636337257,1.5121839652509113,-1.0915310875696236,0.5593125091859708,0.20881763556212649,0.015121979488384844,-0.6794419588667641
,6.787364918865465,6.57618401191472,-0.5084537023390868,-1.042101530986079,-0.7321551511384481,-0.7981865268390946,-0.11096544983399972,0.21150674901550667,0.207558734509845,-1.1194888887169403,0.5010768379792178,0.4455367268008136,0.11086307984214869,-0.905472787869002
,6.081723573039295,-6.688594069417888,-0.04675156115644125,-0.4482870154520277,-0.01676677602128122,0.03931201455073767,-0.25445128260246275,0.04590771523900462,-0.49853177690103245,-2.048287153889814,0.421983663359274,-0.0684570143885346,-0.9640973448074263,0.2828338391088209
,-0.8400719723810381,5.592744610986312,0.3317002173457475,-0.44234751703458436,0.8908715512831245,0.7218699964227412,-0.24038554544932655,-0.49857545091861455,-0.7506823597666117,-1.9108608037608352,0.04935075078223556,-0.0020887590560268315,-2.634691088437699,0.0320545788675404
,-2.931252182647432,15.297964694249996,-0.015965942645952125,0.29505900924893724,0.4135314025420157,0.2545140806865171,0.010177339611840206,-0.9401301805411196,-1.7194055151657484,-2.5147914416278723,0.7698716176261512,0.4355801114008849,-0.6830189894568013,-0.6290303802623255
,2.3931857879335294,4.244657281800524,-0.5569763620846695,0.18800616731252773,-0.27374594922965717,-0.5938833714199402,0.112318112535876,-0.4027594338224642,-0.7291528138147225,-2.0266328292382543,0.3097538426870443,-0.07050485340536915,1.6272410636652284,-0.895445079591341
,4.87943661963641,1.100272718798308,-0.5207787296382598,-0.42492023427314646,-0.41455560876724656,-0.6230339859856816,0.038134173873490114,-0.26443347037865395,0.1091150150423665,-1.2893764067891371,0.34215960352519564,-0.16445356743040254,2.056922494142088,-0.12698268672465804
,4.579639565923136,-10.717998466262198,-0.20706860903531363,-0.33952797200659335,-1.0643658625567685,-0.4432603319082873,0.8183884905362951,-0.22207078929062649,0.7354131800955239,-0.6539119970445686,0.1529611936786419,0.3646812624452598,0.7995873819388662,-0.4705148582345315
,4.119326571200496,-6.199802689166499,-0.7431948296153247,-0.02326636422471739,-2.0360352023025623,0.23777544942644166,0.4842402554253142,-0.16060651227989658,0.011265260506181329,0.6833668757803311,-0.7031493144931861,0.6593875467769347,-5.346941868147265,-0.983207192472619
,0.6002845365487679,1.0397053943063441,-0.5941326911013434,-0.06444888270258775,-0.5199551138178756,-0.03654437050498392,-0.015159792981285104,0.4807403945929821,-0.2667853037889847,0.7633102480630543,-0.4348146396278963,0.31312328425428343,-7.143217211610079,-0.6876865371120864
,-2.3429262139469795,-2.7170042362068174,0.09051432274595418,-0.6637435547538983,0.45882263595762507,-0.4295541467123623,-0.33927382216160523,0.528949062837303,-0.32147092884969636,-1.1668013200545535,0.39382379137198187,0.48046644271127864,-5.942200156951158,-0.4231333888440845
,-1.013989704990305,7.684459725798015,0.9208250329954899,-0.14457374863072542,0.003358186519063281,-0.8090363488278446,-0.31477347304784303,-0.75442786837692,-0.06711999053729797,-0.7605030723790245,0.6844447151017444,-0.3593044618278077,-2.549791564739923,0.4162431700669134
,0.3921432036977316,-0.03485121643903484,0.2983667780982359,-0.653565313319559,0.5224230935573685,-0.45786025630782023,-0.3446994034595676,-0.9312722430965967,-0.5803934821671857,-0.9954873066438427,1.3426884231028595,-0.34360658872761335,-0.5240962182543973,0.6866292009157565
,-0.2781269433611843,-7.425131605118423,0.410727045751532,-0.21254471331106123,0.7773067351256807,0.8119233330048725,-0.046873660713893976,-0.19301567592162017,0.1840692464487857,-2.0839375181573803,0.6807909156652279,-0.5134521237384005,-0.48272636438153577,-0.0038649645280839943
,-3.348560880992157,0.9193420132989154,0.15053359388443813,-0.17801472933245346,1.0332440756280195,0.9410909289610746,-0.17475550023930228,-0.3587344521116812,1.8291060497020473,0.14480044761281594,0.2012783651091964,-0.7885115743922997,-0.7893408635874531,0.4490151105528519
,-5.016780558512097,-0.5852179331312496,-0.4570129151701406,-1.0984533652043478,1.325765249599734,0.55873849909019,-1.5679434632640699,-0.7283817175305664,0.25765110112331063,-1.1561542021780618,-0.11775547115612563,-0.11718137956800459,-3.5575621384525626,0.6777976669212007
,2.0633494381452433,0.695893694567399,-0.5852524697829415,-1.1298453234805232,1.4595636589546475,0.2930850187309097,-1.4523670146356908,-0.4790126380477951,-0.6073437515370033,-1.2187393306856305,0.04179762360550977,-0.26543797510719663,-4.392986445156642,0.7506648794422833
,5.052612409334546,-8.250476476747846,-1.0065508813523993,0.42742534311943475,0.17268953170758886,-0.6241512549879169,-0.9420905427789185,-0.6454519039584197,-1.6071311601386153,-1.0827018333085643,-1.6412928023204079,-0.9022143511274672,-4.812391793840398,0.7278600060298653
,-0.5484617928571033,-7.765985116409596,-0.49747225109082227,0.08794794574616042,0.32588846168636076,-1.1455350823688613,-1.1821422372536663,-0.7249587933485403,-1.620503541561934,-1.507628285521469,0.8546309322806535,-0.9653319107223874,-2.3348194750675813,1.0057837937723757
,-3.365353675856721,1.2627407309554823,0.07394884183389784,0.5562763845574433,0.4109253650561946,-0.15498603496493424,-0.2011459242779676,-0.3225917076839571,-0.8822938113018282,-0.643397921453614,1.3764086190926184,-0.1026840035771779,-1.6061598975203801,0.6990465027763645
,-0.6563304875869675,0.7191240743191797,0.31183378766346054,0.33058217825663333,-0.17304216512441642,-0.29634317628712703,0.07677765281370857,-0.343490846358878,-0.938309307718042,-1.0620952465758202,0.8177009245518093,0.012985615629498883,2.632657662454747,0.574878883080091
,6.716446492319546,9.275153644018653,-0.11235356832857168,0.0723449783681815,0.6816103245657092,-0.5366417955455953,-0.16042831763302914,-0.21176124252568893,-0.656051329318995,-0.8780595825457166,0.6616573417168783,-0.40654710677427774,3.347925108818917,0.2013732790018774
,4.523150299267912,11.935618637030705,0.10670216564401565,0.34018521477644326,-0.1177858361277752,-0.18780972756885747,0.25952509590650075,-0.3557285597138659,-0.3107504008721029,-0.16874469718629503,-1.4428223579391948,0.38472413628861113,1.7120162981850138,0.11492716009044611
,3.1250441218887115,4.646637581743964,-0.27861227370366465,-0.03840906424024127,-0.09598274073428509,0.630788318499153,0.15328342653665053,-0.6256643005606837,-0.5931885147242294,0.5989913875888258,0.016647581995199428,0.6517050652318559,0.46605187560715033,0.8079198160113418
,4.069493200020636,6.52668673396644,-0.4026660231433184,-0.6062749169530255,-0.20148963674568945,0.5183577889153437,0.008863788391100564,-0.09260481012962554,-0.34320639382185913,-0.651959337074524,0.5177897960259558,0.06988972679761893,0.48478479417037335,0.22342558654013117
,4.448914924147129,-3.941593871347794,0.09936934022286055,-1.2079758701822345,-0.2055471299777126,2.3726473088436806,-0.11015273969185717,0.45844218493799294,0.5653562705699897,-0.43107304601280694,0.7976171621781769,0.8500290040799723,-3.1881525785478537,-1.125752779372247
,3.7169042996730686,-0.05300208345125116,-0.17358800653878215,-1.3789400226987756,-0.5500243476260381,2.376277672280764,0.26156893288362626,0.15927289797401922,0.9273909958226564,-1.2491658838970643,-0.10721829479236594,1.4592543903582287,-1.4239615919014879,-1.48246388723041
,2.009057746562335,10.56098455314054,0.04065609163241304,-0.03697692344301928,-1.0553923640973855,0.5105491348070312,-0.32469867417957454,0.6594806169619474,0.8427276628451116,1.0475806561220367,-0.42600815105313544,1.7972662644764201,-0.9023963461046518,-1.1870320562123455
,-3.4125682967004956,5.230858609786754,-0.005331505667177239,0.7522459536743891,-1.522585896881545,-0.04889993811860976,-0.6715607571618165,0.3423147110821852,1.329902260749444,0.7003465728784541,0.24927191139002883,1.578524751653762,-5.979815991996764,-1.0577432554616324
,-4.974432789516493,0.2249307270812329,-0.060322218747157846,1.19859710081106,-2.039512042320253,-0.033191487145118576,-0.5650459054761791,-0.0064305620930006566,0.7303385808124243,-1.7239795900640649,-0.06517122783247299,1.1754488280740312,-4.342661989766244,-0.9321176897935494
,-0.9283879957131095,-0.8198699892246296,-0.07590087841062798,1.2351496039026155,-1.1383697176944678,0.9169306383405387,-0.25979641901071937,0.56645245428355,0.9378869158072571,-1.1546225506560595,1.016370612476832,0.31070802957091936,-1.001354387568066,0.35362511725874496
,2.935430138811942,0.22200585589840663,0.05885490624072716,-0.16814923548620514,-0.18037899909848565,0.0016562873245952996,-0.01205002738681523,0.11777842522906568,-0.8449735735982618,-1.2010151600487677,0.7447864994468221,-0.6963505222368483,1.321191149667949,0.4269540660261347
,0.8711793893469609,4.389643947811726,0.31790338756104913,0.13887576327483453,0.6315454604624117,-0.409304248196993,-0.8373786219339715,-0.5226350189019147,-1.8416988679162076,-0.6343765533018401,0.3795475598007863,-0.14892986773548553,2.8886270695183556,-0.5677620766094641
,-4.573509207102115,8.334497705378137,-0.3406411394577993,-0.2157048684688228,1.7429090136785386,-0.013836179232035575,-0.9550640124159032,0.13006239254231797,0.012646278190815239,-0.4149136095622542,-0.5446987876022815,0.2105433418820346,-0.2652667298228431,-1.1192747423118046
,-2.433023130777899,8.647458237075053,-0.585131692881944,0.17076953330240602,0.8636112340830613,-1.2296996072481743,-0.7638051853663191,0.11279724649995328,-0.8454663541563878,-0.9397754381685263,-1.280086570367374,0.19229614404507242,-0.9458025271078349,-0.6544681473796788
,0.8227938243924938,-5.020642511266265,-0.6394360611642665,0.3053685196607844,-0.6051723107597256,-1.2433042879554783,-0.8400695982064088,-0.49815045932545976,-1.0095709902969574,-1.4644277238666055,0.21284817783456544,-0.49247808742803817,-2.447331139824948,0.30807563390466947
,1.6399359199344803,-12.013373704419973,-0.6338709470297775,0.03899413718124122,-0.9155231590572451,-0.8545465707259066,-0.05455811932116734,-0.25268117146487595,-0.35295220341594774,0.792118597413884,-0.04047833374312672,-0.06090151637384673,0.27914403023928186,0.23681526997757715
,-0.6024573243954805,-2.3920279068619674,-0.8339177653602937,-0.08941531703300303,-0.734082182274955,-0.27685518105667795,0.10714600195169788,0.08656692190618558,-0.22846307240966926,2.544600013006279,0.14950622654671297,-0.40760262795557733,0.6469340505682574,-0.17421019402294155
,-4.077693653253049,2.2920903042448013,-0.3495222272739807,0.1955397927771898,-0.015086672231803315,-1.1008764743598902,-0.5614506480725082,0.3371377855280765,-0.1187976585420402,1.7451906470738099,1.1890996424594726,0.10454607660479708,-3.7837761181797536,0.3419913273140428
,-2.5143455778755124,6.654870902368339,-0.33097720616515086,-0.09894398348462476,-0.753540134500546,-0.9824492649544433,-0.12558370595894,0.868861393686176,0.7708487081199299,2.127802383092298,1.5955998636724864,-0.14791814736774458,-8.328010742147583,0.2709276775801264
,2.7730245391757355,-1.442581516758119,0.22502189000601722,-0.22951843569955788,-0.8529215362747262,0.05112007952174542,0.7565048685898069,0.5748433055369639,-0.0881129713736599,0.4804397497879267,0.13039245686328885,-0.01775572884566547,0.4393005570194387,0.31287684995202414
,0.5192596241240053,-6.352382258805778,0.15660782500661133,-0.6711165638786942,-0.6395444201006018,-0.5023490867787369,-0.006709274061933634,0.22734705929631444,-0.7536148896282386,-1.641309533952816,-0.5142317713819701,0.48484350788761993,2.3795633443941426,0.27623789818399946
,0.61741326826375,-2.7466927363948184,-0.08605990606327567,-1.3642110189256904,1.0760257749253799,-0.14383854369740132,-0.5241932500644992,0.49849118412698745,0.3469820400497763,-1.3460341272083824,-0.0597623925220708,1.2753866667370053,1.8479823431804725,0.3634089182296042
,-5.8807871555197595,-1.0417045366097037,0.6104031605966693,-0.11567568619063615,0.7027977424836789,-0.09594057258559424,-0.7641848783060605,-0.2799377149818555,0.3382555514688206,-0.09118296989338424,0.6487077189789261,1.0014143721654454,1.6727597599544828,0.48157385683714243
,-4.256634836193807,-3.8193363363517823,0.591483254800318,-0.018976211010038914,0.4930420761563082,-0.46172806067945005,-1.22850807305436,-0.6343280919074039,-0.4301994308186308,1.8833904036596347,0.5460915380963525,-0.054152380450342076,-0.13768390756740875,0.49693689236196964
,-1.8733370017240967,7.6340351565764095,0.709367606041826,0.039645959086974825,-0.15270797239176723,-0.33913448979727656,-0.8552118090587137,-0.5647921880702551,-1.1864505541180097,0.9254138835396971,0.3775810081221789,-0.4105851857017672,-2.82030250411765,0.4725843234324215
,0.19840448086408544,12.92847922094394,0.847709862597052,-0.46052389510509995,-0.9350153189726517,0.45825656771887585,-0.2543735889108858,-0.5630336275224433,-0.6209133976536239,-1.9174329331721542,0.17059542005539446,-0.2252129398997035,-5.345984678881454,0.12362116029704953
,2.5998643625665347,-0.1415712225495875,0.6777386880661281,-0.0733789220947109,-0.12272020221121295,1.331625495340261,-0.7885430054893768,-0.2657071773570972,0.4743554107833098,-0.4285615876833706,0.6393370304333523,-0.06211574875626434,-0.36591236959883616,0.3126640062173076
,2.4449065157691336,0.2945575984124914,-0.09654449560460798,0.25229112576811624,-1.1213349003496482,0.5284884215638938,-1.1285994067130267,-0.8029401592771253,-0.4511612726817419,1.107472920443559,-0.5367228672261712,-0.5605347702538619,0.25178244824700746,0.005335338695123018
,1.3392039499658264,5.055971135893483,-0.4451076596002526,0.2639585795534321,-1.0637108097933528,-1.09022587179461,-0.23710919013881845,-0.24159946437669078,0.47012096979739565,-1.7984884124598939,-0.4158118061842472,-0.175631023981651,-2.0881985883479435,-0.7677420079721293
,4.8353674963684234,5.417334216525477,0.11243265658748614,0.6691401548301736,-0.15696838301450405,-0.5420195513718638,0.2165407179916862,0.47880059255154794,1.3756484965761713,-2.743338898237435,-0.046366482274275735,0.12523318700278496,0.33326138970231106,-0.38484255219720465
,2.91599687602037,14.728851626001786,-0.39802132389929007,0.05343363359983464,-0.07378098775844927,1.162569855031469,-1.0041527617767545,-0.02073976264592044,1.0092003471579005,-0.8183089111922663,-1.066150858829323,-0.359310555622477,-0.967921978397177,0.3749676706118626
,-3.14158978892222,8.248525571942379,-0.6187078440083503,-0.22690033984219407,-0.20763199535555982,0.5432388340064994,-1.6985721858473655,0.30089841735972916,0.5803953611054521,-0.5735889468949438,-0.5971359909614958,-0.5112773127929401,-8.352882476379596,0.21454125304733657
,-3.2771299131594085,-6.3548007249805165,-0.2804081895412739,-0.2559719508917063,1.2839132583407653,0.4544961867205314,-0.5118799128346788,0.3892753602888527,0.1293295252571758,-0.18190866591853674,1.450151668768106,0.005554177845993063,-9.352196167519178,-0.4569965955801991
,2.756725465848202,0.33318406444453097,0.23022190100597847,0.08157788367663536,0.2958248031774591,0.22545691060446924,0.17902618051307106,-0.16479445213121824,0.3322942582208687,1.0128139047799547,-0.11604055794124314,0.26167548499184146,-7.418430680222092,-0.6275921469692866
,1.3716051931128994,-2.454732115852108,-0.022812755777678485,-0.07579235839042049,-0.3822598467288493,-0.930715145850079,-0.430447805824645,-0.31147907437598116,0.8170907270456437,-0.6194320164651589,-0.20309974100596595,-1.1831593014807749,0.7613473088767289,-0.49688944381970773
,-0.9932081296325543,4.013544601916383,0.1402043069972195,-0.2993784803906896,-0.6938000735884776,-1.3917397549229087,-1.1410167972986633,-0.4400047905325938,-0.6111019091691875,-0.7203199388938979,0.9826845187698502,-0.9492527396081804,3.040237873405116,-0.7423038896693729
,-0.6611979239392067,-3.1104040037798786,-0.044962667965085544,0.03272767681459958,-0.02455967940876736,-0.5993256912323027,-1.1088570892526755,-0.43468532354046513,-0.5870069379512112,-0.519578456461872,0.6188832381439932,1.2426239858046102,-0.6456115638943052,0.5144107391869721
,-1.858242089443621,-12.311345553420137,-0.3482467210527282,0.25941125153508365,0.14395331877067558,0.4295144413123099,-0.5503841374859656,-0.17043985385235277,-0.4993319323716761,-0.9817769361185068,-0.1791289988932217,0.7054004722956921,2.049742020345908,0.6452992225733569
,1.8052160810140447,-2.773943361293162,-0.5897664030021417,-0.18535927101148963,0.11897975612593259,1.3575896689696427,0.018545407323178796,0.6495030005122764,-0.2275731291686081,-1.5582951519734705,0.030917978938424066,0.07662672673978672,1.8336444088313844,0.17663148039487545
,-0.009925139296810156,5.474573036788012,-0.20385282576195332,0.028936009483205048,1.3146852043037844,-0.29082065333291807,0.001830353834035045,0.8359937221653027,-0.1913004007371762,0.21178432080993148,0.4282195943598957,0.46174945685164365,-1.0453090040475688,-0.038940865632306094
,-1.7351697679503704,1.2478938642979682,-0.005483182160875923,-0.30216038384637217,1.946093761960356,-0.49606772361556867,-0.06547950490733319,0.4339944378109481,0.10810234243318552,0.12259836785476065,0.47092819616940185,0.5053595459616355,2.932239397956686,0.5624462191707786
,-1.034382756823226,5.886817676213951,0.12098932592555682,-0.32741670709800286,0.45302554228063535,0.1281424625358406,0.30925348445871625,-0.15759632969835638,0.546435961690176,-1.5618353441160202,1.0776313220188505,0.15973406938116766,1.712733921217788,0.24771597854090005
,-5.586712578146866,-1.8689237478526242,-0.38947126134241195,0.5476049429536164,-0.8092841603326082,-0.8038287271172728,0.1376571645416666,-0.3334000439036189,-0.5046409828605699,-0.22948496343715655,0.8755818758922037,0.11102616402680957,0.7766796692761793,-1.1439529417746626
,-3.641915376825411,-9.80378620898313,-0.28968616372147776,1.0295020511604351,-0.8750473487357174,-0.3919317738102094,0.6245381648083315,-0.18867470996668825,-0.7087583146339637,0.4267764161666907,-0.5189840448145184,0.6979127784586936,-3.7815000586447707,-1.038756976638064
,-1.321091772165207,-4.942875707044286,-0.08337863378076792,0.7764671495864364,0.536215576006323,-0.4754971402568067,-0.5491843763576447,0.4490023117294117,0.6666990772396564,0.8939036418820575,0.09217387936388366,1.453378856985992,-2.1935357786519614,-0.32818802088694504
,-1.1941890031214706,-14.383224915437783,0.15658476158472884,0.30332206226535824,1.0920647198555813,0.6002996930270434,-0.40392669146571,0.13647977106310255,-0.2347269880106684,1.3839545627320964,0.5818914065737554,1.3640271601383043,0.6908944862429784,-0.017738022628626865
,0.7111112541312141,-0.2184271337236109,-0.005354118098016745,0.2689574542562649,1.0828466342037655,0.21590071317699952,-0.07874859249882787,0.2990527554181029,-0.6119004661485907,2.206136436668433,0.9073781342186686,2.3592724661365234,3.8640351478726895,0.2942573690156843
,4.322155722161062,2.004255849904044,-0.011234097695340499,0.31886748812168825,0.5171141681774928,-1.2033840918982865,-0.2507617778674747,0.04097477456573467,-0.31439394174524415,1.843780337917886,0.9986181226770101,0.8216767241801901,0.8475521797978446,-0.5980764766245028
,0.7920345361233065,-13.216669967601446,0.7498622404828308,-0.054800583006069464,-0.16911818022428296,-0.6151719487270061,0.3266222171472015,-0.12328819365823791,0.7189800175679617,1.1792116619009088,-0.07173117807857815,0.20786469709769595,-2.1327595953695897,-0.16413117621417922
,-0.2874894261877609,-18.54773178038087,0.45046321065201667,0.060768781288677486,-1.7368318743511322,0.49710294478480005,0.026885867923606716,-0.23344985881394734,-0.08942526742888326,0.019864059295947197,0.10990393010599389,-0.1244241415836129,0.2581242581888627,0.19570566651504073
,2.0023403942792792,-9.565054943144542,-0.2749681865708171,0.3770109794783255,-0.4265266531736391,0.39927430012805964,-0.44415102088642944,-0.012572039695180495,-0.3010664068858872,0.757896179030081,0.2794940973788451,-0.26400211839717297,-1.261547883706717,-0.06462166075530938
,-0.6264462969573256,0.4864320351966669,-0.25106663881919433,-0.065470219957665,-0.1632880799038303,-0.10922716563550684,0.04474292722368746,-0.27100604640564646,-0.27450056008692286,-0.22214795625573727,-1.6444801170837535,0.004517413934895433,-2.732035046892641,0.36537537914857576
,-0.677334690896292,1.1404782066549792,-0.39091676301923295,0.1285367397976123,-0.9379625386699783,-0.1898463717890514,0.5417853819150262,-0.652485434710237,-0.6849900603315063,1.3774161472150876,-1.7627206328185197,-0.13714735661803276,0.0574194575569165,0.3985439787116666
D1,4.942787905614154,1.541525514306245,-0.27356922161132113,0.5637727166027516,-1.100840324522796,0.9958830670773738,0.4566445624308163,-0.3801731088426668,-0.7726924837432162,2.9503843999229855,-0.11576074447284401,0.20289877254218044,0.6943371143512762,-0.352437618207035
,4.974765200205395,-4.805148492483913,-0.38257456977284465,-0.573217459652976,-1.485960025480644,0.8502050905542797,0.15850853397160813,-0.23223158825193305,-0.49565534415907486,-1.0942256080501498,0.620879225500306,-0.4812240150125659,-0.5064248742737185,0.48859565549869355
,5.498275969362705,9.905929736641388,-0.8799433542080698,-0.3744505101067378,-0.5156804396581501,0.272710735779304,-0.2568518617761048,-0.3215378334885332,-2.485248136185691,-0.933170447297114,0.42404342849122467,-0.4839796575365647,-1.1405492892261335,0.8578606764702528
,2.8621148669066776,13.569175548421521,-0.21836771955049136,-0.468097478437549,-0.7678745162298495,0.3606177295934376,-0.049598776671220764,-0.25836673193596876,-2.035423827510016,-1.7495281939789828,-0.5141208273732557,0.05658768289345205,-0.9246587787955941,0.8228422410148989
,2.6650536730181895,0.28830583378965347,-0.05324489742360882,-0.31394856067031124,-2.058318166481617,1.1894676735381766,0.7026140855898566,-0.20403275812209748,0.2602458932395164,-2.989427072633934,-0.8705217644395132,-0.3976201299539483,1.8801892002078142,0.5987371380363155
,4.692586055314378,-1.2984620951939785,-0.12649743847129308,0.08276117395779538,0.7271963526306504,1.2878426735239994,0.5086898503210302,0.04900099890450985,0.03638527329059093,-2.0217103007588793,0.7834996707011114,-0.5865110187814112,2.295840171072785,-0.10677074732494884
,5.380143174089285,10.946665906434763,0.6242598813953523,-0.3475917228060674,2.271692079834811,0.5732094550227121,-0.8698321467682437,0.4795306750594868,0.4005116113826475,-1.3089248114948484,1.1536322751816734,-0.05157609282312357,-3.2296354310484596,0.6068009716175222
,0.996225193317223,9.656988206782662,0.3479443476418574,-0.917569426172106,1.2105255590628916,0.21642602580214468,-0.9299518542333903,0.3762726365042621,1.7113620195574692,-3.251790307931698,0.7200291815202768,0.6004312415093073,-3.1462667874458976,0.3648603263519758
,3.4241336904626984,6.2881938945196385,0.3775277022103116,-0.2518268480785162,0.8647449327996397,0.12718354482321928,-0.3879173633587303,0.07563087837883682,1.6607051672854525,-4.011343221625792,-0.035023482831959545,0.8035986527253699,-0.32096559907491534,-0.31519333307715114
,2.925023695977423,-5.705083554680349,0.35080390505793557,-0.6088894621893017,-0.1475841182565066,1.2688693935825048,-0.12856274767403444,-0.055559433242023226,0.44739004218301126,-3.6376550729814006,0.407565510944865,1.2444125405819495,-0.7081286924060499,-0.5709008800424328
,3.2625613583214546,-8.33439714507752,0.44094786148410875,-0.8485769292936179,0.5763529036303129,0.9780995906035199,0.06511697228697161,0.14449688927497417,0.8570733485938136,-3.5999920292964362,-0.672416072371191,0.01948761133843102,-1.816066161401373,0.011616957997647046
,-0.5468188540687317,-7.44312854095654,-0.15228580475124362,-0.5417502228447624,0.4482838247259031,0.2827094674940006,-0.04222497521379402,0.7956186035849716,0.4984140936874401,-0.7832389400927485,0.22415221212165282,-0.7925078313834921,-2.118326084532555,1.0067976861502186
,-1.171734183883567,-17.06076662813899,-0.349430996571516,-0.7659780813814276,0.6465234687082648,0.013961973894790859,0.03363035465551225,0.21215322059159075,0.09260497006789202,-3.592662924305314,-0.03311754238029377,-0.06100238537340149,-0.21541553072816164,0.9725810877605574
,3.661115255869006,-10.189109114537295,-0.39057977648101116,-0.7747511513268251,-0.21743406050641526,-0.6117834301311473,-0.1621470252175483,0.2513821978568343,0.44184833667679024,-2.942981493556881,0.723845089674674,0.9836439049924032,-1.3730332231360665,0.34467356264822246
,5.966911404215155,-1.9505628087880567,0.9325820989825641,-0.28742704169006844,-0.13982581901989763,-0.8339743454220722,-0.1185027065537237,-0.07957388643486815,-0.22688524491451997,-1.0051637611699493,0.7473287346023185,0.5800908966339583,-4.608249296523377,-0.6778150331151332
,2.522537141845061,5.816132284435182,0.6578689846437833,0.2587690129725096,-0.20965644241010056,-0.6585023670417265,-0.5356891640452973,-0.5783998598745322,-1.1952251659801345,-1.9485366678409113,0.47389741129634216,-0.3443815104991224,-5.65841933053959,-0.9424328443039087
,-1.1024217331127397,0.921435606705947,-0.0007997294949779966,0.016844779567665433,0.089959220559504,0.15505570684191186,-0.4503103867574497,0.12968602884317043,0.25457724638603463,0.736954905281652,-0.4269553532062577,-0.4201233106586614,-5.388345452706452,-0.3146663045956401
,-3.7757574960272424,-3.7270005912870037,0.08106851754637466,-0.39406847089428537,1.4723701761162555,0.08189631321747641,-0.8773772542953279,-0.15798307790037203,1.1764383988562281,0.8967289591346761,-0.8701031533360704,0.14952655479988075,-4.747674957698984,0.9037044378175239
,-4.407169780793627,8.566907071382033,0.1334687216765733,-0.5227374672890036,1.7884696806198854,0.9533532958362827,-0.6005378687430241,-0.15744849546034687,0.5162351923258326,-1.9915476831932863,0.31092009714409274,-0.3545132322996005,1.2268343698924928,0.8302470632066783
,-0.3215198986919562,10.439912649495357,0.3506233630892053,-0.35276008750760096,0.5124720008886322,0.7452822204752039,0.023560515844497892,0.6018616863628955,1.494944133461386,-2.1812360364379413,0.8546137922621739,-0.6719649311973008,4.221518383742541,0.8441299760443766
,4.31112690782192,0.5076450340623672,0.5541210137914061,-0.12491889928502639,-0.6323169766444829,0.4349140598967223,-0.250833479816724,0.6744722805270172,0.1448568862822482,-2.028073090657199,0.8185205957727675,-0.8028088228671955,2.6576494441980674,1.2325155141756938
,-0.07266191221275003,0.8688509817467069,-0.3319551288582218,-0.22033138237510255,0.9756179543261947,-0.19223319624188323,-0.4700163127703732,-0.03652827107028113,-0.49321953594637413,-3.2154649798320163,-0.7144229993388304,-0.6015306015950714,3.9437294548503394,0.8700392937242315
,-6.503038886528562,8.541692662320898,-0.12070678840613505,-0.5683845557131958,1.5043452844198313,0.819493073868015,0.12068011294276473,-0.18763651197456735,0.05295315382958698,-2.3216495125067236,-0.7258079711629035,-0.03901394681480533,4.179022099152417,0.6057767795096572
,-4.764821765554718,9.245724970579477,0.35453823720404043,-1.0636478092909274,0.9253134018676441,0.23567256863650898,-0.4188411357146279,-0.039600348613631986,-0.47699297633072346,-2.429723897514258,-1.4458094049790176,0.5221304403465797,2.327469550494288,0.9444704493696162
,3.3138370006695856,-3.661176619645558,0.5304491952600319,-0.450933495620907,0.5460899934277839,-0.21215156283889783,-0.7537219233344561,-0.4680867186906107,-0.38097712910890646,-0.5442446048949751,-0.5104201354438228,-0.2207513177051705,-2.491670821504042,0.743747650670436
,6.3700528953924245,-11.88795873434964,-0.7613747228183052,-0.4915734399286417,-0.7468515644959486,-0.9863295406458259,-1.3971836043362376,-0.18618352136368432,0.7193709095577229,-1.3233324642338231,0.4303350463746002,-0.6815110393758975,-1.1522902444994858,0.6712405939336212
,1.4020783349054762,0.9694953923453594,-0.9838982610098277,0.015961031359808475,-0.4904863442517008,-1.1839985422014392,-1.2016244464739216,-0.3486213763711961,-0.23301865238680938,-1.959764604052433,-0.17933238397711923,-0.38873999328414055,3.5972354680316077,-0.08353483137925567
,0.32509957725164246,11.7289574656688,-0.41155730224933834,0.4160754447863123,0.23536030378009296,0.7368859475854228,0.3371266373203816,-0.3053923262714089,-0.28586989223300957,0.5508085857212186,-1.0027915683132373,0.004503393220455193,2.40774842737775,-0.5143753355542674
,1.9711831392651256,-0.061615646477841,-0.0915763091350526,0.02031980881941646,1.092246431635854,0.419617081254076,-0.003276800530905502,0.16667777278385018,0.7741437506091071,-1.5496606129940742,-0.2705517454374372,0.5589266253295118,1.8948933725123047,-0.586886239310379
,1.5101499726659793,3.135528393148221,0.15892971527318203,-1.0215365244992454,0.3356090615068836,-0.17740497536481648,-0.6916866681119602,0.058929218600553696,1.3103025784797289,-2.9719965396279977,0.5440822678146262,-0.037112672988804905,-2.715058497953772,-0.2870033553826359
,3.8299657655247183,8.43101038067393,-0.4616952990801614,-0.3572124853627745,-0.6223454577414143,-0.32337862133872924,-0.27792381372247776,0.22011692045603284,0.9598903066967643,-1.8972472994562088,0.41466301716646164,-0.3028164188234027,-5.322941326159988,-0.5883083144797908
,5.187197095138173,3.134946513777821,-0.21127692754118385,-0.3884305328715152,-0.9107970082869807,-0.12461316484388107,0.10208058619513172,0.6387635984467971,0.7782785716611946,0.7994597049151423,0.1036615756080337,-0.2341225422800812,-3.3267784546326435,-0.9221994765564647
,0.4652353038991098,-9.378948339768746,0.7316991729537019,-0.7355823152546224,-1.6010083426407273,0.28127557884032334,0.11177832109206728,-0.39675411792960125,1.5556881168417656,-2.041034213968477,0.34085299352717646,-0.2577775339373717,-1.211898268941555,0.3034739116288028
,3.2879343412401325,-7.728759365284459,-0.12031718621112404,-0.5911107232068747,-0.4965917567026074,-0.5314683984026708,-0.15964241563812995,-0.4898346459309948,1.075921078602269,-2.875816440216153,1.433929272082595,-0.2939029090295428,2.537713979036306,1.0244164383088572
,3.180061282108114,3.6509433636976283,0.025713671770209123,-0.28283308745741803,0.016587606617916622,-0.5560751998469414,0.5628163542158667,-0.0618303706072288,0.22804139806938908,0.4470413882585801,1.4137928805530091,-0.10468217938930079,1.6147196958846746,0.9494636085093973
,4.790315178157309,8.480560953712548,0.8370301715560206,-0.14118352243036608,0.13990588466213227,0.09215176918734361,0.06263230491539853,-0.30766622911343877,-0.7260192035097627,-0.5560564016216349,0.8820048417736384,-0.32197547408854515,0.4193275295845653,0.6468671602282974
,1.4764407237104766,8.85333598973945,1.032595976891223,0.5876858434141246,0.35735765538703507,0.3466162845758911,-0.5367052685122735,-0.29999029730927,-0.7420457914365919,1.8583969268910518,1.2792366230735475,-0.07118251115753046,-5.7544642836452,0.4238020313369739
,1.6287465161868697,-2.3909316797103513,0.9563819867964442,-0.18452328692269207,0.10758170021106084,0.14704744031942762,-0.48253004926408366,-0.25865914441556176,0.2641715912449243,0.6396403399559026,0.7512366857939913,-0.6255153963278128,-0.7215615334893756,1.0968450209378706
,-0.36343581092635124,-10.440731791315963,-0.03081896579958481,-0.1692826713043773,-0.1522099965219648,0.3370029212042358,-0.17416737223083972,0.34195271097977176,1.3785079337050263,-1.4893629309770942,-0.6655723693304035,-0.928063598749971,1.9064531109352854,0.8346536617925064
,0.1036526399611243,-6.700266791290291,-0.41599744513812487,0.34521927901542193,1.6827728515560543,0.5308221031978231,-0.872315987691509,0.8663011972238909,-0.054785488879492084,-0.3022751206367661,-0.4760377683249241,-0.21655718833876478,0.8261206804343555,-0.1436490953720718
,-0.2561935372702967,2.679568724495064,-0.32474249690527734,0.2067907212945742,0.6272319719444067,-0.031268819659458505,-1.1358493689868971,0.37586804089874487,-0.27578341057934286,-2.749513338066729,0.4305030404047911,-0.12587733342362192,1.295147653325521,-0.05046082111717686
,-2.721794145257932,-5.649191058681081,0.49402308456526933,0.08199140462424415,-1.9936751997746724,-0.25856503988966995,-0.7075462986135641,0.38826585630237814,0.08598096815294906,-3.8483925741354006,0.19689264052912292,-0.31390435214386375,1.1817292348735777,-0.24429242169794826
,-0.5849658496063599,-2.3786505325676424,0.5730197420628277,0.6755069102121645,-1.3541815640008779,-0.029625933397551468,-0.49019313284243665,0.43828482728296386,0.36403584356616053,-2.541094356375636,-1.5914554621897445,-0.8658325753189559,0.4023215017682832,0.4172157704405193
,2.2577042943494887,-0.20117842859353177,-0.36856106512756204,0.39829193871916463,-1.6939734438481093,-0.08233047758516272,0.31717416185319786,0.42914626576715553,1.6666526652577056,-1.1210307663230807,-1.4545724142320295,-0.9172191982109209,-1.2366900603234614,0.541755983892197
,-7.382399250467855,-7.770948432308921,-0.45749817393287784,0.09116040681446379,-1.2869715697144466,-0.5898500539167454,-0.5367116605852766,0.8601949860386621,0.5257158774100004,0.15109262267910378,-0.14279168092615419,-0.7538477614784049,-0.8978417517451575,0.921751647059399
,-11.198832922350954,6.292335894457166,0.09388760086628545,0.539468486291378,-1.1078768658728717,-0.26908254921227576,-1.1160984489362131,0.01545070168666855,-0.925419199525638,-0.6733190132190069,0.4950354651738807,-0.1968991096455875,1.2864875173245973,1.12867127979875
,-4.748202089710679,2.579256308019603,0.255932961336283,0.12842441677959887,-1.1036580562292473,-0.9687613758545551,-2.4533157191917616,-0.41177244434598453,-0.810197978628767,-0.40415336928782425,0.23933411006117988,0.6367490343107953,0.13371558195972075,0.7763926228944845
,0.46979483513410775,-20.25115857447976,0.7023661185901408,-0.005309088415058459,-0.5980477589483362,0.04302703665971457,-1.9043783377099393,0.10413943525927015,0.9389151341534585,-0.4406359067836249,-0.8110674945513168,0.7258749052221849,1.1533511043624478,0.7821356378512542
,1.5120336047228355,-7.899194861643896,0.6014108162347158,-0.4856692042044428,-0.47010629715892666,0.6033790312440667,0.23863409660829557,0.7762556950276852,0.7811443267863815,0.6786620330122218,-0.6890199147503325,-0.41356198699253766,4.3416503452963715,0.9940070127006279
,-3.5224819227964668,3.56425533150661,-0.08988160793312541,-0.29165523893062645,-0.15053846962332265,-0.2516863861166111,0.36557797111193613,0.49115689591757095,-0.21129209561100895,1.8442314210726987,0.7408661759271128,-1.466074655531659,4.310846955200984,0.968817328198066
,-5.0996490850392675,4.622464040029323,-0.5470716535014376,-0.27421831873601327,-0.7646060646745246,-0.8177194391785181,-0.09382497657897458,0.10499622182267027,-0.2139171183108268,-1.4928943540868445,1.0630075164113737,-1.295804528967082,1.4014978766618955,0.45637347168512127
,-3.984002928074447,-6.656857752577293,-1.0392274175106802,-0.18439304003751503,0.3931567584130863,0.4439981219950654,-0.032990607383270636,0.3968711949670632,0.9015202296697419,-0.7092441338652272,1.057404614230833,-0.26103082719417536,-0.9237896067384426,1.1240976003737866
,-10.123693428546938,3.9220424449280284,-0.17418109003199775,0.4151558723379349,1.2854861891314917,1.4810554211995621,0.2978826830743665,0.8959402303360642,0.2699670472005008,1.6478252765041292,0.524542607064909,0.5678620667905365,-0.6139826494718749,1.491318455981879
,-3.7215162614359714,3.4044534670053386,0.9239004933294148,0.4240400091954678,0.2618414291325764,0.4951619633170193,0.5155433652876003,0.24089667767965717,0.03517147016366337,0.579135428169824,1.028775923525543,0.1861054526948803,-1.6068293202232196,0.998977104686824
,-1.373710978830919,-0.5019313247486482,1.4060580762960182,0.07274913298009461,-1.1480518036316394,-0.16169360958647425,0.1936329441911288,-0.5501509347543617,-1.0726975876600973,0.18851557129256077,1.8219520732129744,0.03814498009414043,3.870891402986046,1.131677265097383
,0.08567283732633385,3.149894941363349,0.18377459616822361,0.6215889387883646,0.1329746902779497,-0.5949334287349372,-0.4850597694237111,-0.011587772880063808,-0.0815877204237791,1.7184236673232378,0.7577091847578343,-0.07187910179838079,5.049784280921878,1.0217353069189692
,11.498371804664643,11.301902654060822,-0.10330165029319457,-0.08605976359755042,-0.05115646118323641,0.17854319695384302,-0.46615007508161316,0.04387647831799108,0.23940623952995696,-0.053379329209865344,0.10699333353102017,-0.6597734694238285,0.23926063033644485,0.5358961962844336
,10.672254327483943,7.470293800231368,0.08004146600989528,-1.0230917854166834,-0.13041288034994336,1.0010895826285966,-1.188589333613191,-0.8115198948135958,-0.10907357814250812,-2.439442485048784,-1.2920230377916992,-0.6707040559772871,-4.493260359550514,0.7897743463830491
,-0.08630044164295472,2.3091693120307633,-0.07166353187329075,-1.2884407285685728,0.42858236843962927,1.1174939135662847,-0.829913948290331,-0.20514456966817815,-0.93625460326318,-2.115320780012908,-1.40723812342789,-0.28223541335459124,-1.0648672472517267,0.8340461966455492
,-3.1643542824750197,-1.8448099290666689,-0.6986339680214623,-1.1463575285820207,0.8503039354136546,0.7021765676646058,0.19781978183843366,0.6698182516454316,-0.16913606367364364,-2.1040912700329715,-0.25868881052631354,-1.170318973470361,-0.6803855999124441,0.41841127618355123
,3.564013897061106,-10.702678384334634,0.12544430676077994,-0.82699424597275,0.6250360888123454,0.7259029677149254,0.32142996925884243,0.9331394825724588,1.1014913617926692,-1.0303967626130137,0.5267488921325975,-0.3521444771017157,-4.115124295167156,-0.23802569616608615
,9.30615871391113,-2.707279621881789,-0.5305299711317422,-0.7868844291187288,-0.22907862970212042,-0.4986669458916934,-0.01204981039215904,0.3593614174217918,0.988477379258573,-0.32491326053132774,-1.0375304534017706,0.1679977900963409,-1.7453535879059685,-0.7020571898217174
,4.891742419374642,-3.6384119510592807,-0.6496642790503826,0.09519349054842821,-0.4438619742581217,-0.057417988279270346,-0.0870727737863619,-0.5839577643103395,-1.1254882238194668,2.2665976508195063,-0.7609486728756862,-0.2657945951334602,0.08922209065853418,-0.6044345810834629
,0.6765228050313552,-4.647229257785263,-1.911154126437528,0.1609452027212441,-0.07728266545716465,0.29532593778110466,-0.13329485990344578,-0.4509613761303326,-0.7366655959436074,2.412988557962728,-0.6248145089492267,-0.484386444004478,0.21398241148177044,-0.2929878861410996
,-0.34948746169482897,8.268000787159743,-2.7139651137192673,-0.44399660098973553,-1.4673826728823276,-0.4053432374209596,-0.7416955892718184,-0.5025377551384153,0.2324376468704512,-0.34358313066393475,-0.12038875762971732,-0.4320942853400091,-0.8441316638721251,-0.346519754899521
,1.3085081319671679,7.266790502233958,-1.6004593933498101,-0.46134500950265295,-0.07148523042648267,-0.07699681305969858,-0.8844729229695468,0.45407656542789254,0.10353755986617345,-1.0808415315563584,1.239185154049303,-0.9039970508267805,1.9229704139602368,-0.561821938366957
,-0.39018742543355023,0.6018081034381293,0.1453742907197123,-0.16481596152209396,1.8175477527371058,0.6203297207332614,-0.5606152510804062,0.8923372419336302,-0.4804088971393893,-1.0289147709097692,0.9127942678735383,-0.269921331701021,0.8579319998898722,0.3577718641211238
,7.078598412887246,-6.174408303366684,-0.03826251582755046,-0.479039240920621,1.8001532117724077,0.35426626328457633,0.3040938980522818,0.49215855556054927,-0.2757760027457918,-2.1948588584309627,0.5606714417242317,0.3426946334433482,1.0261748395016594,0.33434307889494863
,3.9018039620291853,-8.611222677403418,-0.10855299952957004,0.3007336933808038,0.1627980849588273,-0.07567360166373512,0.05635347976949263,0.059431299702147986,0.6146791793520373,-1.0558795067556317,0.4338907562994037,0.621489503602596,-1.6486335222425827,0.3059670962504584
,-4.391906115018659,-16.301283037675905,0.0233064678164782,0.6783281444299778,-0.6244309565342566,-1.0056226201235856,-0.6603417309886738,-0.49088460094356673,-0.4439458141921333,-2.760221644190772,-0.06004869650908406,0.5968479097138704,-0.471858990260171,0.15777151593644467
,-5.242069510040583,0.7613981661179241,-0.12231100298009305,0.4405575772619209,-0.19350348561893632,0.30213957704345124,-0.46065879518078057,0.2505902533058447,0.06767995134302532,-3.674757041285739,0.03263628400405957,0.14822788082313335,-1.0823679409166191,-0.0897454713882755
,-2.2189291896584744,9.680746300955253,-0.428272401944415,-0.6065092521079051,-0.4459584015934952,1.305970857284631,-0.022227495580583578,0.5959072433661766,0.6628822566951877,0.11056462726215123,-0.7358676936673397,0.21953980120285305,1.6733212087879574,-0.8757195999954809
,0.6482787478300485,3.624879612631169,0.17861640915325117,-0.8896938950765892,-0.015423292705259465,1.3050727905889323,-1.566941410546512,0.39559537217071605,0.889940978082044,-0.0979633868953167,0.07422291910884474,-0.00039055092767222564,2.554792376702156,-0.20667591844094246
,7.459666096283621,1.7046407909320214,-1.1138463756991999,-0.051287802463379197,-0.14894455953970942,2.2620663543914756,-1.6410101746028145,-0.2901880829009144,-0.1134727960916525,-1.151546735704474,1.00824260335842,0.24412624297757632,2.358356654213807,0.4112757691359356
,5.651908009430174,-4.031882200354624,-1.165444057727021,-0.013679364175499925,-0.530724961666369,0.8916791889869478,0.25844706308457077,-0.20811270094534745,0.04343303313203636,-1.161859711382035,-0.07396118225255215,-0.24004233089777938,0.761732462792768,-0.15590819170598455
,3.616401314086956,-1.6733883149079292,-0.11003169603137444,-1.305941279733107,-0.7086419341098126,-0.609940083508067,0.6842513764915165,0.0015105076336180364,0.5989079831150295,-1.5454070226724608,-1.2699916824455382,-0.2967358123601105,3.1068884832746844,-1.530864154351734
,3.5626690909762684,-0.27231348138493106,-0.8963102647442052,-1.6804831232843667,0.3954337022790468,-0.17398330252145972,0.4086688319037335,-0.3575625692874845,0.3932970847357751,-3.326036397282589,-0.44811867865215094,-0.5023134026787819,1.8882601848152347,-0.8308664125603256
,-0.33052356320695037,1.5178482726465186,-2.379100595001701,-0.5831485290262913,1.1085621078036445,1.0260896325082187,0.29963995977641117,-0.2671406174362503,0.5435240975735156,-2.6232385401083596,1.1589325088614761,-0.7727783727046025,3.761032060064876,-0.4432017788135995
,-1.5443633211224117,-12.776139082339569,-2.0878774411114303,0.06794984029191595,0.5717802759426635,0.9404898891240263,0.9131294873989141,0.0017168401672608504,-0.17783004899971355,-3.0360482739850223,1.3185817861560214,-0.05432065803747875,2.8823530887296362,0.3603257886662616
,5.0066116291625775,-6.158743886430881,-0.01386340582330535,0.17257717735941897,0.5132641361603227,0.7003095142048162,-0.39219335808083194,-0.06399997308840684,-0.26999326550098185,-2.8850643456533174,0.9012880683271941,-0.39840080022206276,-2.8842252941635587,-0.004520461951081843
,6.110837745460118,-3.151186596099022,-0.35917595021380205,0.15567752083923783,0.4325233659985049,-0.6585691146063636,-0.7571121444824875,0.9309678728901539,1.847944810225533,-2.4539964167267483,0.5934719358446375,-0.5767442125493384,-1.57378521795082,-0.7476193455139506
,3.0284109679449904,-0.9773401804991336,-0.07575000154820903,-0.17733228740399606,-0.2807462270179597,0.6167110324483072,0.06337616135584381,0.4392722489843317,2.593607175945165,-3.124712038528202,0.4236535769141429,-0.600654412394997,-1.713603756709022,0.02288361343933958
,1.4830100813822087,2.4470991547753185,0.7456987697606086,-0.6316282000166004,-2.4914796498681957,2.071559380699009,-0.1445795104042952,-0.07122722226586287,0.2465429458548102,-2.8941992717211407,-1.12241025429489,-0.11490175208617152,-0.9274460838729541,-0.33025634337451887
,0.6228612068995,12.496742842584883,1.2699626424708597,-0.10771979368553795,-1.0401808011732374,2.189991724924587,-0.07395004614358075,0.22224463909606343,0.2903298297526734,-1.7713256005426985,-0.1564267678683625,1.180281875211219,-2.4424461724204365,-0.2734620659008736
,4.107747315766617,10.493361583163969,1.0493897402215344,0.4477260321585456,-0.050492011966050854,0.9465591912020901,-0.7836784508483969,0.12839346418281516,0.23417061526392674,-0.8878826835930494,0.9792372311577439,0.7475085079050386,-0.30220270433231505,0.060619145579008236
,5.751907407620848,3.6901138479683313,0.5668352566239376,0.7901012868143871,0.3020435570082437,-0.4464237048207213,-0.7270203216811002,0.07401254831039694,0.7685123539516314,-1.9883281917396938,0.8670859496186385,0.04418418422855592,0.4695979256832284,-0.03209821824290134
,4.762104009164622,5.489959507523347,0.773107381210242,0.2344329003511654,0.1263278457906403,-0.888755108162729,-0.16411416735999798,-0.20142062090763702,0.2152625400634787,-2.190344018440528,0.4119379845817656,0.08903819788697037,0.07142826307963171,-0.3925235080109902
,6.200092104785496,5.274871694517236,0.3987156973302422,-0.3435089625587344,-1.1436938538274528,-0.6524556777005138,-1.0407803737826553,-0.5347662735774399,-0.46532533615249444,-2.960886864572361,0.5686420565456827,0.7532896457921561,-0.34268463007262073,-0.7785904519853107
,3.4292449140299417,3.9018728406649554,0.34473221327543807,0.006372586854288765,-1.0198730128803792,-0.050331278251753805,-1.3420748999832923,-0.8042812276628014,0.29269137013117114,-1.4514470094983656,1.2301551250308334,0.39212918399528296,1.4618413902639373,-0.7579484895919428
,-2.553628642053661,7.352269530025385,0.25006585545957266,-0.19070114134358973,0.13628711893394369,0.37367891628263816,-0.8196072181301344,-0.18833382712965485,1.0273699562358034,1.194087695329602,1.458790829080618,-0.011637968029746407,-1.5472578275431865,-0.44370274171815094
,-3.0269977767924603,4.9610464733843305,0.48721305752264316,0.26300238531077413,-0.03924609076578059,1.5663293052001233,0.003714567284342641,0.07025286596298386,1.1538786318982175,2.4839174540381395,-0.302966415847529,0.6677878001743345,-4.114431016870563,-0.5284189533256389
