event,eeg.af3,eeg.f7,eeg.f3,eeg.fc5,eeg.t7,eeg.p7,eeg.o1,eeg.o2,eeg.p8,eeg.t8,eeg.fc6,eeg.f4,eeg.f8,eeg.af4
,-0.5986343353468788,-2.5014969128279163,-0.3062409452072854,0.7761727969248331,-1.1764557853333235,-0.24374412218776334,-0.7237028947788233,-0.30033555973659604,0.22354584928892565,-0.45503725510944215,-2.2851478945908554,-0.05475024166116624,-49.98646271052953,24.082492047225397
,0.19916672626197277,-4.334283496347562,-0.40011742494988456,0.35537606410505,-1.0672887144687195,-0.4003264236981349,-0.25659983668322517,-1.11823372144799,0.020535144201040127,-0.20365021465847472,-0.28853538407202783,0.2547095955967865,-54.97281454822005,4.061973692636654
,-1.0302036411445146,-2.7235686245122017,0.2743956802245027,-1.4237603628385267,1.2751688199254538,-0.8980692495413466,-0.7764238975051888,-0.34275374538085335,-0.3572390151952754,0.6474970549928577,0.4771659687783661,0.27111753521836385,-36.23703625861339,12.032363684079419
,0.02247874148051818,-0.43616095340931293,0.36247401614706054,-2.880822509585147,0.6603609018287502,-0.5921674117925058,-1.1847747361513226,0.4285558035076605,0.06504076800286693,0.09391237604826502,-0.9085451962186567,-0.028770254589365007,-29.0293395031602,20.232967451026987
,2.0251864621250735,1.6246248228500135,0.5978742515593345,-2.292673653821313,-0.8357641223324584,-0.061374623641735675,-1.6918899809644956,0.448175140045797,0.5025172827673839,-1.4505471286515679,-0.2956799445090032,0.02782853533145531,2.63845064600857,28.109766981385665
,0.699727286073269,-3.6032697554246877,0.27057697749746706,-1.9449737461055605,0.3703100689812535,0.38887536928472805,-0.8044863176947789,0.6602294352405423,0.6149048266247222,0.7638776231648796,-1.3922236378486605,0.24421317819712776,-17.160471594868895,19.323388922969617
,-0.6688060593800534,3.563723474047105,0.12420720979158752,-0.5108625763012488,0.421304709054372,-0.0047124006227802885,0.5733219929053655,0.10552150778551987,0.660466820879498,3.2016444684663683,-0.058382538061270854,0.2605750711821531,-1.1738090184193413,19.03959193229583
,-0.1820297033997999,6.729162387354359,-0.026686299189887606,-0.1415062529082025,0.467956123245211,0.03596016007068477,-0.07802339633923594,0.1658165245112932,0.6796260646829814,1.5549171792224197,-0.9587633856709393,0.9737677346374237,10.621794848994911,38.37173972617519
,-0.3605177246218413,7.357723855929724,-0.3023292070000386,-0.18827402589200296,-2.3605548447946534,0.4400467033944285,0.011425624167988915,0.22582090287143827,0.4934973167575318,1.2769278483254451,-2.158986603069579,0.3006214386303427,-26.694280813171623,47.58911066968408
,0.7693396026561781,1.1225065289383462,-0.029110513549426092,-0.6139972679650405,-3.3741396514177033,0.5031285701976627,0.2968957696300422,0.549874284152844,0.9245033683833855,1.0911573360646234,0.1556241257689668,0.048127828573865855,-9.65906078636457,46.07458509613766
,-0.16518841369124787,-2.8699420399258138,0.06387745697405492,-0.29856842111283444,-0.06818975656889191,0.9503884481274631,0.903824858261358,1.2289798297428218,1.138846251670801,-2.4533095475102438,-0.35638139065946756,0.5083583992714776,-12.402379716943017,23.54172894676475
,0.28245613003331366,-9.112845398323671,0.069218203288238,-0.081677369829507,-0.7419031548703963,0.38073507412330454,0.9532559581932971,0.6980753608739299,0.6165035640135623,-1.020436677673522,-2.3223750130315515,0.27342325136521023,-30.50467196064794,38.83448166157409
,1.0327843294271204,-3.7892094862995345,0.0019695424720761706,-0.81886178389677,-3.0437769291189043,-0.1784985184554182,0.32972276960381436,0.14670965889856422,0.3198890060377092,1.616607567384185,-0.33333637587611575,0.19246808450297215,-8.707786118413855,36.33283415105525
,0.5151329171952435,1.1089529489530017,-0.18312671629194602,-0.28068997552712777,-2.4443835780584147,-0.022965165235315253,-0.06336510693381603,0.0006208224302935551,0.25417840420957577,1.1938824035927222,1.0100104914553865,0.1563327308381832,-16.18721647717983,20.445996947447878
,0.8074969678022655,-5.034559588987588,0.13683561640298716,-0.1403586741900413,-1.8421720699208446,-0.3017854983171881,0.31695521664741405,0.17351770032776165,0.63671625382639,0.15349071475382248,-0.6300455690875826,0.4461812303349557,-0.972900992817962,14.321854651922381
,1.423750249475591,2.051793036342571,0.1881711555197382,0.20400095683662636,-1.7296793183875132,-0.13485998640213637,0.6545758030986655,0.4157488449480099,0.5046530346096555,0.17654435457895898,-1.6852067098820975,0.17298081979889376,-4.957338079990779,31.383196657247975
,0.12775528863718041,-1.6299376849088978,-0.18018243295466244,-0.34463934296141113,-2.013530071995797,0.06986531789660762,0.5835751463442753,0.3065783883879412,0.1794691658387389,-0.13765963347049695,1.4295563860256313,0.1236751904453004,-7.250285855665731,16.8334706261652
,-0.7458875550744273,-6.692616061586642,-0.3272048483881498,0.3535638781146309,-0.27211759286571563,0.05867517070287322,0.15001230772519503,0.1857958333872609,0.5874196904909048,-0.9701172270065839,1.9068289069430222,0.24344791845225044,18.078385594857522,35.275102448720794
,-0.4867057119911328,2.010033009582579,-0.16390602078663152,1.8190303982081162,-0.10475298706165109,0.09207121015487076,-0.04530183094909299,-0.08454253120361149,0.8813041650332872,-2.2815919583126996,-0.44299251780987803,0.18635132537524254,56.36533506698383,33.07134126846158
,1.4674337604839902,9.4049118665146,-0.352871103795452,1.5561016156104002,-1.1247239190727385,-0.06532265853253706,0.3223805416606513,-0.1975597291207268,0.04248955744427448,-0.937275741553418,-0.3774895934193865,-0.06013812312757773,24.34934783024433,27.631002375005227
,0.4778509923077648,3.404045975182908,-0.23913418798133407,0.2216011706282145,-1.3495381247533733,-0.10101387795034023,0.4579366919208003,0.45274405235569315,-0.030606287846763607,3.185364024708797,0.06094271992365894,0.2164193611464487,-20.318219320599752,28.99911295618675
,0.3298606853434865,-0.2090443847188449,-0.16615393114177965,-0.22299947977997725,-0.18796990395913557,0.14933536416747922,0.2151964031082986,0.7786818359543141,0.2605281023510364,3.3779965689960414,-0.005892466154638118,0.10581186248201663,-14.662131077767437,29.880022461495628
,-0.6488534586391054,-0.11115116135054705,-0.3945563271371117,-0.16957415357422465,0.45198574591225105,0.3599844993225134,-0.02966224488835847,0.4290588767783482,0.14651712932732588,0.3145541366019487,0.3241239177662006,-0.22839108320646023,-18.586271860448562,39.283583623549255
,-0.7107734343829967,6.014772946935609,0.09948433430015004,0.061451551753139544,-1.6837759369865133,0.29380977918382956,-0.5525618578336426,0.008985018364184093,-0.33452351734040425,-0.6381029973163935,0.32427445345072425,-0.22931453630213638,-38.714142004021554,16.349973625785488
,0.7467716510282416,0.926706712051723,0.2662743735603594,-0.09714848771732534,-1.54118522276879,0.012299976263686237,-1.4643105571946666,-0.45806646893661623,-0.6696290122308038,0.5634576940356884,-0.6323525940073695,0.5706577119011152,-16.95833643824729,-0.7628470805044003
,0.2570650078186813,4.839897143150831,0.2402476345292716,0.6280139140743602,-0.6158705885099428,-0.039410459280410384,-0.7910591400873491,-0.6238760432558641,-0.13497965375705878,2.0523277421796666,-0.3109403897753789,0.6180511438202735,-10.105080746823122,-16.390505778467883
,-0.16663553635000533,9.317147352834297,-0.2341774710063862,1.0229252663155048,-0.8830748925707087,-0.5331715094388984,-0.6896343008631821,-0.49175620926874997,-0.17592619268109183,0.9421580469856545,0.26211260753806115,-0.27693464948207397,2.8760859153059193,9.672963978387363
,1.2008969079879201,1.0914494801438286,-0.16807055194774292,0.23466254249830049,-2.174602367220333,-0.39071024120539044,-1.0673472836234041,-0.22316082100391374,-0.3608037827669576,-1.3155267500823489,1.4240791328969786,-0.29280812255499994,2.2268499252381693,32.78927205835782
,1.5864708072804392,-13.303018024944551,0.19149087964085548,0.04372864873054049,-1.8532146609353144,0.08220199375622098,-0.8256435025456745,-0.41104722964592294,-0.35067500794964307,-0.8032455261775915,1.5891535670997028,0.548673220292319,1.4970408285535628,18.47435955869655
,1.9737371286540955,-16.13924396277964,-0.07691675630154149,0.09221279506453428,-0.11804300984159571,0.016706066897659997,-0.6638809152292706,-0.32049415226597344,-0.35507216575082096,-1.156022522172161,-0.782785716726676,0.19932655272071503,-19.63804017557601,24.922401914924457
,2.175954560902077,-12.156980487523708,-0.09067983087519049,-0.7598830806305846,1.4074040877990541,-0.04440673480422977,-0.7465208223199918,0.024717629993939057,0.36393910117585115,-2.5224296655893537,-0.19196867156169142,0.393331372486409,-3.1806483318683623,33.134896933988685
,1.4135049189587217,-11.564402847573671,-0.004116981917010113,-1.3705855440770747,0.3839632812044737,0.21814320901868328,-0.2306947741620064,0.4980211608567234,0.19973376693684355,-1.914690289898773,0.4317441454498704,0.35164948663783663,3.5056667135229183,7.706838201601184
,1.1014433591989472,-5.126414444924843,0.1882185351928114,-2.2791992139324844,0.1936876830856279,0.42873985346036136,0.20425252677373051,0.5924730238222689,-0.0758709884191221,-0.6951312634263133,-0.1944995311276471,0.3931377368286756,-29.70900700335273,-9.739512473818404
,0.11827524332024408,-0.8700182415382753,0.2981186653495465,-0.8268265192264133,0.3690031894346249,0.7016849246539734,-0.5188667528612018,0.43544205317518714,0.513583763354476,0.7848958473294624,-0.07881324828953305,0.491145580649208,-23.013518975825956,10.919438132097744
,0.1939365494362404,-11.905961920603286,-0.02617125100869528,-0.5076320279893795,-1.0771089164607768,0.5286204671950046,-0.21353280233861976,0.31164026319191235,0.9053897440159816,2.807036615482605,0.3329857725311322,0.4171821827384459,8.096561988130183,38.218645792539995
,-0.4729398284636669,-0.8598243860946403,-0.14908760114956193,-0.5206014094491148,-2.631693013018688,-0.01437323327962564,-0.15421688721101107,-0.046056531935985905,0.30942545450296766,2.5251515938797104,-2.328836524110525,0.19046810902165912,23.46399205714689,60.087380802516606
,-0.004692472166286913,6.456268104551942,-0.46824047899873134,-0.8585804854752487,-1.8885290994193369,0.17158573930207205,-0.04567072011163001,0.18406399840666884,0.5804247044989845,1.203945338355113,-1.2625553862685979,0.5593752903534583,50.238267579010156,38.19852325399825
,0.6460575920173115,-1.4436650205192638,-0.4092087141234972,-0.08792861251963446,-0.037996507539930106,-0.03032544579132645,-0.11809505496316461,-0.11031489100257405,-0.589228816058015,0.09901618865629315,0.4942500381817891,-0.033260338245913304,31.76054256160956,29.221505442322773
,1.5854306663212414,-4.542833577432145,0.09542133369563999,0.5116974723085402,1.4039384553097596,-0.249520528889906,0.09005243345123441,-0.30711166410321467,-0.9090762497270781,0.6095867628888599,0.809889016970042,-0.34629079507315375,8.93408780266126,27.85362214791741
,2.5012170589046794,-5.354188294569726,0.05086310986942972,0.5495187287368927,1.4554166748519477,-0.3367931632631045,-0.32976145891603514,-0.10072998861296796,-0.16759250781649648,0.336426576442851,-0.6735131643005896,0.09874130201307306,24.926803734915932,18.871467314329056
,2.4803404136190994,-9.953882118331748,-0.2983826580189782,-0.2573568271821904,-0.35081626198374,0.10122225057721616,-0.01651533300582982,-0.4499604362550286,0.3687675906080924,-0.44397512835727376,-1.6631756846702128,-0.06233950573935102,40.542321425512355,14.610563836790245
,0.7626363731358453,-16.303631818993196,-0.09935811480341188,-0.46194954393749804,-1.505290107472632,0.5317191630395568,-0.2130864024744993,-0.11254015597186663,0.1978502585245804,0.2796155653589756,-2.0152475513604546,-0.1971620596401494,23.884157941950125,-4.623127303062231
,1.5171874325532646,-12.698134619758832,0.22957413893590256,0.8311912350857084,-1.4615810526368915,0.38886668934275076,0.12161718135461563,0.19800742790618056,-0.6991030562100317,-0.1236283783449549,-0.26763713016648055,-0.29205888826443954,21.318515661400255,18.890381382548572
,2.1882151995338135,-2.804131167673434,0.242119359903766,1.3956109439532571,-1.1035365473565142,0.570438929749331,0.11214903517099759,0.10725571807992969,-0.28777028184426245,1.4611417314895787,1.0909647876323276,-0.05014785123700241,6.473328487669328,38.0557049587709
,1.9833138027228405,3.3585627777020113,0.251947721151333,0.15917824029924826,-1.1479289560720787,0.4509178014845128,-0.0019121050075169305,0.3313679197872694,0.49816215920281737,0.9409795067455027,2.4842204728684454,0.4206608209250145,-2.084444943691477,41.31538449059093
,0.34658738851465176,8.267132150029719,0.2385378757603397,1.4522513626519327,-0.07609879919413977,0.5856545014018636,-0.4742589734000509,-0.2481437477964321,-0.4337215380935947,-0.028011137751014215,1.2355628027404635,0.1456675165232158,-31.04055104915145,32.70693949319179
,-0.27139934674996086,6.410866290171424,-0.3242752701655701,2.1276382935221423,0.6435441392158784,0.03842124210475223,-0.15315059811427145,0.27948365474671455,-0.5022094369267983,-0.6186044056536406,1.0388701203910693,-0.8314723744968124,-23.62271323217636,72.56309349380392
,1.1993467463470195,8.940934078219023,-0.4315451476805621,2.1791934632705563,-0.6344353513223406,-0.5902293603464556,-0.03560742385357702,-0.2941848959670742,-0.3956389255044455,0.4069184842522442,1.8946350444620221,-0.8643282769036896,-0.7514602279921346,65.52903955754702
,0.9649907022343522,10.522616694764729,-0.1905660264468771,1.845160407827565,-2.0540649452891584,-0.36147883206791964,-0.745526151922044,-0.71109540521288,-1.105774572018505,-0.25326576737996087,1.200978186368601,-0.29287323682686384,22.368633553813147,40.22080556463621
,-0.5517023475134714,5.969793689499424,-0.4644530786224711,1.4041614920942407,-2.6907170032295387,-0.5942132628683268,-0.3880488753550434,0.00647901755085192,-0.8116084276618507,0.2123127433892328,1.564490199058591,-0.6313929641558854,25.64831778845715,74.13657246458399
,-1.2349440729809191,5.863904951691249,-0.513755449814038,1.566987795171016,-2.1532618214495627,-0.8031008950758071,0.2805583788270344,0.14826769900758563,-0.6021340670080207,0.07683773311699493,1.4538470958410923,-0.6074084530839562,-5.31263082775251,65.28559686376852
,-1.539258922034122,5.262024364249616,-0.5764336236420945,2.055658736598793,-0.6199214930021119,-0.5694891105094028,0.3778055071600499,0.3797617202492026,-0.35768813357207446,-0.6394866610568206,1.9517644802353016,0.1810342084956295,22.98717778407871,14.392521905870213
,-1.8606270787636932,7.895762895770437,-0.30044619690731517,1.8525020767900189,-0.10439289577687753,0.22434079493928852,0.33988933572946595,0.7906688943143853,0.2058286967614914,-1.188255677350819,1.7602202114319823,0.654098693890818,22.287661624753415,17.20549212597925
,-0.793642452883974,6.223441238791473,-0.21428184544465007,1.744129540147818,-0.839451657460402,-0.2969644594898594,-0.020112949227819962,0.17632937846769994,1.0112073804355912,0.7526808838275076,2.2474594008309574,0.9186216651497364,20.5425154041524,35.14088330527523
,0.31039436667012543,10.582929767640627,-0.224608502358091,1.7335904366929182,1.2429036631299857,-0.614439307158172,-0.17603862292843794,-0.37622936272168933,0.9727593526844394,3.2934585505378413,0.8580509167927641,0.4780310998726712,17.79699930560635,24.98350990649056
,-0.7449182238386582,13.10996450441371,-0.08448214543256667,0.7966752680924197,2.348943534729436,0.13222102714195683,0.12002830350907802,0.3705878238323869,0.5308969722838895,1.908938452676873,-0.6924971024021124,1.186677098675439,10.081948231883759,29.983217275165945
,-1.141155558477362,8.949987425116253,0.06888353850464324,1.5954630156347578,-0.04678081871922051,-0.015632955474345175,-0.08998345832352962,-0.14876417476769127,0.4637300275206744,1.7018724395673859,1.302787033122993,0.621230491463911,51.05227933780865,59.307969224190025
,-1.0906011946046927,6.235245514276348,0.08500314712710141,1.7288352651548566,-1.2160791004552645,-0.3263408962239722,0.22610807427274518,-0.505290997031712,0.8588412557725916,0.9783357631588298,2.2034008841021606,0.5394016898986069,39.30322578898667,51.46848108331477
,-1.6419746593323568,9.299375959343136,-0.002656268517942199,0.9074742278335538,-1.0324162865166802,0.29440334341640007,-0.25742902128269485,-0.3730297116420733,0.21127209545181527,1.5070660910906502,1.390795648366547,0.508926728478769,-16.81301834882941,54.066921783333385
,-0.5222767596662222,7.990694861698587,-0.2585795708779429,1.2222514156535702,0.7942969466062703,0.44372426717574265,0.09942311782222618,-0.1613601661692757,0.06241299032123763,1.988514834925577,2.2343679883451855,0.11323922544645906,-9.907894862134865,28.47387084909103
,-0.0127953939157518,9.39110454561002,-0.6535261119852103,1.2174856518515005,-1.7182510868017131,0.1442407955412613,0.5027867115540159,-0.07322956559477649,-0.10868379369564142,2.481728844325738,2.7112136482401787,-0.27313351089555493,12.100920842170096,15.527909084720584
,-0.8237576210211447,2.8848162555082535,-0.47999237742403583,0.43021116450884567,-2.183842786319627,-0.031004557121027718,0.10255432406838465,-0.23201122099792942,-0.5399832061896825,0.6896252691051026,1.7782428378346375,-0.14361579044385575,12.743088511303855,1.5530112744646234
,-0.49384844961856594,10.1732126739607,-0.2871448309793482,0.683694818107567,-1.9444821451204912,-0.07053859338595074,-0.15313493106198747,0.027433577410082368,-0.7685768376378002,0.24884415561406778,1.8224872042655937,-0.20623939630144753,1.495972923623764,-2.1417165076018088
,0.06631269374350092,4.950865717975807,-0.43364025862914224,1.2878846121859853,-1.0874648217233867,0.07809208734009147,0.22251505951559256,1.1583400790129998,0.030468110680912857,1.6319659485020397,0.16804398833033507,-0.005291697613401364,27.0640582141418,-16.70937046272805
,0.12329844463774976,0.5777178179085423,-0.5742049035916964,0.4189455562118781,-1.4075314920110562,0.9726691850874198,-0.0527987379645511,0.6805592772128494,1.0867737849793828,1.2267517110523485,-0.7233784246347893,0.3915784267549973,34.25489839817133,2.918401424768845
,-1.83616527371313,9.271670022910827,-0.1868963257971064,1.472072007228664,-2.2218832639622623,0.7903767671429264,0.014153536709925297,0.07751414212021833,-0.08099892605908213,1.354624073321696,-0.26130454135948145,-0.18377710919840454,42.84783476900025,11.651426703505996
,-3.205235790900516,16.97771249048244,-0.2426869355509984,2.476664683680168,-3.5417544521457893,0.17630459719375402,0.36238520065888896,-0.12181795174864601,-0.4738112889175611,-1.0144320110275455,1.0436958549467334,-0.4967421948228759,28.618101979332494,40.60750598146455
,-2.2263332268638174,7.5585170764273295,-0.8958509531477705,1.218146591050332,-2.7840516108673654,-0.2112332250545156,0.3948677568443903,0.06989665930882617,-0.3459802557896735,-1.8760532505681875,2.344745584078939,-0.3792167208314474,16.69353273987506,51.11810603961034
,-0.8226902901352056,-2.286916035958067,-0.9692591904657767,0.9866911560678125,-0.8168243414865737,-0.03525040995022352,0.013890982015886866,-0.0651039439897204,-0.7454498648682523,-0.05118673982249129,2.0001659751993213,-0.4591265972856595,10.130583565299029,64.79198982430185
,-0.48452472109503386,-9.390814938881345,-0.39455980593075124,1.032664171057175,-1.2656858372221251,-0.2536486916079062,-0.40944557777965274,-0.28619007871274693,-1.2304848878895347,-0.6031803403159115,1.2722598192551953,-0.2911699452080898,14.38414586537687,1.5642268653274465
,0.30490365066339237,-14.12777323296606,-0.35791438144082377,0.8908315594024971,0.1530146637276787,-0.04280244664545307,-0.07978967098909873,0.011749237808061728,-0.5942869203832224,-0.787979528000373,2.0086299695319365,0.0022620694936979872,29.310052623708838,-4.749319970258458
,-0.09879197043273315,-6.399180349977041,-0.5584134111047071,0.5804869600467994,-0.9895497263295322,0.22102757552199312,-1.1697819266037903,0.4567640343547919,0.9883557732292847,-0.31012625962942475,2.663143103079522,-0.2083854109763232,42.0117791222388,-6.247851920287296
,-0.18107029185380563,-5.480844871536332,-0.5394178966107941,0.5049472812525782,0.5169771798702701,0.36184725687471114,-1.223600655131185,0.27713269285091346,0.8051929162126503,0.8390286100115957,-0.19485098418394636,-0.1971869828255197,25.653224401899738,11.918456804027558
,0.049691977280493314,-3.6410104010458264,-0.31243025838541566,0.06060135014233799,-1.9985994162974672,-0.22134869702913634,-0.5187042375364401,-0.2654322563100433,-0.3824725111626525,0.8890399232640397,-1.1586374166746205,0.3217003868439511,-43.13697587997532,23.439278880589537
,-0.4829872389818094,-8.268354081919988,-0.5419919733106474,0.612318690492185,-1.7224688639333001,0.028072851455877665,0.7116557235215217,-0.5059860129855801,-0.6329289989501721,0.019800453857298655,0.8624309920260066,0.1573680491232417,-3.521343051294884,30.56464608233975
,-0.768401745303607,-5.158707795395229,-0.611508983567811,0.5864481938925199,0.12796910126437988,1.2384050011177257,1.1978855883536512,0.34350754330480265,0.10813747761929,0.4954874495841789,0.2010564807121278,0.30921245453064855,33.855846565742226,17.051858574864873
,0.3536908689508079,-3.572622735949586,-0.2940099982363172,1.8064949467995253,-0.7124698202386874,0.6724660792656327,0.5587770573834936,0.2736318689221067,0.2381997315566102,1.0156102625325485,0.5541941092295475,0.3549050531866121,35.332157696215745,-12.942442888266878
,-0.18303606712420895,0.9934775158335923,-0.11120925333920151,0.6539954311159318,-1.3018714696138176,0.7449894916107948,0.6231280627019853,-0.026895239933098704,0.34532198887522514,-0.3747948186489609,-0.4537765309166492,-0.43230007205946164,38.36603974769497,20.489203851696
,-1.5731255569640796,-3.0029917230656036,-0.24385163601491147,0.6802209016406249,-2.6814448253383354,0.19219767722393563,0.5639608003635239,0.246371955142363,-0.1269842094632834,1.6070700572189056,-0.25624193181912347,-0.29148311484827866,22.754863728734545,29.182537604696616
,-0.7395180582246633,8.302009509357344,-0.19201038155800476,1.0978053828840173,-1.5892347089008936,-0.7396702967892483,-0.4717061475714898,0.3511176548353089,-0.6501327010058829,2.475641840856884,-0.0036306838199287902,0.47187288454952564,-16.093042170986582,22.726019359799672
,0.12337191791243109,9.127677351723573,0.336223336713269,-0.14736751426629188,-0.8977924723407832,-0.5575336909526377,-0.179513214969625,0.22456695678605587,-0.6091261591654994,1.8138874106493381,0.9150062310427295,0.09777766381069561,-22.655713690475356,11.95690172819803
,0.1933483652265951,1.5246473976052843,0.03879249094754691,0.5391893809812748,0.42117370705984447,0.3903940454791113,0.7514458063437663,0.08691129434814779,-0.4410387221888121,1.748890262755729,0.6836937384995389,-0.44978751737427997,20.416607393133756,4.598470912108706
,-0.6405080696532492,8.532086944572951,-0.04478595371452081,1.6493377218355332,-0.03665888219569071,0.15021261594079327,0.6881824813665922,-0.0248603124396798,-1.053211998319144,0.9801737829481864,-0.23847162279568324,-0.23244941753920284,-2.265114366422884,27.161084476164515
,-1.0558637269831876,12.137425629021832,0.26361596568971096,1.4044046233269916,-1.4344616508214578,0.630449321059103,0.1387145396139693,-0.20822403479010734,-0.8960204770489688,2.5032310144757717,0.8703058936653054,-0.13993990018101105,-5.441891689954741,8.269160986269844
,-1.1187816974001925,12.11613860759357,0.007920282471724847,1.7320620489126224,-3.0072407465131152,0.8602421277769423,-0.35842181799460926,-0.3554425695195158,-0.28208976048466183,2.35882868411955,1.855224955077018,-0.5762644955533036,9.186177468833476,-2.320876276686091
,-0.9581457762673007,2.5065681106745816,-0.21471481914874688,1.1389229828897038,-2.0843128962422464,-0.17945841848463082,0.06361924207424033,-0.021953371421254544,0.9162473213002519,0.03787730159536258,1.8345860751820788,-0.1388665790480717,-5.414597820575265,-15.741277605685575
,0.2763061017195237,-2.4862996824374224,-0.15737596372638188,0.41596305600023387,-1.2319328701292855,-0.8422759001861303,0.6400786384321347,0.24134628757404805,0.06125586699365918,-1.4168880288817443,1.6334309776475642,0.09722196353693638,27.977831690555313,-20.785668764485678
,-0.5196742748455441,-4.0947821448846655,0.09343210177865748,1.0599573772235533,-0.6782168652312154,-1.0519845175168603,0.2818736382795042,0.06744916676312533,-0.05016961998853341,-0.5885311379553073,0.25752899394681245,-0.17792015509868414,29.033738634923036,3.063837061270714
,-0.6114336786092783,2.486569515523391,-0.06880737558115932,1.716556274998298,-0.17780565524875108,-0.2582015940533775,0.24662575221079788,-0.06086239634365576,-0.08823943863101964,0.7885398145197545,-1.5660003333031414,-0.5121436851897213,9.705643000423022,18.529734553671084
,0.0955418827877295,3.8077212274907093,-0.3647123424859691,1.4295915599492732,-1.9250954391027748,0.2035786050899901,0.559438448766806,0.061463953544883584,-0.20804591711893333,1.8986806187932128,0.5052065117346681,-0.4604221685146956,3.6896984828713055,49.318234975094576
,-0.23005209432214457,4.191620122339787,-0.43121534448366816,0.6265924444601225,-2.514857609322525,-0.7965497436721235,1.171550260638106,0.6619929319074869,0.12058071616477678,0.5019394138522931,1.619559791126044,0.17833040349528084,2.737684936808518,50.363319751565356
,-0.2817274210653079,9.218329105009834,-0.5939660053853859,-0.4174342541023192,-2.679086437267333,-0.6242929372463943,0.7821462602482776,-0.3353034440548927,-0.4404999000254927,0.421736125630798,1.6674203339313918,1.1662510824944297,10.67028451077676,41.80267753502624
,0.7127922459447478,6.910046016117289,-0.7277742442011703,1.1366765650166042,-3.7722947191974217,-0.5237235977721466,-0.020172768431317756,-0.927387764749869,-0.4168521586467221,1.5695068618258547,1.6167197230865358,0.10651146239307095,5.415673832538625,56.100213880766596
,2.509632895359682,4.7431623700091485,-0.6427957702718785,1.9306141576729166,-3.267691641419306,-0.3972510577351404,0.06831443657684289,-0.3392400985293453,0.4070491429692936,1.1734516840052112,-0.5859707584834113,-0.5341521700528117,11.527090465903632,30.472689397229477
,0.7263797241627648,-3.0408590791678622,-0.31841053620924487,0.7635446943682013,-0.39034488771772324,-0.7393674140422748,-0.36594506285977735,0.35334364347299574,0.5159815517772398,0.636867193835188,-0.09634960829469215,-0.36543759691344574,-39.61213905962738,32.536031495384215
,0.3875680950483819,-4.667477835519699,-0.3459631769459151,0.9595046298318287,2.6306181745338453,-0.2279618790324118,-0.9108862750819335,-0.18559804389502413,0.2980841434253423,1.0443938822961665,-0.2558911672577283,0.04216033059342469,-55.84079904792331,24.60412678392091
,0.4323132077466541,1.728513889624697,-0.18925873064817683,0.7175531645067079,-0.0899798081931222,0.43607710922099735,-0.2761316238349212,-0.4833926640579156,0.28075970273712963,-0.4278896070808408,-0.5057988146813154,0.449361974824147,-4.112714813418132,-10.024248482116944
,0.21665099842987406,5.961628279478531,-0.0223165509324968,0.3831002994850692,-0.3413027474993189,0.08506920509778129,0.3135406481421214,-0.2809340711640063,-0.6193982993048152,0.6663754308645565,-0.5794858405829305,-0.032805874256543154,31.670258590774818,-17.162321196594135
,0.2518315185838945,12.354920852761214,0.3425899481769164,1.1841367319613147,2.121721121275345,-0.48239339046695484,-0.12344765111274214,0.13245125800938337,-0.1245021581805535,-0.14843213681969258,-0.10799889560179901,-0.13651574500312713,17.55305298840877,-7.431613961772429
,0.8333287406129233,7.8563583970341595,0.22671708917999092,1.1239251104254229,-0.28388906054971563,-0.2910508110344124,0.2187040594710277,0.18614183408577564,-0.2917564479593805,-0.9284627485610949,0.8134811215004298,0.28795951912230733,-10.066685995914709,-36.24173360480668
,0.42875123189167647,3.2044371033298864,0.31986041855175373,0.15114517044463902,0.28096747246841197,-0.1883786160574096,0.33036211339244387,-0.15932128536478773,-0.1522957239699214,-1.8350047841875674,0.02859962183616156,0.3319569758239239,-16.095305119941106,-29.581353770194877
,1.0942265632262904,1.4081256902916317,0.2685254467513451,-0.8862934746999563,-0.09967957789880319,0.3188400919415887,1.1417347614046678,-0.15946641220638655,1.1058932759338285,-0.29007396797863116,-0.3721519441465874,0.42013585757537586,28.747793143702292,-12.623225338671606
,0.6066010502983764,2.6524960193204197,0.20769074696635356,-0.8296574825017106,-2.5092893835005876,1.0630848408259561,-0.3572317130823087,-0.4204430738850435,1.1020709947167815,1.473523031227672,-1.3152421976262856,0.6572806162748264,20.418591154810024,-4.792428708541119
,-0.8214526411269909,2.598253876342424,-0.49272061582604026,1.0386217621996408,-2.958393901049477,-0.0795138019845417,-0.4074461244173767,-0.5366522187202305,0.4283410953755735,2.5629596940983412,0.31491317273820896,0.14685712846434312,40.106450323157176,39.211430240127015
,-3.091818949462677,11.728549180539156,-0.6810351481500995,1.998423642480563,-2.102095262595152,-1.2821584184127677,0.09752117786040572,-0.1221023775452659,0.12175482014265342,0.9143169939319451,1.69707033560827,-0.5116361584672587,53.18723925178456,92.18480568572298
,-2.8611983456301417,17.497123855245455,-0.7830417389479428,2.3772907645229107,-2.2804254054003517,-0.7773121874759558,0.023051577558218704,-0.2046684252832496,-0.6414219402148582,-0.6406753843437889,1.3864944091221105,-0.03341856054777168,55.72425834509285,97.55444484986644
,-2.0418588049841397,8.491450602426843,-0.5413194545552429,2.0004273377730395,-0.7516959821752818,0.16919288736130006,-0.1511393668167971,0.3437252643699955,-0.1737029360616643,-0.766940433339406,1.7574187367015097,0.29930258136623655,34.666397747345435,65.13249884522736
,-2.3446461650970742,-0.9277727469564903,-0.4786745262127758,2.3422253251057383,-2.178260583799865,0.06405865220328641,-0.31351785040882096,0.12209479778768538,-0.3508122379862063,-0.0722771089383602,1.2573310451637614,0.22590449406667368,15.801978162584579,32.1440998594837
,-1.2082850167899717,0.917949303300173,-0.8030482082495687,1.3007918483840895,-1.6471465806730736,0.5641400748949756,0.2866605641572352,-0.9169187152145466,-1.03322917537416,0.0027148769540927147,0.7491858996623345,0.3205725125805014,27.938595303671242,13.118886551361776
,-0.6552976740477021,0.40840601776521324,-0.6823833393626927,-0.2413147175538152,0.716825759232085,0.5308377133524711,0.3902996646294108,-1.4242575336872374,-0.9559786101197548,-1.0971007124047114,-2.0590008406833475,0.03803070390768815,23.48167880534126,2.1491508402531956
,-0.4689087448092907,1.5981447428002122,-0.47417404111788447,0.6089018646526454,1.6013861492820725,-0.03849953172544874,-0.013726101468884245,-0.7071505956817589,-0.4145464189444428,-0.6995830363494301,-1.5137552384803896,-0.010502346033572469,-2.186678085172328,5.1985587511536036
,-0.23078486764801898,3.1222625402472084,-0.5627798326094328,1.040063310525244,0.7083600831252915,-0.3178720488831397,-0.5160033253826241,-0.17667212955688288,-0.5270997257715437,-0.7357162777469861,-0.859504067320478,0.010186573085722756,13.01444657892637,25.368161292532744
,-1.2697398193505702,-0.7468773221204547,-0.4343940769084272,0.5236905280129184,0.7206625837846993,-0.14822664087236026,-0.3259122824972807,-0.35608133729035074,-0.5852920649357202,-0.763060580905501,1.0848740217145385,0.1679468230362727,51.231681418269886,34.2027634617499
,-0.9359641884588439,2.7689537398777,-0.661070648866536,0.4429198383169765,0.37406600306685134,-0.7767176889889483,-0.2383603940369353,0.08153625032949982,-0.15627898623676037,-0.10795524235591623,1.0120993942976642,0.4194492814307298,33.14212875797861,41.69423143356667
,-0.30417262804300876,2.0527720159787375,-0.050691819431791935,0.8111605845060618,-0.880291003251803,-0.797647143110805,0.12741808723246795,0.3151747710895935,-0.7379038455666134,1.5331769859265405,-2.2917125427133405,-0.37275310098259334,22.84152131973055,25.219924662868902
,-0.4343935383315673,1.0284676102744286,0.2413592540891841,1.3124341158390693,-1.0718854045465953,0.26126695924480914,0.430641442629355,0.4459133153089209,-1.0335921478901415,1.8836484032890437,-0.20933841005638348,-0.28672750905253,33.54914842518642,-17.884149729440146
,-0.9681471337701626,-3.662597001605395,-0.030252250853761185,0.4214948179607993,-1.0220084942582064,1.080881172449078,-0.3763995437422562,0.26181914089030384,-1.101838708354484,2.3219161977516096,1.5922968089925564,0.3198820604663724,45.3549622499326,1.5563366880391711
,0.051136029248409945,2.027222021434785,-0.04434973511032903,0.6875482661650061,-1.4245784401152604,0.5320096729393543,-0.7904018301955629,-0.3385711595988455,-0.6302201333721542,1.70451810521165,1.3997200467081024,0.029908195269737935,49.609898677913755,14.68977898682333
,0.7142218008738297,1.5080309828464948,-0.31415676841535345,0.24460488878547051,-2.551871912918772,-0.10760590152029353,-1.5286460505826207,-0.5220121732304155,-0.6877957114751087,-1.6470476856846832,0.08200338765645017,0.04585681546428155,2.3394080056935054,19.831025380574104
,1.6316077904422308,-2.090607090481375,-0.17195520163442232,-0.2118125390417192,-2.061998846417507,0.4635579580446517,-0.9259808436679257,-0.5781403935211626,-0.783295866755569,-0.07235358809204588,-0.8017890807746849,-0.03831698173338757,-26.30198284555786,6.473750012389631
,1.7797392510341914,-8.716962522171428,-0.3372657963877693,0.06384313597924367,-0.36065221595648617,-0.4821334985463632,0.14091987529488453,-0.346653496704991,0.4924093240840535,1.5446196610826883,-1.3135942254982116,-0.5388574986480542,-38.08677211925762,-30.43179786858676
,0.24638738417411243,0.5403859296431487,-0.14464629729200748,0.011670467516044142,-3.2316804322603816,-0.797570702548321,0.1024773206344393,-0.9110318454694719,-0.1513210594507919,0.327227166847672,0.10074874176891681,-0.28734678785200335,-8.933473596188701,-4.43611173425127
,-0.9732877666006594,10.399146255890955,0.1982175490401947,0.08954919333900568,-3.871244937698737,-0.43673247178034263,-0.0015591817680199167,-0.9208462720334987,-0.9940378077151817,1.079726025711812,1.75578737686158,-0.43161531226808353,3.714091285475342,21.84851612160872
,0.018874445957733226,4.066941956861106,0.4320179213454102,0.969272265284032,-1.7455606239071706,-0.6285949534669223,-0.10712053597007996,-0.09112229452011335,-0.580649192835588,-0.2877902012284356,3.6039700280446425,-0.21997581494691587,25.816456158456518,64.41011253362736
,-0.1249543350542006,-14.986367188169256,0.17555351614034065,1.1278014784864008,-1.2616417526105814,-0.8100226681594536,0.038076057523599924,0.46349712886619515,-0.250488257257159,-0.24788949573261895,2.9742020665870696,0.1645820263571096,13.397605879262251,48.317627877011496
,-1.591689086332572,3.1875373486195806,0.29440016581084283,0.4022731007330362,-1.8500586890683481,-0.3410377986067121,0.2606362631421644,0.6324051667702215,-0.12329461260787286,1.5677177605634682,1.3375296900684235,-0.16478016714725086,4.028139533733829,-22.472784099683253
,-0.9158073426011815,5.454933738062719,0.3366664774073784,0.620183751252809,-0.3534718626861015,0.020162466399097613,0.2328795969247826,0.5023890247184054,0.3618032091224976,1.5602167621133898,2.005469025634074,-0.0070009256595137785,20.118102721471395,8.389413490567513
,-0.0802555230148387,5.23895882375708,0.3248806959049718,1.5403807433283054,-0.048426309752465924,-0.05868803786161609,-0.06850357034689705,0.19520519511183382,0.3131447213987498,1.5904619500266095,1.095946875461779,0.08918674787356598,7.339614770457351,9.735870721553468
,0.1187638998460692,3.2281660271817416,-0.09989535919535346,0.8540198935844702,2.1670516612914845,0.49741116677803393,-0.2773661811955834,0.2521338486321511,-0.6334501148926933,0.5113584644497828,-0.9179254649808645,0.41423989391108335,-4.490718651460679,9.076190680435104
,0.05812470382963364,-6.262105566924127,-0.615428186931199,0.48772270457220107,1.1982079903884568,0.8392251133361552,-0.46708828784405715,0.5212310715385337,-1.460439502671341,-0.7993219691297595,-2.6350082878061087,0.01043977742593788,-3.4361663950101944,1.1642423692131258
,0.13488184161307074,-11.588174663392337,0.02155392621232583,0.07135576477816667,-1.3074382205953736,0.6712633209188986,-0.08037458794632799,0.4160862509506464,-0.5245672088927305,0.42794924562043685,-1.9553210235353287,-0.3891311914904,-15.707581847595296,-28.628629032472286
,-0.022947660011698755,-1.2236824878294357,0.42734000764408125,0.5863403945797196,-2.33550763331178,0.5889949576784076,0.7400803508732485,0.36522185488886183,0.05889543559328563,1.7201804634984152,-0.7858373184621813,-0.03460530789035204,-3.9629888703964973,-23.8708484114376
,-0.8762388798507846,4.449704054820996,0.5599625750980749,-0.09265170934060829,-2.3396169145500183,0.681009888349843,-0.08700775830419677,-0.03224828483912883,-0.36455990989483045,-2.5296683946584895,0.7162499649865998,-0.26708833319595743,-24.78713969294946,-8.370523678196358
,-0.2464935774805052,9.751293797516192,0.6302228242135727,-0.3839687828741245,-1.2676551975944712,-0.16114654585488658,-0.7691478775030158,-0.26083915466770513,0.5091065977300713,-2.600961716591103,0.5812445252146817,-0.22596936411598473,-8.096933756213048,8.348579856299647
,1.3700706866275387,11.581425848010065,0.0315638498572058,0.4802556141300031,-1.3957130435539897,-0.17129735846373054,-0.4838145120032662,-0.10203045853532443,0.5953184543607255,0.42507641709068217,-0.034507184553031325,0.014329653579905888,23.49198871728572,2.559868576282115
,0.5973318238835371,5.543455122518144,-0.24649558401501206,0.22766823397203445,1.5785138319956984,0.04199267356813152,0.2956826150751616,-0.020955646233350975,-0.1571530610583707,-0.26562042772400757,0.6079622053560213,-0.04509741289439138,33.4079402644196,-14.005406583324653
,0.12212982267483319,1.6375371638374867,0.06989611670218823,-0.39931080077403414,2.1106372769467017,0.13390125305267425,-0.24608574304779346,-0.1233597978170288,-0.17180321624235442,0.605178988229347,0.5440225805227368,0.03443299355542314,55.74380617807988,1.1489736012557346
,-1.0828652748701921,-1.0937916788439723,0.13554333508011623,0.01140138486822809,0.9283138276367707,-0.07672768573588959,0.07279576962165417,0.0066310954044012825,-0.44127456569225815,-0.6142120693576139,-0.7887400245604497,-0.23665346871045323,30.99762300855106,23.22350149128028
,-0.42516687104698325,-3.459216593323861,0.5850646182204314,1.7259146463638857,-0.011748105170690483,-0.11174871598229974,0.36550428922135375,-0.09310234036154579,-0.35559679249766746,-0.451707409652205,-0.2828296812817075,-0.09214621964846353,16.960634993377464,19.27510819966007
,0.5080060797046042,-5.440593047464006,0.6394523504625219,0.2900619871466892,1.3410431649770869,-0.17307266592364867,0.028094028674688312,0.3017292604576168,0.24771220563820145,1.3598956981376675,1.5579349125175177,0.21811167092663225,30.156015652416322,-1.5227667135967964
,-0.3090683517180397,-3.6989733613831217,0.2502002848478674,-0.5834519030085731,-0.687346550342474,0.18155212208086416,0.027875349764166328,0.11411620555406829,-0.12160918612182321,-0.04251340782966684,1.0308327893631628,0.037828217536701875,-31.06689996166482,4.291089879996103
,-0.2754174577405778,-0.47974821761450437,-0.3589662610065206,1.0709884306163744,-0.471806893154203,0.7927839784107141,0.3651927719070935,0.3048170907223663,0.5298416396292676,0.9523762284534347,-0.347347871130658,0.49178112306127786,-45.4066836234471,2.1643594020863604
,-0.0931491879053059,-4.459413459388046,-0.34225784808927234,0.673291245648133,1.4672463767599204,0.4851056300143425,0.13425803316029125,0.16358262032937934,0.41659220401182206,2.52619342389771,-0.6058556872506932,0.29305031802908016,-28.362789626097076,-3.4535376276371546
,-0.42790434593505566,-0.7587066006892633,-0.7384592855069384,1.3515292008030726,0.6569871350594296,0.56815480361271,0.16622162283488529,0.3291570403560993,-0.2988814234441506,1.0469049715886387,-0.12266214214033282,0.27896502894868364,-4.59206359179341,-27.29656224638336
,0.5424511281254173,0.7638505792435338,-0.46717025553407127,1.1418572953384842,0.8951044183106509,0.08216378963496945,-0.36860539543711907,-0.22776090008121355,0.01700205790573427,0.1020215652678095,1.4477189652585107,0.1565572896782724,16.558496177712748,6.3364633841928475
,1.035308102768877,3.225327224099413,0.014435715548746031,-0.5256559035125716,0.6216149411989309,-0.46556402317364726,-0.43077270649662874,-1.0850204637315701,0.21187468455246386,-1.5904607175677856,1.239521215708701,-0.4100723206932503,-21.384769750998164,26.667539620110148
,-0.8290177779449228,-2.4126779945543477,-0.3760758609632412,-0.8527786741045336,-0.0009396123812082147,-0.8182943128292365,-0.5362776035514987,-0.8675156883594177,0.43871170813022253,0.2791034518849369,-0.6719868556579475,-0.17808380984835562,-18.010591857154775,27.080769361125824
,-1.0792506185038349,-5.405759283504181,-0.5576518531410705,-0.6623649095406126,0.31083903735408946,-0.2525160356884457,0.0925853666259256,0.07777366611085004,0.1219012260455215,0.8802716585413364,-1.0717262713023985,0.7989313961305059,-15.792943622840156,-0.9572534700968576
,0.5747329459804005,-4.256668200430148,-0.49893031984301867,-1.0176202201827613,-1.1004458836362654,0.0628269242832907,0.545621838066042,0.4650748215616022,-0.7564981346701622,-0.05038053284768164,-1.7527401695238187,-0.3606964851463218,34.96279543447717,-26.521709521649452
,0.9504800366901062,-6.803280815629604,0.1263843183272695,-1.355602680595685,-1.4774828295612312,-0.11728805467584152,0.3423274535521689,0.4471610916478244,-0.3096590811653149,0.3394255869426428,-1.6293302216702488,-0.50343420926948,7.82134124109941,-13.79441460093589
,0.08048424653460881,-2.7309122568094915,0.502611516365756,-0.48270506013308817,-0.6597369299996185,-0.25691622708053774,0.5129721018581035,0.34310852051513296,-0.08089217511742677,-0.5182335508335307,-0.34488796366645763,0.17549551117120418,-49.109471291097584,-22.24315462341378
,-0.13642252999372073,4.047147719588721,0.040669763375391715,-0.6168573948203108,-0.4978080502951108,-0.4249194375993755,-0.027419644018017452,0.2596813219669463,-0.030133232099671173,0.14731023702788426,-0.07287308619019357,-0.18024157909502664,-3.4903548931637522,-2.930924307054799
R,-1.0307585162014314,2.9143285901391294,-0.2131259652438826,0.09871049118606214,-2.691293560555357,-0.2860462479803908,0.3975400755281277,0.20581444883164318,-0.38596737282651117,4.312582815717596,0.6613277266967944,-0.2661277310859974,18.8800300253649,-11.600702927821247
,-1.7617565861815507,1.2366719670993018,-0.4389091689492564,-0.01150752439409562,-1.8994057654231944,0.2020251266112351,-0.23472481086424365,0.326514062423543,0.00724521853533017,0.5899742999612444,0.9229541536340694,-0.47845399401032457,31.403494126308612,25.508401356587413
,-1.4027709432870425,2.4273080989839326,-0.645217634518928,0.25437539795181097,0.7645586707151244,-0.18132594585978518,-1.2570097806023386,0.7071126055249809,-0.8802146591485289,-0.14752402994237196,0.11382560314763342,-0.4772588727613355,15.363728765993537,42.094332999665866
,-1.3963700235570193,2.9853764638120426,-0.2705541263900844,0.7059799656981482,1.3326076082906921,-0.269841917253072,-0.49914632953732674,0.1727645893537737,-0.8187831186885889,-0.8483215293262674,-0.87056892993231,-0.17036931880353956,21.93167560697496,62.17615379967981
,-0.3595467609168498,5.093343262376912,0.15390492688924967,-0.059125095292632227,-0.5293541263894603,-0.5020965195798446,0.32401292002678894,0.6978315900307636,0.1030078408610643,-1.0756169344862694,0.9272226349500213,-0.1327074615210578,-9.476577023375187,58.31368534589826
,-0.17342325490847532,3.4981694615557366,0.054768586999676155,-0.2910085856106665,-0.409293753323308,-0.28839867704111316,0.19824033580729578,0.8992761635805172,0.6289268196417342,-0.498065097820723,1.5990665603444714,-0.31049787048415,-12.576557407277374,22.354330960949472
,-0.8033349252297698,0.7015729863783643,0.29754602587412365,1.1435852026379103,-1.3714165114782682,-0.8115869903217797,0.38914942065547214,0.04864494352835229,-0.13247711176870366,-0.16416266228168566,1.1989339325710486,-0.2286135883994083,-8.051565973375384,12.02189167470767
,0.00031178513717654836,2.464239720378387,0.09754229144055199,0.4670851333028335,-1.0763273822601698,-0.19368080629157694,1.5264005030141783,-0.20284503040676047,-0.14011142150944136,-0.6720946764013361,-0.2743730706232985,0.2759236216224114,-31.364269086200675,10.808500026472604
,-0.09845595469409932,5.42665290275446,0.10658079696748464,-1.2289214186006014,0.7797355245358883,-0.30937336341108157,1.1014007725229478,0.15639307563040583,0.9125482358295384,0.27706090729981936,-2.744805035176941,0.15462522782685045,-62.07442425930284,18.809360687969555
,-0.06397417728281986,5.167819778037835,0.030619983651898317,-1.0527745701039317,0.1801714710288146,-0.06873368801611185,-0.05681569563591898,0.6232855117470785,1.4889183874450773,-0.6183523464139241,-1.323068923887979,-0.1458282587301154,-80.53384647280782,32.99895760167094
,0.15501551155818805,2.3731433684077445,0.0121516743826817,0.7949160369267888,-2.2169837495089495,0.2516042501012445,0.13483527461019412,0.6656823113927108,-0.20887926485579203,-0.6719038915835932,-0.8385704897729268,0.2954599549417079,-28.26128069406894,24.97488620663555
,-0.07682176224465066,0.9195232803000808,-0.36095037244444206,1.3978025073069478,-1.39366635173388,0.7348672845657671,0.7947091549673733,0.5391542926707711,-1.2675988358561714,0.2821321684029773,0.1754259957953975,0.003760656479632876,-4.000178727817159,18.178832169474276
,-1.8089553031274583,-0.5177166855466276,-0.6165706730564348,0.6269318730397414,-0.9547664433219781,1.4577384479243964,1.1098929266695272,0.46815950466229633,-0.7340918209750337,-0.5386192358143829,-0.17849062158782825,-0.0922333734736172,5.675457380297859,6.753709967343462
,-1.6673622079764756,-4.309348125343125,-0.567145343948167,-1.2041353665106913,-1.9307692589937453,0.2817222895422292,0.5334029510300851,-0.3865444298505698,-0.2693691161346771,-1.759639764450959,-0.8895566309599189,0.15528653104830256,-11.554813769931908,17.589781328140475
,-0.27908944112421696,-0.5790213806371084,0.29779028393783197,-1.2367272354082979,-1.0455976725765594,-0.4780442425048388,0.29111886578550533,-0.5008779387950342,-0.37063905465625724,-1.9843902189384248,-2.614953863217953,0.009800041244329328,8.04377977096902,32.18692338328999
,0.2577982368050481,2.119683673766095,0.7814693783657612,-0.5338066838425929,-0.11563352511462197,-0.48856081012710856,-0.9828869198497407,0.05008265168347105,-0.5170314300860763,0.691601472546211,-0.658788360276367,0.29619144707717865,-13.18178008576694,-4.177206610666479
,-0.4619130869919993,3.8341385197694557,0.07573727423409447,-0.8252635472313912,-0.2708218747465367,-0.37943161180871793,-1.1459464924080203,0.0014143925995378675,-0.24730760157407433,0.09657345152161008,0.03450482570471822,0.5830417652865184,-38.895776692405015,-8.3733950030826
,-0.5800356953057356,0.16568395126921995,-0.058325537413828864,-1.8429781463746142,-1.5595779033456387,-0.6966208606404753,0.4212842632495298,0.19767703736648046,0.11428845216135455,0.49243258523594485,-0.6131123908588539,0.23650786396242782,-8.726913013514867,4.91295362733038
,-0.21966446424321687,-1.3728690669229542,0.4525947794651861,-0.00299836744335047,-0.7546489726597371,-0.057227620085347805,0.5022661308875599,-0.04331499364732119,0.17207115862393385,-0.05856405971611732,0.38236474258332065,-0.04069756949550896,4.085610442732106,1.3019278620441412
,-0.6100410181498943,10.589853633337798,0.5974458794534553,1.0599228730351051,0.3870451584874526,0.22248104577232566,0.7575815482928749,-0.0466684156512347,0.30110531448503,0.586392926267619,-0.4139732937074734,0.07347262990424078,-21.575001630124035,-15.135921193834394
,0.6991486992434913,9.797195789049903,0.16541424153640047,2.3745170901253756,-0.4527197938086104,0.02545210873366421,0.6878557764295357,0.22397387128896779,-0.5798183946189142,1.651652165600733,-0.555395009209211,-0.15176821710726493,-11.998264788414318,-9.237049336622466
,1.5769067119021127,-0.019957265992541197,-0.13601252920164988,3.313449654140281,-2.7082677346376887,-0.25928130270539096,0.18409140914422878,0.23939979067585843,-0.5963993102360422,1.7803473250466788,0.8132098655264522,-0.020803687907479974,13.408389668536675,-20.034553931728748
,-0.5548603858320292,7.926080135430876,0.04526753787627904,2.1394638322966366,-1.4767956443604484,-0.8621803567131576,-0.15622756500668208,-0.256388998376485,0.030132180095070352,0.7184535041307477,1.0779504225511092,-0.10960774813068373,-8.298277989507444,-35.61193582676206
,-0.9710432029484616,3.647839075077412,-0.12903393832206145,-0.039595496835892176,-0.21149530842269645,-0.3870208087149438,-0.3702421292234521,-0.33986533523284584,0.3417797431937511,-0.9408329815705191,-0.6745657529535849,0.03496061475436923,16.23183945815261,-18.68221501109054
,0.555219694679546,-5.845325117207971,0.03280076295014282,0.6410076816407605,-2.3090969327168778,-0.016729073792220828,0.09251068225072476,0.2404933223749402,0.5404533581091402,-0.3153263209912578,-1.7868471387516158,0.3731257830270294,34.556370804522174,6.11562967173541
,0.5369081793909061,-2.089126450892247,-0.14511928092217097,1.059221875608586,-0.8516586916408587,-0.005180693112223085,0.8284296871889373,-0.2524539370923296,-0.03141298884329646,-0.5605453397246624,-0.5968672456791434,0.2093242285391945,23.036491696170973,0.2848658063212311
,-0.6292824088357462,-13.024613776805172,-0.05949286714426441,-0.27167549028345267,0.08855011702779338,-0.11306633911146144,0.3073799944197768,-0.2688176387481407,0.03142727844182284,-1.1522672468528485,0.04159583497748113,0.0712668405924998,-1.2110565124564536,-10.967384137974063
,-0.6291375563952237,-3.3130827325387355,-0.31749744677967945,-0.5508774374134842,0.5329885840160415,0.34955150361035037,0.1950397287058701,-0.42789162131319985,-0.21925879447709185,0.38372219740716884,0.3743640731382789,-0.04326101118151699,-22.396928085277857,-13.94543624109719
,-0.8528886884109821,-1.0176213018014901,-0.3921510015321306,0.765438432041061,1.28463353208694,-0.30316005386096206,0.7298058019365309,-0.3771481340596438,-0.06313521169148918,0.6275940458740523,0.07012781442192101,0.04105867292816528,-19.939350995786377,-32.29159421294128
,-0.7296833392010574,-5.071561105678531,-0.7016960648127757,-0.7436119289625011,-1.572620798462554,-0.5985281268888922,0.15822162245871135,-0.03934185136789406,0.4618765062929418,0.20669131828999382,1.8868133511101983,0.29601298706830265,-12.368795039789022,-41.58003117795365
,0.8735146728826593,-9.533206075982122,-0.3065701723960471,-1.4136101711083593,-1.7135705895229116,-0.49908626766785286,0.42864042055885904,0.6288787157293527,0.5984799949712514,2.304109878438428,1.293978850668541,0.16026010108056904,-34.538098351973595,-7.13669935953006
,0.33682632107647026,-3.3210339848894415,-0.26860967357286397,-0.5196972773154809,-1.3237202878572396,-0.08307027329173859,1.2933047713609538,0.08178425138484716,0.13397458319011935,1.2047523961144577,-0.5372104244089616,0.25619220382976665,-36.889193916381224,12.806962062484581
,-1.2725188458068628,0.32767122618565075,-0.15998626646402364,0.23350971410477755,-1.256317417720665,-0.007474011111555628,1.1187539461084806,-0.09311561042649366,0.013992298031009306,0.6490181293908387,-1.058473901297744,0.3840090831769043,-42.374379273592545,18.05043744983579
,0.0023616655129683165,-0.5823217648422426,-0.20546803164548752,1.2013259582368574,-0.9123496180392896,0.07630188539893086,1.1780871486169395,0.5078582028939705,0.5905797858152153,1.6512380231269985,-1.2389183860274289,0.303846858552457,-43.94257617433594,-25.861706793751225
,-0.12035331092946232,5.184799503996832,0.498045789266222,1.1038410675372348,-2.93518108431573,-0.05536444741292415,0.5655798613293276,1.3303441810907775,0.5823828812655996,0.23919176056706223,-1.9759317042726308,-0.0021703695151426236,-55.0954167903688,-42.89788422517515
,-0.04032697444311987,0.5784913874223009,0.30389269487075765,0.38705543742220755,-2.0620264623609565,-0.009251317434899587,0.153120147727621,1.2054321180961054,0.3819246218004974,1.217864362247207,0.8521660342421132,-0.18174667209990691,-39.4360129596284,-12.317260447182724
,0.15623634417275056,-3.696336394073638,-0.19717574596095244,-1.0730650401242992,1.1258743904736295,0.08377268691042962,0.19740793706556362,0.370774896527231,0.8037674024980677,-0.26350687922107147,1.649373420196787,-0.3080514602095594,25.019409617769554,-9.306845385078994
,-0.13310261845851715,-8.285907694679842,-0.38316254036349534,-0.17426816590115016,-0.42253222613733316,0.33823991353068206,0.14502805273625927,0.07766282213819721,-0.25626651070180595,0.21263062626154033,-0.35511136247170444,0.59472275282985,6.911714447061275,31.74488962686697
,0.09300832944096425,-7.678629836817523,-0.6018683993092406,0.15797979259966924,0.03772911174891147,0.2376043625246282,-0.09544416203510908,-0.32880164713562093,-0.3660717723586905,-0.19974150869159665,-2.83827160797887,0.6935586810084482,-25.599075349689166,28.1686275017884
,-0.24389836485175928,-15.969505821329735,-0.21086309604059444,-0.6466798991545712,1.9484045427403422,-0.22897860492479943,-0.33602686679526583,-0.12591887042160851,-0.17056806913337577,-0.22862783982851087,-2.633543408228852,0.16427400445216114,-4.383436572512028,-17.761240693895743
,-1.0688790605603125,-14.406648222920532,-0.39859247512363366,-1.0148709223777683,-1.3179549363332772,0.22999547166362105,0.16903714094089142,0.7510028178868194,-0.09340730453965268,1.4757079142599665,-2.2255160919483044,0.09524089939182573,-10.544991476035179,-38.95993247792319
,-0.7699413048000856,-5.845983090698352,-0.4617063523956196,-0.9397005713213114,-1.4724368079821974,0.5704311306918828,0.004228043832884222,0.22752768745502422,0.2806380461404522,0.4413039180995339,-0.22830461172390015,0.4958889870454828,-31.24262629859506,-13.591194278963792
,-0.8411322014477552,1.061857190396998,-0.34145804335206675,-0.9605841630423625,-0.906890645318059,-0.2035028163812069,-0.28281063303522647,-0.148002327234148,-0.1775531163894332,1.4492043815103537,1.987267944649519,0.03647251378793799,-25.842799865693312,-7.204729403639855
,-0.7182243857798948,8.267670099213365,0.18586089948514103,0.31128333203643005,-1.3615468389922725,-0.0419498310549206,0.4103844304865849,0.5646313485280643,-0.11150415916198765,1.4689502022120815,0.8092408212102205,0.30496681156113553,-11.23092718234022,23.630545206501964
,-1.942226111774285,11.130280978908027,-0.4189570353078296,1.9647384812648354,-1.958108036394827,0.19481835936778857,0.7094133257717669,0.10615978239665565,-0.5620991586802367,2.700776192526039,0.19647799585688866,0.3782721630710799,19.837875460123506,73.77627734929821
,-1.4204621292579402,13.928835986325089,-0.7510748000349347,1.6319001358712508,-0.4728265494725373,-0.04424048450350368,1.062405051066419,-0.0823981234920988,-0.7875270140913755,2.345590250033263,1.335113694915916,0.08321212876192018,39.904693566200045,51.93679841383302
,-0.17704083498789605,12.837206222435453,-0.6021240922316119,1.1399450944515492,-0.5478602747304286,-0.5779638565966582,0.635720513241895,0.11223971981496252,-0.711769656706747,-1.3743635662030695,1.7968222114915267,0.02348231573751008,32.26479919162824,25.54855474592424
,-0.5068354308687167,10.171109421541155,-0.44728820305671146,0.7639457283818257,-2.5645368031274356,-0.5202151488453526,0.573595817389831,-0.18254007939797198,-0.9070028464884602,-0.8988851637715556,1.193176667841009,0.019953724492132646,-14.88607222500322,28.27781077838666
,-0.20947930714575824,6.58909472440829,-0.004996306571017893,0.19869902345717383,-1.8447170586397947,-0.22803131363315954,-0.17252349302071426,-0.26907704963385964,-0.17826281846607125,0.3766223179666627,-0.6826296250934865,0.45585787075969947,-9.628191304566812,1.2092608774558562
,0.9934030669954236,5.961835195666174,-0.02523769864583748,1.243186036307924,-0.4364001613664093,0.05635007948319543,-0.3112401570835777,0.33795694831916223,0.30826874931889414,1.273716492187156,0.3601334581528429,0.06450474867130172,-0.2233186552844581,-24.38905632798946
,0.6698620914703731,-1.3544144007546046,-0.3258419473206266,0.5962719433180518,1.799951088358332,0.4529620661901935,-0.057785250904877156,0.5706863435113493,-0.08084592108186735,1.523516920879867,1.6792654969303331,-0.18054541021071724,-0.4491211888456367,-13.122544884912896
,2.7305144099846532,2.231696784843958,-0.2321305432652504,-0.228262187038254,1.0730996832532038,0.3650358923539216,-0.34726815574092446,0.6616091309789393,-0.7507609359699938,2.0530276270364265,1.4730794160858978,-0.2743082056668159,-1.0900921485936388,-19.09377782098526
,0.7392120022987428,1.853683346451326,-0.1573703411052475,0.42275003236546543,1.196283173786686,0.22772272843091576,0.04690207463539025,0.5914815732528342,0.17943165367539454,2.2076258947469936,-0.022739498284280048,-0.01933965336746273,6.069123989842302,-34.207373682538616
,-0.5743664883802871,1.8534316103311599,0.0670792494921091,0.8053582102692562,-0.6042529010156571,0.0522639431339303,-0.01343683511658635,-0.03418969633958883,-0.2549153594263924,1.5396816201288859,0.4154573220590621,0.03140064848292556,-31.328300676542582,-12.054594152372564
,-0.2932905003080317,6.030161309090826,0.22849081809705335,0.9933837727804382,-1.3244716067915114,0.23261294319903245,-0.14641745061142744,0.4133184565735178,-0.889518871578581,2.133623211105654,0.48202241276981583,-0.06253946652617563,-3.632829718322005,0.047327487489309206
,-0.5530964241879179,0.39330080033824616,0.3913735332994282,0.4797174655776705,-1.5317829078203005,0.18190501914262489,0.41710050994723236,0.93772848127864,-0.3574052448481897,2.163092708286847,-2.060615151359886,0.001271438586672479,19.15200572689825,-3.8984690141069183
,-0.9177659475996848,-1.5839928306308602,0.46258398803739986,-1.115729678479066,-1.8485018334692498,0.009790105280924463,0.3584561744943729,0.1504601006470041,0.2871449968693269,1.0708345243289776,-3.4584283138049874,0.21811380678597903,6.542798986720258,8.817782030728404
,-1.423206177174181,-1.4964379088839848,0.2184294176690172,-1.0725325089847768,-1.7158428396684444,0.13298636557240204,0.36483192251605245,-0.02989962290491365,0.7453885575404676,0.943105830448901,-3.5693303749897733,0.7220646930082536,-48.27328074498546,-5.939499901475414
,-1.0864059842468061,-3.744893721255414,-0.22223998889363225,-1.0266976120424625,-0.23581745495157125,0.0011789382076052854,0.4634092108962378,0.3384496050622405,0.18094689612843445,0.2607556578843593,-2.1384211785593306,0.5168915736356543,-56.765290272398424,-12.329182717557398
,0.06755062073864762,1.3623746969638424,-0.0861904026159141,-1.0638309544365308,-2.33844025059647,-0.1912108937208268,-0.5163934737743622,0.30296113394382795,1.032771355986203,0.365124970114421,-0.43838478780460194,0.23848864448822607,-45.711387163918175,13.713076436967578
,0.4330602460820105,1.5817969621433647,-0.14228647625130772,-0.8431300244176888,-2.7517621512394883,0.02659950271358845,-0.5385821598953059,-0.12226317140711132,0.8506828171221479,0.35969694617441583,-1.5244060932607413,-0.028733584325390943,-4.818502084845061,7.818247832545388
,0.7856021371523663,-0.6843723846649448,-0.13317484271227598,-0.4574336490086996,-2.5756448005221464,-0.4405928965995806,-0.7651754458328539,-0.2360310278539106,-0.3701889262188754,0.3811050102065581,0.3754287282466675,-0.0204380988406954,26.878858905349198,6.337403199873257
,0.0607042583764153,-11.849253302666147,-0.4480938872269437,0.87958684223191,-1.1915047571442066,-0.18182267775153865,-0.2741046045270355,-0.07661914322728589,-0.5662088789292299,0.3924309086417532,1.320575602638436,-0.21917672168199426,-3.3670133713123156,5.148713526029899
,-0.41915650755950934,-8.63793139302202,-0.22944857836658597,0.7380101755112264,-1.1940824216665937,-0.29010510781261134,0.5675639769093004,0.2923364693443194,0.30996523820087685,0.26814373711361034,0.7313126323933171,-0.07693629240627695,-22.845686739542867,-5.85986310257342
,-0.050109023128479244,-10.060139864662705,0.20958250834063774,-0.14990453927707917,-1.2327002308668784,-0.01711221594808826,0.6677538487513753,0.04605033880037283,0.5698929541258624,-0.21682381048348667,0.13965409719246857,-0.12385813654891548,-7.712654832074138,-32.00119804078093
,-0.8087752304631133,-0.24870904236971536,0.1502278692154733,-1.5100072950949959,0.42600829299064535,0.6046831222947469,0.12233990942044261,-0.37546866068192625,-0.20705072663967175,2.587942473015846,0.4376462560669626,-0.1344578798183763,-0.9826136463933787,8.075376760758338
,0.05389503592831866,-3.6433231692856705,0.17912585497855638,-1.0731507438756476,-0.9824847538795666,-0.27174341675542113,-0.10075943152281813,-0.1452703236354189,-0.5013849622260446,1.6039725378385852,-0.015710659656240675,-0.16191344297630172,-19.78451970056522,14.724896301023938
,-0.03137448109243197,-9.165270150162295,0.28182118590713245,0.271977925678483,-1.421402508559204,-0.17051340107580135,-0.1773044510354522,0.20723620493789516,0.7001395650468891,0.6677466577690565,1.6178176170690444,0.658017709760663,-42.01592484346942,-16.010657059286547
,0.2511825362918501,-3.111976678577218,-0.13089006372523013,-0.09965276171078201,-0.26066642054463346,-0.08832010052673785,0.1209820720436633,0.3255585739689697,0.9325039196623213,0.4425960381650681,-0.8061145471319312,0.7752500672559252,-0.6209845096920225,-10.795565217185167
,-0.15833239696611862,4.0409076827098565,-0.31408120923247507,-0.34690368326286064,0.324480330635402,-0.378083572360438,0.0839400446125606,1.1179281503191434,0.3236790621499678,-0.4655643116565862,-1.903293021016094,0.46392359578415815,53.80339710993051,-21.60995496032285
,-0.1344051008171295,-1.2949230914961534,-0.04121909911413074,-1.6847204168552523,-1.5162741662291823,0.2705223742825804,0.2196645232336861,0.6978872412274906,0.07969231785546994,0.4727100396457398,0.2234818363608699,0.6150441006380339,30.44389758889867,-36.49495022957323
,1.1364180576207117,-9.176882488308841,0.10557882945731882,-0.9035209797562038,-2.4235969996669917,0.35966911732775425,0.3241937516911249,0.40762463212070643,0.06162665136205133,3.026451606679969,0.9095344771986617,0.2466946440159084,-0.9361339343027542,-36.79840789612862
,1.412420829691894,-6.961721974114479,0.6762237795167083,0.34273059753383733,-0.30631807107111547,-0.06084107067547358,-0.5109887045627917,0.4665442449406112,-0.18008397948318605,0.9066193589247735,-0.653117897295691,0.23839686433164023,1.969651359298133,-54.71120907888787
,0.761740186795988,-6.388899630907074,0.3722028937617695,-0.06475369752071024,-0.8700368008453018,-0.6408273296640784,-0.7320313954873687,0.6257763166810083,0.16033256837358317,1.8832441176475894,0.07334201227761136,0.42007385978122574,-17.185357355257835,-61.88093648777727
,0.6818763921460801,-6.500269849349225,0.03403806196201937,0.41512178172509917,-2.082969536084225,-0.27302973697482863,-0.286436451367634,0.735772280782474,0.6159327514310373,1.0186720142390013,0.9801845398995312,0.40372383929489286,-37.02738185034113,-43.140394960928084
,0.13136035431991058,1.4794071998624736,0.32636690670853225,1.0521681107220267,-0.7936528851203034,-0.1535745264087367,0.03946915457614191,0.4592739448771712,-0.3920417631981392,-1.2834014899914277,0.18937831122210763,0.12662944492158876,-33.10316103866516,-2.5496396110247432
,-1.0189958665289498,9.070212327546706,0.1078474907817612,0.0076374947797008255,-1.3091079110142914,-0.22162913212006075,0.25094534543095814,0.0169058078593862,-0.518084958182178,-0.5255869531059759,-1.715113693699186,-0.35020124343344944,4.255512476940345,21.915452039020224
,-0.9272595210554327,7.996524207462588,-0.1993621272961993,0.16620260693920366,-0.21228275412677503,0.6156435013156275,0.6183304757067903,0.1409810929201184,0.21474380130868834,-0.03497133022661901,-0.5836309549208767,-0.2068810518263859,19.354617857031684,0.6123867838984828
,-1.0316326370896207,-0.6202516221203707,-0.11807461796091451,-0.19880229264803073,1.5091323823646088,0.7237629405641033,0.026949455300751875,0.1523140586576521,-0.3454878200651026,1.448053758025581,0.661953043090002,0.3375919794372302,-32.26068418038625,3.45200005508147
,-0.8268296459586181,6.557324409473351,-0.17769655032890036,-1.0855499763093788,-1.103846166289154,0.808450309511734,0.45217805459890964,0.30494242395204885,-0.28038653720815665,1.1430353379512843,0.4154831310720356,0.13648939257283146,-73.74192093566985,7.256200643946062
,0.5502546166610259,-2.6830811405543673,-0.09052630947450102,0.336589232240701,-1.9742717294695642,0.7410041581395109,-0.16934572129472858,-0.16252052134794767,-0.5819680733722785,-0.4215183746437942,-1.1986268180593032,-0.2430224784989825,-17.709971775938833,0.5732334656817255
,-0.7848273388132647,-4.863135576142473,-0.25189527620770397,-0.35880812964844677,-0.08871209786016247,0.47435305141010575,-0.36371087399196206,-0.17952187435989392,0.09702574033874466,0.2667381926334523,-2.0865494024258595,-0.3092944310219104,-6.253380587586759,2.258968143180701
,-0.8072676532866566,-10.845139715307035,-0.7449775699185068,-0.8125397875488081,0.7181381605128939,0.3816154192574711,0.4002095502127331,-0.13963107284031911,0.3959060661448076,0.6696291288939009,-0.5700058728713897,-0.29888033133981035,-4.2313767653413965,-9.608292589330922
,1.1359117452944916,-2.556439032959975,-0.6158169970163553,0.6768080426769918,-0.4390043422557064,0.4074137132877168,0.2759490324535713,-0.12883534305553637,0.3307701596219779,1.0143921542937735,0.5243926493864566,0.17634188113401467,4.471651171810362,13.953590552736696
,-0.1780674197532263,5.4870553113770315,-0.11166946215731108,1.024328599913351,-0.019049076208274965,0.48838708665187924,0.14694391403644763,0.440528531185401,0.1123708374274212,0.5349160860776432,0.6671738605599071,0.3135964282750379,12.387287893121886,5.95302131771025
,0.146313303033807,7.72033092866704,-0.25168501598167,0.47381068895107714,0.4610285347200174,1.3699069805194068,0.5039749361680012,0.09747533520726023,0.21422241751411003,0.5906740258122418,0.3281539105110468,-0.16391626188913774,-32.210688400238936,5.132777402009885
,-0.1229251390863078,5.892781503394604,-0.16363531041322546,0.6406396903407534,-0.9187163533153293,0.4555617242229949,0.2343321092011243,-0.25980795741765556,0.8280993658907981,2.2135297503529836,0.8961535832860597,-0.2219910461789633,5.747029607363656,12.464919733561395
,-0.12383233514659937,-6.402587188408027,-0.13025892123991867,0.15841641526875483,-0.8267570003218736,0.22720226350513775,0.09389019671362463,0.009705284387622621,0.3439463120086385,1.2088544983037859,-0.5493770722462172,0.04128342150997667,10.263166658011476,10.682368319776705
,-0.3313535217702696,-11.319291705013603,-0.40720054132087974,0.9984672818631668,0.05236086343553976,0.74045767372969,-0.02948707365034611,-0.0842194055139382,-0.08677819395447764,-0.030114173834867475,0.5753557948632706,-0.26241884706560487,10.734571782429464,5.2389918229138885
,-0.26667802387569245,-0.5140981023793117,-0.7420801237286424,1.224249445291767,-0.9392136018266295,0.2633531342534027,-0.1905044522619393,0.25337273107219954,-0.1579651428456624,-0.742118641204298,1.1646722175674,-0.2608690775149067,12.020438997915383,26.405794854328498
,-0.1537859592149947,1.3964416623418725,-0.6205363178143611,1.6319643133670383,-1.170197803085292,0.03375870270980676,0.1514286894881719,0.048867125681224304,-0.11034870807154831,-0.8427285345713292,-0.7918766372499474,-0.3931881856684016,10.859943062202547,22.382299358422873
,0.20801367558285896,1.4265689318193644,0.0946508263825921,0.51059712860574,-0.4123839163819002,0.36783699593794733,0.4020760350592421,0.12980620532036793,0.11188463894370014,0.5692824827154616,-1.999570287842921,0.4515823153975168,14.135106134309492,1.9462519354410208
,0.32459685006865935,4.802950363976822,-0.06425116985602178,0.8390455852163209,-0.97229454796825,-0.4480695041980792,0.7165474093293928,0.36016181971336486,-0.3273787566059129,3.397344047368727,-1.585320136698254,0.6884922688637768,-6.428423327856155,-40.197146072942516
,1.0494830497629164,-3.2138805668609876,-0.27055252833835775,1.5079136210749664,-1.1297271558793511,-0.627193195108049,0.4618480157736218,1.4749287873050443,0.285001981881251,4.302623408537733,-1.4386681530620222,0.6524121336128974,-6.269732284935914,-35.36579761103004
,0.7101249318510142,0.04028720358967093,-0.2137555963976376,1.702309087570353,-1.3519957603022332,-0.2444031554050692,-0.23198624325521144,0.992379167263324,0.8018099446513192,1.9667957762224002,0.36013134499441024,0.6736101596830322,-24.487848430506883,-23.277818802874908
,1.7930838862937242,-6.1377583708342085,-0.4840622382132253,1.2977726234914162,-2.3459677078332644,0.20032132192578522,-0.10912272421637013,0.7199017702766928,0.6986585065716293,2.1564619561594256,0.44993740841021135,0.006357029347194721,-25.447696960581812,33.16786034506947
,1.9857391530243147,-6.8104988617534294,0.08604443128448362,1.085175404645948,-2.3057662035310416,-0.3813311393422693,-0.18100932120670143,0.5890646172937983,0.9839689401828501,1.8678987589367835,1.835662395285099,0.4729201592253055,-62.65924652795432,13.5491312788784
,0.3373058384163466,0.1509983976263363,0.2968344788760275,1.084469544038517,-3.5817174635807616,-0.24819952528229944,0.1086566262929774,-0.5049575068171503,0.3275810167014753,0.6039798029347598,2.36865384465674,0.7486726894981376,-33.09356175834313,17.54142723565184
,-0.19168000081640715,5.279980118245884,-0.08688813163791172,-0.0321286606957475,-3.3117692909595062,0.08417851303304745,0.12336192475094321,-0.5034544400507166,0.2984700863115544,-0.0428937632701411,1.359283422854278,0.03649664032287134,3.3171411364660974,33.68083123269683
,0.6149092079252535,5.713520938552115,0.04470475740536562,0.1668867465937909,-0.5135132260773652,0.3124529253663719,-0.6634137924297182,0.29428867349649734,0.5795894572812733,0.6204969061628214,-0.5037271214409841,-0.2190347931208946,-1.82153142501496,30.014498233071983
,-0.4108695802186364,-0.8178630114595806,0.3710327796642962,0.3046092716403247,-0.3821708127965144,-0.19436883064326038,-0.4375109360147449,0.340902734080834,0.1695264822016828,-0.10681451803826664,-2.1919814976889236,-0.4505755627722972,-9.874462226398414,23.919403174624655
,-1.1866802591402315,-4.542372908928585,0.5740623637532716,-0.19714511420291805,-1.3861530335709404,-0.6433192916335079,0.3652887219011235,0.49594257181586565,0.1785570394004239,0.06213231555596193,-1.07102072524309,-0.10762684096768191,-13.961772718908378,4.073441710928862
,-1.1258686485206744,0.8017198826998386,0.35390833848981074,-0.14718859073853824,-1.131143772021595,-0.18624250021481864,0.5417114789781607,0.16857092560167608,0.6430206444629107,0.8424605305468833,1.0398662620363823,0.4952391270495294,15.841253051747989,0.09589473574302759
,-0.506902871297166,1.436085454849411,-0.15730712778293804,0.21970845669342023,0.7035668293834452,0.26402171453822604,0.668958620563051,-0.1667323383137745,1.1749884668838821,1.143873649065713,2.229906615690193,-0.21112979343466312,-2.4863892248674655,19.2348998530571
,0.08227003269196474,-4.395525159876424,-0.4270481207704233,-0.05971487006749326,0.5992051867078562,0.49186619017092287,0.2863833958228627,-0.2732789133409194,-0.2427315083123023,0.5659073373103012,1.0739849014812848,-0.2677554420737048,-17.806343266920848,18.843789388338703
,-1.0767803466936758,-3.025709824322996,-0.1677606248550711,-0.45399058656229757,0.429490690669395,-0.4144725482538961,-0.09267019185252447,-0.3673448185382646,-0.4326379124381035,-1.6632462560881054,-0.40646735526889105,-0.3505059758744216,-31.86964953173241,23.754490444158744
,-1.2488850155445275,-4.654671655460684,-0.2787816576870714,-0.2616566608838511,1.659964023904927,-0.21217855991380938,0.13683982134979844,0.07145427680700342,-0.3433105725776721,-0.6767487063130058,-0.8804163220227138,-0.38381789379674736,-11.096938369072873,30.752105210362462
,-0.3401365072493818,0.4219230040647767,-0.14337189515345053,-0.38456028473831205,0.39014491760154163,0.6934269666266717,0.2564342003346091,0.2138543344899931,0.1270093451654777,0.7013260668413738,-0.6430572728028944,-0.07459773940990912,-8.188686406531689,25.474332910632352
,0.552004820740862,-1.5594618358354206,0.31945121680029887,-0.6196034063226394,-1.9312161110516148,0.05464023014162772,0.6309016173005312,-0.11419612694678699,0.2547228494292116,1.0013184564182407,-2.6393778361583995,-0.11305574025724088,-14.30737310677427,-5.206785320789097
,-0.09432652578651655,-7.676437489460617,-0.08039135114666657,-0.8333096758698489,-1.8324040957953491,-0.2873505674610729,0.9820604524625564,0.06367047762241895,0.7448352452183368,1.450637203485764,1.2750967494881968,-0.20830050608947012,-1.060715390439785,9.838406688346518
,-0.2856883980848389,-0.5603315246463882,-0.21550353740460917,-1.161081394883602,-2.588824706471029,0.11095809759819882,0.7101887325477815,0.5759439195960508,1.243948213983191,-0.34871854877993774,2.362939071844889,-0.10155997483645375,-12.722809186449393,11.117359484636527
,1.5851907672387922,5.775329545726388,-0.5018252673691429,-1.1304674048716779,-1.708794316607117,0.19260538589147344,0.38551760307240796,-0.007069599353387873,0.7219416323014167,-0.12564911423837907,0.9957898242232948,-0.05430986750721621,-11.281464887392884,-1.7572367139134608
,1.4786803229626582,-2.592959094634253,-0.5555682041925672,0.2866496418870705,-0.38210738376562414,0.38865969896076974,0.9877191485729997,0.08294492365519798,0.4268020111841144,-0.672395085801044,-0.7340780546279562,-0.04898120846906592,-17.78413472786093,2.0163041024030406
,0.6302030702934505,-7.609471318259569,-0.48789808573209187,0.3097495414372831,1.371052133075547,0.20013824345946843,0.6421324305776638,-0.18333271883409827,1.2790392798993966,-0.09531980513082107,-0.06666520733915424,0.04258661502749297,-16.94534091914995,14.326232100500926
,-0.02035360148974301,-9.515443540128562,-0.12866134230195733,0.3561271048548747,-0.5822835062132442,-0.061421198734938294,0.3819316137428849,0.10727533815336443,1.0980644356994416,-0.7755790415582221,-0.08782282599112888,-0.2480628345538308,-3.933954478879142,3.531595567572759
,0.4474249012312318,-12.356514213167014,-0.2813794422552549,1.1640838789323698,-0.6911517046242779,0.3785697726427093,0.6464019891253913,0.5185491428094565,0.8273018618101893,-1.9207741120426118,-0.7260716026387463,0.10762771977961748,0.32795516744214714,-7.8320226133818975
,-0.766696882770515,-9.15655198982367,-0.24665152473164567,0.2510963936426352,-0.7024519135403228,0.41954813226193993,0.7287424625185398,0.45063412428663413,0.9244759537873561,-0.5336291367005248,0.1675365270078902,0.27907863661769083,-22.544157438046273,6.454372475956451
,-1.011189931809679,-5.927149168053093,0.036748105263310536,-0.5460653121180539,-0.4003446925915322,-0.18321809484124962,0.6274993284988095,0.27469842874229955,0.03529811047202651,2.296171765107772,0.4154597352579525,-0.1878524005629109,20.51756576350948,31.271122100168252
,-1.4412810979212227,-3.1833011094008348,0.21726693878097578,-0.08219779246256761,-0.2400935765582255,-0.41555323198728034,0.37490193766971924,0.32399169537736927,-0.25105933740307373,-1.205716020443666,0.5208930571880331,-0.2415986065815712,34.0913942960074,26.859859349406864
,-1.061444396187733,-2.5073072607339415,0.3658641460649668,0.42227164709126225,-1.9471195295127746,-0.4452891069703576,0.24062776049396375,0.06130381773821227,-0.4792808624634261,-1.8343112007654205,0.9464915357531853,0.19384377851720794,30.296800925186346,11.071884191399912
,1.0175798715743352,-4.024540939355381,0.075642076494454,-0.5788741432761005,-0.4128965381879416,-0.48300106642341434,-0.11243253991010092,0.1477661988108786,-0.38253735495295627,-0.2329944248471779,0.6174065937634561,-0.08892322104306845,39.25071268431284,18.202942345006594
,1.1019833486810937,-3.195277250944547,-0.013540534116597417,-0.6906650691153878,-1.159562811381982,-0.4976913342774791,0.0031024054691175347,-0.04078584718126075,0.6286499917279795,0.8015098524552023,-0.02439499513651676,0.3430605518331522,45.86666128224658,11.345253758060034
,1.0113526330428224,-4.490084770914148,0.34930178647345567,0.09562326545540784,-1.4490701108555972,-0.15838733127606602,0.05498671302630398,0.2788457414783702,1.2450158036422114,1.1508669278115133,0.8162028852556252,0.5629779828686565,35.044003014285764,14.821447807520459
,3.114802678184422,1.8172041899580187,0.18380459034488375,-0.2818493363432262,-1.353839647124842,0.31116640562447123,0.3017650462746371,0.4076515703061828,0.5668019707298618,1.13922328526105,-0.5206983527002583,0.403299561333186,27.184382303368498,9.615249295996874
,1.507401990467689,5.270939146964373,0.1796419436545793,-2.2472144188121055,-2.630744148051721,0.23766440046725937,-0.14990556885216058,0.19585994249752497,0.305233839792187,-0.7178653747551763,-0.9895218171226433,-0.025567028255834706,-3.1359214324982556,-17.052071009289346
,0.449948823316616,5.042420636927011,0.0086084614352422,-0.8916690423716929,-0.2517028403748313,0.0897316967382865,0.05528247432316606,-0.2873266752435089,-0.4336858774629053,-0.5544757598569904,-0.8561285708610263,-0.1573341265630531,-24.95056974720389,-22.81139600606688
,0.34168527910531765,3.675587095673367,-0.09440341346783603,-0.06570168627203839,0.5924495648368496,-0.5018833541788921,0.21594290773929073,0.04364480720024164,-0.7050466886488802,1.0334816974983099,0.45854808120781065,0.0525718800985117,10.789353732683947,-8.438391471668433
,0.7161402454187537,-5.921380099525745,0.02047542680802965,-0.021447939470638222,-2.283643810943372,-0.41417992832330164,-0.12330898730487017,0.34971282481160415,-0.42514070029675133,2.986530313876426,0.7302292216779859,-0.05811166353829636,34.7405077816575,-11.693276972612358
,0.969087334057918,-4.9347270360190585,0.19321623586850542,0.009515755448764046,-1.4741020179635167,-0.016626779902543805,-0.08693725360077592,-0.6116837868025458,1.028034338247841,2.142792883947308,-0.3538826058314213,-0.12875699812815314,19.483418353012603,-37.98613563279553
,-0.6434203604166665,-1.4897221261135876,-0.2721323578331779,-0.2956557028447594,-0.19144016992074742,-0.5399768483064612,0.5865110629832635,-0.584662859597964,0.14533881387711864,1.898198357313794,1.0001883741362954,0.34679767048273535,-1.9488507574443326,-33.10917218863141
,-1.0195186874578868,-3.622673984751888,-0.06918201345074976,0.2799136856685992,-0.8596110601521706,-0.6207073611852518,0.7412048034274022,0.19922420762837692,-0.02696892237156477,-0.9684113393698849,0.37957186258755116,0.1835621761696217,-1.8767989360602724,-40.008118932912105
,-0.8232380176300611,-1.1563140193781685,0.5212607970777543,0.9815935711711057,0.04305850881298988,-0.20181786887061076,0.31380253169886085,0.06653710412157926,0.16744911233923654,-1.2619261562328274,1.0630696414072778,-0.4402437305944195,7.888052937200454,-33.11292877979205
,-0.10137073515938258,6.109086902914253,0.450543681723787,-0.14332732279748492,-0.879642321407257,-0.2542380372382767,-0.5451588824893469,-0.3022590297441199,0.141687841930752,-1.1154228336568959,-0.3776727106496042,0.12442496884932916,26.156403944040346,-9.605319167155177
,1.2063574609886734,5.928660828817944,0.22246379881674494,0.7591721453289609,-3.5724556214119016,-0.315662215658611,-0.8856895342540485,-0.5220365988329794,-0.41498278772593794,-0.9247125778498735,0.676359296365534,-0.13876555640960161,3.9542570025604262,23.205174094649802
,1.3403152809050674,11.469005009622215,-0.14083731270320787,1.8412213675846085,-2.7895520657740573,-0.35900582185395935,-0.672951758694991,-0.7761597641739334,-0.8384225153995118,0.4140111352310904,0.8812673217338653,-0.4192184711543421,-10.2534460204243,40.53156719742109
,2.240632142372819,9.8615291785576,-0.5156352400908376,3.178307934609438,-1.885892822270273,0.13269534174846379,-0.12020739220094197,-0.5742061413124656,-0.43169673251247076,1.432433974675996,1.5564563293401243,-0.5016670469448863,7.727252524325967,-1.6536995609895522
,1.8286537713371183,-3.4897148772579394,-0.29891113948029757,2.2497623355923295,-2.0145566541950206,0.03850520725062385,0.07702655181944294,0.47727473614282145,-0.06141972520695986,0.7012680973620472,2.4215512391778815,-0.36454662682181627,16.56739692818057,-26.682097558215858
,-0.013452933628654804,-4.319793297899984,0.2762133745250794,0.7102046852521003,-1.3848999369496744,-0.28626722092897106,0.34562024126355934,1.2457836886812341,0.09339198057703907,0.5937889468679791,1.5279302186278092,0.8895394942479543,7.942886858183503,-22.625352968936284
,0.36276630716210223,-1.4426025163802705,0.3593301068455683,-0.005494260285181232,-1.1063740230004668,0.022935989957403643,0.51756684811187,1.079257046195232,0.22436074527916286,-0.9033089950440505,1.485942731175678,0.5850452477144394,-9.545425767755619,7.721679408744173
,0.8352686589728592,-4.321752516021693,0.2145945935815289,-0.141362558690388,0.05309733238285942,0.7940656508663183,-0.2639992757552686,0.9268765054508918,-0.20232204917525157,-0.7346278215480868,-0.2348243674344308,-0.052225625543453044,-44.26831906878588,4.027007813751031
,1.1493135902345588,0.8093808788759522,-0.33750274106080874,-0.5821544896376426,-0.34322389202258613,0.806757664934015,-0.21478055202071897,0.8408721989433241,-0.06409119624646592,0.7780319586538176,-0.9178372857776996,-0.47742209663603447,2.9808614891536824,8.708774961085192
,0.18311262704402825,-3.0218470561399076,-0.5798159208538586,-0.7853144965875299,0.05995346862052239,-0.15997252149008528,0.40174086595571945,0.42058088635964647,0.6792383296895801,-0.6431795104534344,-1.5841469174484832,-0.40107283606600014,-0.2518818507817246,-26.14628339942249
,0.6958313920863323,-2.2983622952125127,-0.31917901762633705,-1.7577203832903256,0.6853550411788282,-0.5770957843741045,-0.025057818112939344,-0.2093448133111579,-0.3344714311250957,1.842394519791901,-1.9274602657901851,0.14078801770494176,-52.494802250536075,-63.937180356766675
,-0.9036254874478574,-2.705297969289524,-0.29269638607658355,-1.0631261237373724,-1.3143347339180493,-0.2555964178940642,0.262355020614859,0.13737030057441657,-0.37924202766122483,2.4884493823962437,-2.2158865965831662,0.40601040238936864,-39.74566343935857,-7.039388869179268
,-1.3118387287631634,-2.784969749283836,-0.10614100517550923,-0.1250933258682688,-0.4512983616923648,0.06113573555030762,-0.34378833626703925,0.506593108768602,0.4823440780079663,0.5784483797956275,-2.475214828888864,0.3282416389933751,-48.182573370023384,18.610630794715313
,-0.30908904737480475,-0.9914451540366638,0.15023395111798948,1.9571342329177213,0.5730988473602294,0.28378767459043497,-0.7036302546244962,0.44743085336099825,0.7496479801186579,1.32452705431874,-1.5814894331650344,0.35058228754444776,-48.366238499645675,26.372454909170756
,0.5347450253681757,11.205414703033677,0.03212971794335247,2.8953553961460488,1.8733206369127469,-0.5545618116812941,-0.3175295660426832,0.06539753340504977,0.5099178079964575,1.697785660707511,-1.8404460042934299,0.4027048243145991,-11.106525122808797,56.02981164761756
,0.007216080525446219,7.571324053076509,-0.09027623066366544,2.422522308105313,2.902622318948143,-0.36567841615017777,-0.36409798068845867,0.1826039360553804,0.2498148617702485,-0.37998793818828475,-0.34204523258936625,0.351744515069413,18.22555092597512,38.56404013898151
,-0.6640194428529472,-2.297877362354,-0.2001829824884072,1.05632852591446,1.051165654626772,0.21475776129655622,-0.063875963902333,0.1937949391096111,-0.5897720403640866,-1.2887277780800226,0.6601030223727423,0.38423157318273155,38.65007527711964,-4.3113074122507005
,-0.12912137650114627,-2.0578925337606035,0.27791126914553954,0.4542264532389773,-0.22565260167008416,-0.10478024462265735,-0.17814541023873603,0.21161424634524836,-0.6853787936056055,0.12249160110338525,0.1926027756813034,0.10667045812007067,49.6497237776201,-2.8049826363419172
,-0.7092713452938796,-0.05901062952349363,0.13177572961225836,0.10194194384672746,-1.3180108334603386,0.1446146181463773,-0.15399121479276084,0.07258894291262377,-0.352783300485932,0.5086894756981429,0.3688671583937846,0.5471189587937373,-8.397756027525114,-6.955875880772207
,-0.6063447698654417,4.38379252598857,-0.02686409386178695,0.18504350021064056,-1.052648716812153,-0.32325391572901685,0.0730210763205752,-0.2911485464178573,-0.13728870079908734,1.6079593162714498,0.6790088788884633,0.26695086384183164,-54.510831320968464,8.354503626355795
,1.0899639454000576,-4.837102426232677,0.009264509954601811,0.4093643564486768,-0.1391882581221816,-0.11238036642864267,0.5762489725397495,-0.766475372772858,0.06875519792509202,-0.3814020573655965,1.9891099274627466,0.02398281860426244,1.2997430847122444,22.856460829521854
,0.4359422419058451,1.7230562673127077,-0.052817101337418654,0.757613785334862,-1.6748371893046858,-0.5426393316589654,0.41122375728815636,-0.3774856178818907,0.5404589431434863,0.4100111593534353,1.8946346245114665,0.07979913708866335,12.423304360096306,-21.88132046293568
,0.8625806101979864,2.6740416501383932,-0.10599933245884705,1.5115746970589246,-2.6990411193255834,-0.5844575198646416,-0.15341237260937468,-0.012152198645281475,-0.09177191308940397,-0.5289202367967878,-0.4077818946612689,0.17475677529642986,-4.056491266395765,-24.56735200954203
,-0.1568275157626478,2.080887386505066,-0.3033369378736495,0.30312577346298025,-1.4128847596071914,-0.5648991139995959,-0.30094614290930854,-0.14434619973634877,-0.23020851304319848,1.3334899223925403,0.07324505749921942,-0.10517236713912688,-29.83609734921907,-34.10657218599529
,0.6266017381509561,7.929381956011751,-0.07998749676962544,0.14790535073277597,-1.3647390361479785,-0.2725115945235173,0.4342537576703832,-0.2026617009680816,-0.6062168151987771,2.761723294193134,0.7440699558123334,-0.15397189675918832,11.545637022450922,22.96313058939798
,1.075965512806002,6.892746458321672,-0.28535338369764407,1.0586887169043953,-1.3192198463976148,-0.20231984101638711,-0.08668067873729911,-0.2990418238304039,-0.5858186756783362,1.1242778817116337,0.26810723687867855,-0.4897281568699158,45.342054569974465,29.406368330919133
,0.20627170803527062,-6.642565731995566,-0.0423015179609282,-0.025157857089471162,-0.8721329552991972,-0.15851950435724158,-0.30996519209194573,0.1925721968106875,0.15938019826961786,0.35846173646928786,-0.4352111891112748,-0.3610661187126102,37.50397656925655,30.309818750610514
,-0.22467516767863926,-8.024434538709922,0.4175304834706341,-0.6627284498441259,0.49743166046230863,0.13280058400365688,0.27447335832009406,0.3362920675136577,-0.2644001603852933,1.0078870095292307,1.5532727610526307,-0.12082072274031924,31.402578990462967,42.315312568660026
,-0.14155874938606405,-5.825049961776183,0.296988748715968,-0.9144459847613193,1.653013786026938,0.4351109104819233,0.10478444502988443,0.14440290898364444,-0.02968840328985625,-1.6493357428781559,2.5829650133615814,-0.19489036513415142,4.257987543223593,43.69368215280732
,-0.10751680207238758,-8.85800530639465,0.21650373565936987,-0.6279617210306111,0.28670998121286717,0.22843249126912468,-0.45842199659000415,0.3677549148637521,-0.2269164361349771,0.5916746434121075,-0.03936959260556837,0.04176364960706655,3.633295954022593,17.21314234710434
,0.9532822810190928,0.5270504595339804,0.11075995977893031,-0.011842673767269829,0.2083537475804182,-0.25026869124745804,-0.18975558190963723,0.09504943711266832,-0.5052625671934716,1.6167251278998291,-1.2568647468294334,-0.35861451607896166,21.269494786043435,17.710388077818294
,-0.552716961557124,0.9353628665205345,0.20107302850649816,-0.49518232955367014,-0.3632377497696842,-0.39438469147364574,-0.0492460130429932,-0.10778620774853742,0.09952688024638598,-0.35665457332498024,-0.7250269030431745,0.08112781236342971,22.590494050962025,6.702259092945599
,-0.11522250220756011,-8.679606400037235,-0.1395196416361451,-1.0200285913516955,0.734358767794897,0.05978139647035773,0.10361455968591976,-0.18043242276579288,0.1708161978406766,0.5584720240431411,-0.9007198031284382,0.5961262982388998,7.972347720263642,1.6493772647089544
,-0.7797751606777867,-4.952662624924003,0.049853170143275026,-1.3466908537073403,2.079025652514361,-0.40549469690679885,-0.03793787348312993,-0.17168383166083065,-0.03641407849412891,1.4432106096543693,-2.511020709517286,0.39648242946774764,-20.540293030417985,-26.328840956285646
,-1.1484608006512877,1.4125961255622683,0.09766405861628151,-0.6637001915116045,2.1994819425748293,-0.6538910595493692,-0.2950774202322013,-0.38314447868506574,0.005444065021991007,2.1249816375524517,-3.334157949783551,0.03720545942008572,-41.33139994691701,7.25618667720612
,-0.48653527046982165,-0.27008152911928496,-0.06668281650237325,-0.04082165729056258,0.9666617893982083,0.24637440880840697,-0.1791701165950923,-0.1735219961071275,-0.011928165149690967,1.7578727829003147,-2.2596995646520717,0.17271648962885142,-6.029902180051898,26.140380682648132
,0.18875023955306106,6.040536360718627,-0.12085125909319819,1.5833214578022743,-1.4116708598439984,0.7300365523876566,-0.32123754767930834,0.2817972038670119,0.4319257246642072,-0.19176049981163878,-0.8347103663102436,-0.09134853653791936,1.0130598499764756,27.211436336100967
,1.8162100367880907,-1.1101572566961977,-0.1058712785807888,1.1198403856393566,-0.25830700187395833,0.00018946075659724082,-1.022720868531909,0.6084522673817906,0.7744638755572679,-0.470762288906859,-1.9103059324120373,-0.2796675424325527,-5.735058971907254,15.485493761107605
,-0.35021366997754855,0.3143325882297881,-0.282426979123103,-0.5023935777640581,-2.1141071558668805,-0.2929183574539356,-0.34126321905453855,0.823967698783896,0.5991217382282323,-0.27976898736035294,-1.1373092259913689,-0.10097074635998664,5.644292038385327,4.533725674165788
,-1.105179859856,1.0841123816458362,-0.09882656716879061,-0.3757591332511406,-4.603678305508457,-0.4611559769168862,0.5451751767105821,0.32647115219210543,0.27781075798163746,0.07648737526511243,0.22533612259395214,0.3879168624979492,-0.31521080187987777,-3.8917027679893987
,-0.446074210028869,5.834415719883169,0.02923810291277191,-1.111946706092263,-2.16148133427406,-0.4379277196421815,0.40939512665938416,0.19836770950437113,-0.05935961607124898,1.6157145429510622,0.20642297491653952,0.4045070087933125,1.6939234441140847,-22.122290990267242
,0.23160441145671232,9.0497652015722,0.01769973842235183,-0.5625001061839219,-0.13587305165915226,-0.5747862848143925,0.46606873389803277,-0.06642940498873436,0.0669956393946499,-1.4205608032048356,-1.1341603357619028,-0.05803770085349818,1.9075418003052365,7.509473428598173
,1.2664737136337276,-0.7869233023201749,0.1359043642490671,0.2668082965538288,0.7944502956383906,-0.24842892313337397,0.2515476526945354,0.13354506300476995,-0.5157266874337774,-0.9258419212013581,-1.6363444086396843,0.23082592232245663,-7.291410792412024,-6.099100050661106
,1.7606326049090653,2.052277048525692,0.09236587412882548,1.3876843153827376,-0.043440329247775925,0.2428188911549122,0.021221090189797003,0.250631140953749,-0.3768361628149886,-0.21263155383436144,-2.0417200489103218,0.08339356311513026,1.15236579602044,-7.136704013726502
,3.3000184566691835,-2.392773885628106,0.27334022727819046,1.0973282105162303,-0.8978360182645609,1.0431220418633764,-0.012557052547116922,0.08393873147024758,0.31285774825363794,0.08315645067526671,-3.7256864646967958,-0.30335391062161937,5.007152278679189,1.5072774014552397
,1.272399683344262,-10.7194700634831,-0.18180919445413407,0.20600384721838214,-0.7293172340255866,0.45296553169680703,0.1525186819642062,0.45554006825471643,1.1331469867803243,0.06755002603091145,-0.4762425682973099,0.06888007530478704,-32.4342302883815,-38.25558853422263
,0.6251865144818441,-3.793102488896038,-0.3927218003924933,1.3799375055781715,0.06969428466128881,0.18180172887392568,-0.041390690859769604,0.8300133257341266,1.3077190895345516,-1.3086286413853918,1.2028008160649946,0.2776497323663541,-4.014537888223774,-13.900574049075333
,0.7594900745325704,6.628587148322371,0.09191867283457031,1.301977771194889,2.8438905007283153,0.26727680956074584,0.034487890703688726,-0.09475854650584623,0.7050179887475085,-0.8726205221705909,0.7336367727428493,-0.14781886982886905,14.342928579447271,-18.287119958212998
,-0.0008690427924372255,5.7116685886041445,-0.35152627571390893,0.3291742072540255,-0.44438212226839996,-0.03583404262278173,0.18288006478131677,-0.25051354134866516,0.5492907873028828,-0.23738031800011544,0.36631655239274047,-0.6252114859973946,-26.042151138563263,-36.44696195307815
,-0.3468078529644346,7.552166032798591,-0.43323106518333354,-0.05158866862614393,-1.914969393996878,-0.2354404850459525,0.38084838092160067,0.4105323991932903,0.35307058388426266,0.526583736558055,0.10277512899392763,-0.29929962586722975,6.2896385579718075,-15.64027206240456
,1.3491362866164074,5.325416254710353,0.29094419056831955,0.8180362884325583,-0.9122304445155078,-0.8784693005955714,0.27543262133777824,0.10013936054743676,0.40157318600509234,0.021315422827024363,-0.1577667827039399,0.422216808341861,7.582890582210956,-10.61933362271633
,2.783478481904859,1.9581951535577744,-0.37268170571835896,0.999546138449641,1.0786105146508371,-1.0593763222738986,-0.04731357340163083,-0.15832406806575278,0.14922795067093605,-1.3949097929083782,-1.218671577729592,-0.13912190963026483,5.156024430750769,23.076372915805006
,2.653629979495276,9.589513104991081,-0.3661745419452597,-1.2134942573068006,-0.8747670587438411,-0.7189454709569463,0.23032195752447593,-0.05595329933357929,0.3067900994238887,-1.0504771664823025,-0.7154394579300256,0.15251996050031197,20.699040162070485,29.570135162562387
,2.4559210895099644,9.873049688433383,0.03730285349469967,-1.224594848366724,0.25222152258170216,0.05112229232373304,0.18341387969065648,-0.1360800583762641,-0.35570422636557114,0.46691325012463736,-0.9275345683338685,0.06868154072061539,9.812080011973576,13.164538197050671
,1.2914684907390483,3.026091076214906,0.40108205768180544,-1.0168020963867737,1.1289416167283324,0.010256162137468673,0.7895957165246015,-0.1676244523989227,-0.34315262792569523,2.14096028324013,0.02427270143374093,-0.03220422741283938,36.62685949007013,-28.42934723531689
,-0.2480966474138114,-7.119330240219088,-0.029355263971839515,0.056464020910215504,0.6777921228834866,0.05716256956592423,0.6060107270769454,0.16400957976718877,0.2548754543519955,1.4045842325572508,-1.4363893615487717,-0.24646050454934323,10.171907892541812,-18.20247932571056
,0.9663015741674926,-1.9568288059817196,-0.2845198442166797,0.5954550500902699,-1.4604538083353495,-0.20216068250607042,-0.2667280263200355,0.1330652089591598,0.12033466581962761,1.479000257161565,-2.6574627922572094,0.40466043706339944,-12.807018047877454,16.570511930366
,0.4809928302010807,0.5806211170474644,0.06643833024169085,-0.7531653883976853,-1.0486721575347766,-0.38011505662102585,0.21054810250717187,0.3426515085502547,-0.5521180665495372,1.2120945550977884,-0.9688778869953193,0.4611970339770397,9.31844820660931,7.680060656022165
,0.8474987261005248,-1.2341937472230884,-0.19519935611091693,-0.12667178554562508,-1.0532493912077894,-0.37101681143171245,0.8335267853756018,0.9798500955465936,0.311590338929956,1.2831481648893788,0.055084045194885405,-0.17760320422642636,-3.7895148331338877,-20.480146500677634
D1,0.8130143350729518,-1.9978013829399253,-0.40564632382784815,-0.06309928020836256,-1.5790818615326354,-0.034836011895513046,0.5321221069608045,0.8007293859122618,0.2368486305142506,1.1172643386534724,0.6408805116500998,-0.3469822089567352,-15.798202594878527,-1.8474703350166295
,0.7619618620162945,-2.19082511510699,-0.40217760105554856,-1.4275780184280693,-0.7899492351581794,0.042820837065938484,0.479231784421629,0.7519336231270439,0.253914896432647,-1.2014411939240217,1.545826444773211,0.17027497427589103,-10.420878863233956,-4.341238514820186
,-0.3528062174511748,5.906326493928399,-0.21272694440835857,1.018708264538207,-0.8963096370856135,-0.3263630637263178,0.5630208102291822,0.35520380345158714,-1.0807363879139005,-1.119480328089915,0.5295476234090087,0.4076202077661144,22.221131268639667,50.12484645287142
,-0.1255298022319975,3.8242601471488302,-0.1591331041074387,1.363550077213084,-0.23902501142121452,0.24028418875998997,0.046553834590775,0.5423492849457494,-0.9125540783675633,1.6845344847652526,-0.9644988354453331,-0.6181091209052694,23.570125513446765,36.6666435730738
,0.22519251980218358,0.09813104018774937,-0.3883755908393181,1.7810571489934586,0.1899538221346116,0.8740840331947497,0.20395894752962226,0.05591806912370665,0.1988250875889123,0.2476493194876714,0.3185928934955736,-0.36734095640450914,17.506469073811022,1.8858093959708566
,-0.22348241861306972,5.071335882417857,-0.18693127230648898,2.282753258608419,-0.21349040054197263,0.6920011290146929,0.6025963235677883,0.3606578788470036,0.5527160559474695,-0.34584969678234645,0.785751274820708,-0.13677709497632135,-9.201158250829286,3.023879934256733
,-0.4433737101177794,0.9346907997177997,-0.28530820446313204,1.2638281705315835,0.340168789258614,-0.06312255269853245,-0.5498225860291073,0.6746984166667931,0.5691905873965408,-0.3139400223314363,0.2390655320806698,-0.32041114874458826,-10.949632903769404,-5.431959417670994
,-1.0149990591126108,-5.441207296524368,-0.15910160007685342,0.18646441166575872,1.5708036826914809,-0.3978786097015088,-0.8752190170061795,0.3844882340995436,0.2289147708590723,-0.8085521157748058,0.8586531295024766,-0.11459832542555758,24.774443824928003,-13.977998683662532
,-0.703688456257955,-8.388642175121147,0.24899024033835784,0.36402176968793887,-0.2817262022234179,-0.13168021224373969,-0.3771083707842087,0.01254040313043286,0.41672865746009213,0.34787943545766953,-0.3908495973452045,0.0398733497516939,-10.568954625371886,9.457456100019428
,-0.6980746183389249,-7.0930020375937834,-0.532092962563128,0.9230899020923561,-2.041047906512702,0.4588679859047754,0.05410214925493173,0.6061456286304095,0.06708396125465117,2.0719094908877387,-0.29173647212586923,0.22862151261201535,-34.95589350137647,9.000913227531974
,0.13481662379398443,-4.5547276234667144,-0.3635560113141947,0.548857996873758,-3.64980254567339,0.17423893472069196,0.7614133290931373,0.832115622141091,-0.033837089704295296,2.179905354182598,-0.1390152072646821,0.7962540338876948,-13.515490666916536,13.330158817327966
,0.7762770608680294,-1.14008002369477,-0.1072511077210422,0.43026877799182683,-0.8278625787695909,-0.2464047455694289,0.5207465948659651,0.4715117116602419,0.02886014947777777,0.9108129589198346,1.0365990667706169,0.2440520832508653,36.95828806947523,14.894975724056785
,-0.752687757599041,-1.6103107668801557,-0.22092524918201684,-0.1449721544632897,-0.7526396295941266,0.22044136872312836,0.1703528219105715,0.47054779521262974,-0.11912950177883769,0.824479662436385,1.0929786028263082,-0.03910602045893653,16.295879958175075,23.135178981637495
,-0.4766150885079241,-5.029937365280255,-0.501862175087884,-0.3532085470851701,-2.705706201929444,0.0024191182894026976,-0.02980024450018368,0.2623498811660106,-0.0384678638004276,0.950822952115975,-0.6460457689292094,0.3273675434854349,4.130999579222545,2.751486065200634
,-0.38742328927246067,-2.507502297430547,-0.3537386059110133,-0.322012259027799,-1.8241812715776482,-0.1690712050376892,-0.2383934803964414,0.1839483669928858,-0.1918389015508756,1.167571214150531,-1.3467503368043217,0.6335888698446778,-26.87236135823553,16.18755073679017
,-0.028325631649201325,-1.8174886167408317,-0.04317065071306779,-0.2826249127181365,-0.3410241295013493,-0.17653324736083775,0.22508810269114127,0.5078789225100255,-0.014782635857758774,0.3315728610616084,-1.3252480160477376,0.4337066466382454,-21.773550328398425,16.93894103174738
,-1.1536566612267274,-0.45204142546228027,0.004382482366578461,0.1607122735734867,-0.4138526094311216,-0.18846361226090919,0.605240092260301,0.49952309311317583,-0.8811092801070759,1.3122104082721817,-1.6816460147102519,-0.058540347051650864,-7.370216054140162,12.60202572362782
,-2.04044335447788,-0.04046236083863035,0.057168754999113086,1.2012701378567803,-0.3720965013515153,0.0529609467930317,-0.2023920281757713,0.14262733795879046,-0.7966066850206921,0.17343068234063894,0.46728005025276464,0.3462328563438124,-2.505098694584879,26.860980068731024
,-0.9365798769043686,-1.97540242726478,-0.27167968618034743,1.9489630031305818,-1.6934631765289025,0.8561896456022122,-0.34732264053324574,0.28670325634061594,0.7310423840712982,0.060527999585545146,1.2417024228090678,0.1601762166019685,-5.295791767014588,20.88687456563149
,-1.5416402308170207,1.904904926504364,-0.5984084667721331,2.6228404201777225,-1.8769330281211527,0.4341024307100917,-0.4251555657245235,0.269678711355441,0.24371341696626353,-0.38691156307178554,2.3718846157758713,-0.04722195837419075,7.725615370669012,37.24944654581722
,-0.9753299241572413,11.825614840514241,-0.385729052003199,2.359706348923359,0.1661006301170505,-0.2196255705291355,-0.10501933455094042,-0.061283513175844614,-0.5638783651491774,-1.4170264469368274,2.134699168352148,0.050701810365970955,7.405916365321027,51.135994465119204
,0.004560929348093801,9.394326739808147,-0.5739362915762117,1.3569806441627053,2.2346325663239006,0.18151761561239332,0.2985689486640405,0.19050556735644716,-0.42430089751261746,-1.6652615025894368,1.1796717821372893,-0.23570638997114857,24.09189892116285,11.018398225453813
,0.5531483893952734,6.334432433554103,-0.5314182635522082,1.4003109742949864,0.3406611886048197,0.010838455278647654,0.6075267061499765,0.6611362119001895,0.5917015331624474,-0.3031471719054167,-0.41717927294237517,-0.4044853251345962,-12.365991052247804,-32.2991152438185
,0.02832273582877837,2.914578311975223,-0.414580356877292,1.1040689542753332,0.22135124843018428,0.4581001921965825,-0.13816614252102344,-0.44024831045128876,0.6859974952968061,0.32958505028585017,-1.186818558867554,-0.06924644345194388,-17.0372497419306,-37.59435277874436
,0.1547622356115749,-4.432157545805705,0.0459803857066377,0.4889623097938357,-2.01661310010013,0.19154437311670425,-0.5982924205271026,-0.5833522424066802,0.13881588849592794,-0.1028359035358607,-1.6476097134514884,0.08749297195797408,2.828361040572133,-6.0718487773121605
,0.9517812295921172,-8.584413809833752,-0.0416421747142419,0.6451060599289192,-0.24836306027040764,-0.16623553688737028,-0.1699110532982948,-0.06971966104655314,-0.3510481528595105,-0.9022727414875692,0.2022348293012185,-0.45007141486213703,22.412827202069423,-14.764537896684258
,0.6420286341294016,0.16501340104753376,-0.23308078211625283,0.9964624907622049,-0.6861309248809859,-0.2049479710201801,-0.2522685932620843,0.1473895411993933,0.47129799978955156,-0.8184616186493706,1.015341786900224,-0.40069292495124126,14.497704038920464,-17.196099142788913
,-0.44442723776738724,2.045357696611668,0.01217068846208958,0.6753322575405651,-1.0208476742690988,-0.04243067794222539,-0.20811599902988812,-0.30178596866376767,-0.10862169397098717,0.3613664326444429,-0.33297873436316006,0.2939861420851142,5.48176487928795,-23.533633298476435
,-0.5275110399264826,4.994943572347965,0.14569281551215477,0.1961744836842421,-1.2316994604591842,0.1538881631426742,-0.08573371626706655,-0.5803971488434582,-0.06644108882014951,0.22403763151753955,-1.278084548554801,0.3111651819553919,-30.196844595014124,-31.517443300316575
,0.4164367636436088,3.078699404734491,0.10806438005986778,0.8525542200581087,-1.0867769064362003,-0.4134621205730596,-0.4671735913066248,-0.11046465403979451,-0.06353374477546296,0.10914823692884765,0.5188834973205951,0.07932584954991999,-36.36715189154109,-41.39164538570899
,1.077459464214099,3.8101563580382196,0.20526151473715643,1.3923846236741777,-1.9955212086973,-0.21084744433240593,-0.21516076225101846,0.10382139454311706,0.02943181821705384,0.9949942533831372,0.3536681621762536,0.5046560848720101,-39.53506546552217,6.9219443125509565
,-0.01461266083641992,2.5121536301420977,0.02086218913537212,0.25135413822547564,-0.9478248974839294,0.6177754584942692,0.2638402651542703,0.18228295074415365,0.7784404376267614,0.5887563364446451,-0.5993840516174676,0.7440108115620292,-12.993430461150759,6.874568422635703
,-1.5710755011664372,1.6636177181004819,0.024883657087682302,0.6586378567112889,-0.28621708043132515,0.317611671407736,0.4803690911596886,0.16794723808570083,0.7061784607701965,-0.8054536377150897,1.614307552390965,0.3797232910079959,35.38164918645295,35.50026999218123
,-1.8664245359202258,-0.3080060166283292,-0.43546516079545783,0.8185560123154024,-2.1125773624175683,-0.31455600807943507,0.4622881462862992,0.07959175531660588,0.13171189578157938,0.23572343070574395,2.207894915088698,0.03895915958996088,24.863262518489453,20.207900802502945
,-1.160169152384794,-1.4367471581966007,-0.4898988364674943,1.4039137864924462,-3.5335862228461976,0.033386687494485714,0.3594526279403682,-0.19638771011751704,-0.1533432894677496,-0.33358662397027283,1.9228952006377094,-0.04783412546145863,14.299211470182748,18.91893260027065
,-0.11993571734455086,-4.2535716593561155,-0.19270900818554682,1.0715820586940634,-1.428979255412809,-0.07640567165792125,0.09737146418753108,0.12265805895728939,0.14730222653492564,0.8964074842846032,2.241120878692017,0.12338204910585601,2.3321624818550277,31.55402531664899
,-0.8440965252782668,-3.915728046431137,-0.19103614842042393,1.6868768458464363,-1.358555603208652,0.1619243128224931,0.3270305402785824,0.16300292139450834,0.03949748303458508,2.331654437456998,1.456131056081539,0.19610701306777717,-6.930092637103815,21.35596341228391
,-1.0609822415787886,0.8847236629180607,-0.10418487269413641,1.1487318580047012,0.0605088540940254,-0.6024766756823384,0.20253288510513723,0.03060662149150871,-0.37447038535255955,0.5469591155703772,0.983685373401387,0.07596576626994668,30.912495380333375,7.32686507205055
,0.31078574829337,1.6479836802477976,-0.15588389941345376,0.695414385148118,-1.0345145012518897,-1.0776372476948897,-0.24632918113217686,0.07434913025824491,0.029960285765437786,-0.07310982263465912,-0.8615636116025951,-0.3553233443532452,51.51331488915433,25.179249703240757
,-0.24451125013332456,-3.729769030269606,-0.1334582741095316,0.29878474727552523,-0.6062138693350552,-0.40097246167215134,-0.15792598573290845,-0.1921348347300882,-0.123342191749413,-0.5563731139558155,-0.463738267558851,0.18622446899934103,29.520710465756963,10.249104342475084
,0.6573752620847993,-2.386565166353778,0.04816633449796853,-0.4749581189310678,-0.31674829271654803,0.07848253082797152,-0.12188072842337876,-0.06656622946706969,-0.06887444219576934,0.8587708606497014,-0.14662685299404343,0.493354328617496,32.50529827001271,5.392644339425945
,1.8874585189583888,4.2909518412770895,-0.05931109102949705,0.008284329728193306,0.26270232246244485,0.017188603445126755,-0.37079909961199115,0.07957786210658024,0.7719098491199847,0.25964101609587936,0.3636152120220549,0.38207893924634895,25.709518192273396,-4.255178224322828
,-0.03755268113641313,-5.87370922832403,-0.169134198260997,1.6177014538125634,1.738796658548562,0.2387972973762797,-0.2833661093326946,0.07733150200221049,0.6678597332801858,-0.4989062075199205,1.3803572328375369,0.1636676285144964,-5.293193395863555,-12.900516208506033
,-0.512879138749874,-4.964657416967876,-0.20217617878813632,2.4635497508158264,0.2031002924510975,-0.44262735340712794,0.4119828611300282,-0.08425079892307913,0.1991612009463235,0.9981684822904565,0.3633628201766339,0.16852307525255647,16.099147566713555,27.433172137656925
,0.4064989175081068,7.743527898226513,0.0831606491870978,0.6993934168730896,-1.434205730318553,-0.25813252147751725,-0.011319431929116365,-0.06014453835409871,-0.10264473166641784,2.1804116233182893,1.4952544699042614,0.42975331318256493,8.195330595395498,46.805449004883485
,0.42752104044594363,6.942491616902709,0.3568705930395035,0.32807459725375876,-1.6823659658480488,-0.08967888630603177,-0.06532837029368889,0.3806609557912097,0.28268171551219373,2.4659671091757516,2.6039021936727536,0.2515570509565709,-21.15911472461392,42.006872286687724
,0.23961122858531533,0.9477088002589379,0.12163265344276332,0.6095583171378256,-1.5463186253226655,0.3186544996411711,-1.6621756735219784,0.39269926563402624,0.6466673127144585,0.8561585494052694,0.3321593505887313,0.25653112006969525,-7.985945131299771,38.96418236885186
,-0.7883953911899799,-3.848311215179056,0.29918549213354556,0.546222868456838,-2.136383144301482,0.6783460539742525,-1.3823067846793369,-0.08493302348776326,0.4080838186867025,0.49396995102810815,-1.0216611037567367,-0.10389917885013918,1.1246905716221698,44.94018854248693
,-1.6861730406539186,1.9494683571729077,-0.17230935652141222,-0.393670050452947,-3.229928513785632,-0.23399824587296314,-0.04926686474279289,-0.13776534793085538,0.22845688805073916,1.37680469650935,1.0012858124743,0.05401582293390323,10.074677073238512,14.66904042933608
,-1.091376617912033,-2.3999837672822557,-0.19689304626283402,-1.754037244634421,-2.056232642374093,-0.5986268129312201,0.23352204997592416,-0.3035337320046444,-0.24454936216291115,1.353712722012809,0.6607586085747412,0.4491137032147188,-27.657818639917757,25.83097256719395
,-1.5818770507628814,-1.4118755050127623,-0.07216561310655206,-1.174739632419848,-2.1736302745870275,-0.5650564049581753,0.2955864588460758,-0.37248338731349256,-0.563914116583871,0.7674144710007498,0.7035582792067769,0.2504618660832931,10.6020399923169,20.566923027330677
,0.0011391133721041819,1.7191508562243443,-0.2314906561050302,0.665686971733722,-2.5024299483650987,0.2783511071517431,0.43380787861839937,0.2616160945784026,-0.47693905510056295,1.1142556997858408,0.04907478954501044,0.03422492749112259,16.77041244764618,-6.575187018305315
,-0.7819511865657801,-0.8708105554093307,0.03929387702243028,0.9078487364271727,0.09134674860070408,0.5145345383488048,0.23025200613786628,0.48041590530130174,0.0005687698571225328,1.6274528760195748,-0.23546787871590955,-0.15543000986100275,-13.202890391132229,-15.04106660931261
,-0.7471470515158918,-0.6261958705641741,-0.23886959588284243,0.25225503321781373,-0.4273173831535336,0.24673288468816376,0.17875299320243745,0.27384447790538424,-0.43963941989706246,-0.7415926200383572,-0.6188004292136148,-0.15527737510721804,12.502037463848684,-2.7810292900122855
,-0.026109028085691963,1.5425675619354564,0.04997449877145397,-0.29009631137372455,-0.16292771440773796,0.26677644594730754,0.07371498961553373,0.15188732691944304,-0.36115491336570493,-1.2024353501734852,0.13220160001831607,-0.28961405787572664,27.726552112174343,9.938816810782622
,1.7898367948963714,6.871457900105773,0.1025240239349081,1.0333145597049975,0.06365636238929925,-0.09722124726850681,-0.3739574634819006,0.35319523453939217,-0.028169843831970912,0.47572093218952705,-1.1892463472939525,0.09268979399714806,-28.079572324613764,-8.312933522837076
,0.5420143912256404,5.1674883198355905,0.346448544196685,1.1939936963128226,2.1706053227421527,-0.2901976853116611,-0.5064455409990164,-0.41887802885206227,0.17019717384488617,0.6717447394435996,-3.463859974692857,0.15835653680233586,-25.24862664050764,-7.621586356317455
,-0.6308663118940434,0.7263347427972704,0.04767721138277523,1.3470849974539647,-0.12923117693223762,-0.6736021840136772,-0.018153303307633015,-0.928928058235574,0.009301933657882802,-0.811748034219565,-1.7125599956965647,0.15752820409234125,23.21117962856273,-29.14689120948353
,-0.9347228328305529,0.9086199176033496,0.15465150616436107,0.5615229600525486,-2.334141407005798,-0.49574054057409367,0.42639474894345514,-0.49687535426484164,-0.2661963935525475,0.3961343162135755,-0.23676360025915755,0.37390535637000766,42.72286011424878,2.8947412449751697
,-0.30078999696271824,1.2131253558172561,-0.022337114849570204,0.8419339261175702,-2.34956923524041,-0.3814287549997099,-0.3537179498445251,-0.06954808316132825,-0.1400526938926167,3.7089563445293146,-1.9036939257693306,-0.002349297453159767,4.252556802047153,17.39882493625155
,0.40577699774421294,0.7188463562407104,0.28722462509393115,0.404997035509707,-0.7847959663901042,-0.3394401213695691,-0.583978597714705,-0.07808742008051071,0.03468077254957594,4.8229822968193785,-1.9517037797438794,-0.3419111317421836,0.7302833904742903,3.0909648831434278
,-0.04225167290929864,1.1598829577033727,0.040453870967595756,-0.408021635615032,-0.4002957148153521,0.17991543490474574,0.27167507438181493,-0.0644904926335244,0.23289108121276786,0.19371212328973966,-1.9527928482098744,0.2135477981671507,-7.340648461608452,7.952480735091936
,0.47978945901834047,-1.1340957883594052,-0.5642376092168541,-0.4339412641025558,-1.7609183717583243,0.02858444841388509,0.8035272019855983,0.18390069156853053,0.20297096305054113,0.34701888735456515,-2.769651811571491,-0.3696833545482365,-17.63454842437794,18.373235364517353
,0.6162426201116415,-0.12132538746986639,-1.1748399407961747,1.1341392273559197,-1.2275970609327929,0.5926398397317656,0.27473036028269715,-0.07494727914582482,0.10106348726529404,3.0486507527957656,-3.064871050168229,-0.5916174500922994,-10.547219739009158,12.179005494747363
,0.8966310099629725,-8.255315863015218,-1.2623761408952672,-0.0026422741323352933,0.8214697036777404,0.3909552895912027,-0.45482190801103417,-0.20504899571138094,0.10175655233918247,3.830074713813999,-4.246518431693806,-0.3946348952835717,-39.123598395584565,6.534218430735746
,0.3587697007178313,-5.34326744131798,-0.6511874860653052,-0.6470389173422738,-0.04264377814106604,0.59782864597194,0.0030478070599721896,-0.2810908487393262,-0.09437603666059911,3.506929903324699,-2.168870432550166,-0.2866646253921707,-43.77396157126497,-7.621333001141354
,-0.6063997422980663,2.9744410942387525,-0.18430469781790412,0.4104751928461711,-0.7679412733703354,0.6702227785841233,-0.16728812695973397,0.01625327908554457,-0.4473205976435429,1.4442038832844508,-0.561949466180569,-0.05386532274210669,-20.98212155729472,14.815287095279432
,-0.8685868756601757,-0.07256749145554287,-0.20737382753048283,1.156467499993925,-2.5036372551285537,-0.02485971101378322,-0.1529135956907346,0.26536716762104356,-0.04807861380942936,1.3419230765047627,0.7119576967176362,0.384090198372148,-26.5321591353952,23.924583804097622
,-0.15751684808015698,4.848173576394265,-0.2496572669275379,1.3243023202366095,-3.63334578479178,-0.3952925178952773,-0.030687131492454268,0.257209920766123,-0.0627945136054036,0.8826681209154237,0.6414992336900402,0.47179712055684825,5.931580167091636,-3.9454925508019247
,0.6914279297912426,-2.8283912118890724,0.110175731298064,0.9504464149797259,-0.11990116942620978,0.34060246894977547,0.16829582897291792,0.27759729920462284,0.6211247361396902,-0.4564194309631427,0.5335055013976103,0.25787045468075,-32.815970953912895,-12.37707554060589
,-0.11797375163093317,-5.791403839287463,-0.027799744983815405,1.1575255583556432,0.011190073913733911,-0.06528839032887782,0.4188633915814042,0.24127062893227652,0.21723707160214273,-1.1837882012749656,-0.6607369875566296,-0.1720475220897521,12.40860289614381,-8.752282898665314
,-0.4280136272942683,-11.206146661001425,0.024126222414091875,1.0473158953323753,-3.181581809233718,-0.15689707788489313,-0.19772132000899553,0.16414482810517772,0.07057369959628565,-1.5483140561820388,-3.020340999494021,0.21056164721106288,29.79367312582366,-20.976135214907284
,-0.04479019331013631,-7.889651412125346,0.4105662058801122,-0.051793181639841514,-3.383742562793894,0.04098569707491112,-0.8901163495413768,0.6116955243137674,1.0253637465644283,0.4720984146082127,-1.9589391469766975,0.5412458755819438,17.02770183484152,-33.37930370229894
,1.231365337330782,-1.994332607972185,-0.19024388646160548,-0.40897194641779,-0.1146201209296671,-0.031140369684883304,-0.6804216552572367,0.5705081288837537,0.608937575268905,2.882557521820426,-0.26690175918464065,0.5650852388247571,-28.961112090190397,-16.321726391458323
,0.2751341931158093,2.2587914771538795,-0.6408063310087228,0.534275851564582,-0.488968850279559,-0.2444539265987556,-0.20954796586150737,0.03200403856488284,0.4710010089954229,0.5646782406658342,0.11664689633210557,0.17760861338147205,-29.54826439658821,-19.25065987464993
,-1.6336577172759157,-2.2496439969567676,-0.6570659687594149,0.6920515037843585,-1.2828794352027943,-0.28036233497956686,-0.2151290990781977,0.16442835409197146,0.11775496221535268,-0.048160573686303595,1.19789357001635,-0.08165433913564148,-28.842885877292954,-26.35759437890811
,-1.696524105283864,1.2280299023199346,-0.51207369226757,0.5464948177475357,-2.3389575079468,-0.1366690052729569,0.2558205069802498,0.06859836898616718,-0.16680163578088208,2.67664958940791,1.0434648435282534,0.3714970182872356,7.3558200212722,9.9352581743126
,-1.525039821395063,9.044803638416154,-1.1120479167931419,-1.1913848043699093,-2.3551727650882675,-0.22099775605058555,0.4095753446755497,-0.14605314647160222,-0.3983201683648296,1.3088048254471198,0.08243688592484218,0.22975752147017856,3.1111904978133653,17.815982866707856
,-0.6683452541472032,4.998719913406884,-0.7369955737251223,-0.6476807141146864,-1.1997344291274579,-0.6705173679373121,0.6528620960800696,0.09150194694164719,-0.8701681562961809,-1.0804338021546127,-0.5821925506764757,0.6202495676827859,15.035024392987138,-8.732912842428656
,0.8584498214445825,7.482453378730464,0.1124366297320299,0.6304070409244129,-1.6704829996776256,-0.5238130337561347,-0.14869464199058993,-0.20955628516806102,-0.7786083590411269,-2.233481067654307,0.6631087822021945,0.1555526705217555,5.304517371512603,8.437228553649497
,0.4222776380453511,5.2105028354753165,-0.3169837459457464,0.5855589224723646,-2.0988861844700675,1.0201982701491192,-0.4127842738933759,0.12558040733165204,-0.09911985724667186,-1.7598538296526491,0.5394443944777314,-0.28821553638131403,0.9443795449001925,17.292007005077124
,-0.03599095637422063,2.236264238446496,-0.27893533897441974,0.5130777685142001,-1.6801822090862701,0.07602477637978979,-0.49654410935393695,-0.20330603419728996,0.3290619467184551,1.0599102483484482,-0.8956693457086381,-0.5369529500584437,13.46415765413533,-9.424619744359449
,-0.5424679692443249,-1.4557622315019147,0.02856789396135363,-0.6676284581735157,-1.1488619995224183,-0.11930629209737902,-0.4085788854116753,0.09687781416821144,1.006536173069572,5.284078823849288,-0.3897199611438699,-0.2933756806310247,8.411232227243978,-36.730058696783004
,-0.026864305251059838,-3.0972126209199162,0.127163490811028,-0.552441833090375,-1.0813019321766835,-0.04451001400426874,-0.45072937870898006,0.457655593553426,0.5949326506701902,3.3899141854281907,-0.6165441540387412,0.1549089528751512,-13.484037722084468,5.900453374266508
,0.0939288226318046,-1.413522525643169,-0.07043064562761286,0.8302291196884259,-2.2849767446656273,-0.13583740685712475,-1.3889624352198104,0.3661455968710068,0.27506349367954314,2.751592683893563,1.4924568871970272,0.18873677528024566,-22.88859763577425,17.000410152015572
,-0.4795179919758491,-9.743666842001435,-0.03358929347148476,1.5823790591867917,-0.9893234986513616,-0.6824225171960918,-0.9448506580576095,-0.09403716839963573,-0.12133253595912272,0.027580655603338132,1.4705571369849757,0.18577197896347036,-28.73447949531562,-12.99223508577673
,-1.543224316338469,-11.884952688169804,0.193437398714751,1.4950342392547682,1.5993591560162916,-0.5582237838742835,-0.8009122928417658,-0.2512022905234825,-0.4882068391466823,-0.0833721932208191,0.7490379610041399,0.633863398884428,-39.85129007334516,-10.580032087542477
,-1.2329608856587637,-7.765034233187277,0.14558921909560368,0.19314635817389306,0.9463716068447912,0.16558320367258428,-0.6836789473111837,0.15671833265493773,-0.11068876070500057,0.14464041135693081,-0.3078909602325837,0.4697706179871543,-26.02238389623171,21.717586933332782
,-1.3631899686158486,-5.254186052195385,0.6397032738787595,-0.16052314202037082,-1.2156262996644942,0.36724531805395416,0.13550940887674695,-0.05756825655756524,0.13666929813247175,0.2283636124871034,-1.714937912708515,0.02661181221692339,-5.456897424255256,34.776775676717854
,-0.41452425926470915,0.4750125690764318,0.34281396736081965,-0.11337829307723161,-2.522350916011037,0.9421258432383398,-0.09619495863310353,-0.044010630316544744,-0.25568983256907796,0.406952309548519,0.19393049882434937,-0.06556879780185404,-10.96244023380118,12.460625026644887
,0.7960449809232955,0.6950421294024669,-0.0678172530041967,-0.16088740264877024,-1.7184206610037334,0.43992186815384093,0.7484499605894498,0.1428261216917628,-0.2622909521362214,0.49558223743956853,1.1680901900226068,0.27163596105990884,-18.72480234437131,11.46483168135994
,-0.34226131981311086,1.2122378649071057,-0.1974304402471679,-0.7976570050442192,-1.6492992071356776,-0.2626863837334107,0.6664603497402232,0.29584632591556664,0.9788768913739825,0.816646453001422,0.4430410105880257,0.25652162001576534,-1.9435785223807993,23.042396374743266
