event,eeg.af3,eeg.f7,eeg.f3,eeg.fc5,eeg.t7,eeg.p7,eeg.o1,eeg.o2,eeg.p8,eeg.t8,eeg.fc6,eeg.f4,eeg.f8,eeg.af4
,1.0162184405419294,-0.7951771405231667,0.5256170915866846,-0.6402669192294869,1.4310780387356536,0.27066757811298653,0.3613877506800648,0.19704475718050657,0.758540933455685,-2.469208964211371,-1.0705041726207052,0.7047939685370438,-3.9431459605853925,2.0304579110265197
,0.05715923494680174,-1.8973810291775053,0.631781172212157,-0.6507189799619322,-1.2497547120192622,1.2976797090906749,0.39821892959703287,-0.4307572256462462,0.5608918692867061,-2.1679953469696622,-1.2413133152122315,0.4005608063785062,-2.9014968803678864,2.6851214356583863
,-4.936945001809302,-0.4719441780268824,0.3545148415643187,-0.5053536513776951,4.30506888790212,1.599284974745043,0.39654053657046356,-0.6051813285476926,0.023139573733822933,1.1225654166845118,0.08810395395994107,0.01465264605969406,0.9385831672161824,2.472554837483791
,-3.9000697680439553,-0.7651291169302666,-0.03549229391365538,-0.6672395914090614,5.307639211871695,0.6238959710909782,-0.07336217484265231,-1.3904523267096074,-0.843224918218616,0.3719752359341564,0.8034343399957735,-0.4181261165312764,2.474798345226658,1.9954773945818527
,-2.2096135304354516,-0.05396058833550401,-0.04339049484515576,-0.4068946916555769,10.220149789488916,-0.90623525421825,-0.9485276482179033,-1.1491885510320892,-0.9089881417260095,0.16290581595396783,-0.1267798503115503,-0.03468525916555006,1.079905468590319,0.9824129057134893
,-1.298450660304037,-0.6165684045702259,-0.08895058837404075,-0.4050468700065369,10.23969676422024,-0.3608051781188234,-0.8414082532901165,-0.6281947785070501,-0.2584983717872401,-1.326945424107031,0.2633490319269573,-0.26003322561983105,-0.5629960551033684,0.6301243849587685
,-1.810206293202638,-2.11621923152519,-0.25610976357810983,-0.40077035317706644,5.22225537929794,0.13319237568989306,-0.8474069662045811,0.10411972405492574,-0.31082218989512955,-2.7254327203358675,-0.4639629395714574,-0.0416871634211387,-0.24774642757429494,2.159700956697156
,-0.5035166502029378,-3.8899555132314587,0.2265352519273074,-0.4470272087586636,-0.9136108591039648,0.3122365226653333,-1.035656474595617,-0.11161189547592895,-0.41024340645829727,1.7366970205494652,-1.114318534759594,-0.013249692247243082,-0.557763883240652,1.7386229057721063
,-0.5821081659789764,-1.931014683379548,0.061889275116262805,-0.288588725455195,20.307005945356497,-0.028233809334897247,-0.5059530499911215,0.18886938880060114,0.5484258804397324,1.239268145819498,-1.0498795118274544,0.19027001115473288,0.5865090082218114,-0.1114300446988494
,-0.5080064125087128,-1.9171547673501994,-0.4316637841236096,-0.32869844739948356,18.868001348231818,-0.2891092708740282,-0.8104912868979052,0.693304368854857,0.4194462116208911,-1.5129723402047135,-1.1932431583893879,0.3734120462174703,0.22020868589824996,0.27692859527756014
,-0.8102487234235888,-1.874835173834866,-0.7680422544433463,-0.41900134510607195,10.204893517846296,-0.38387118834241307,-0.7122718968077916,0.1905684148863104,-0.18213468770585345,-2.1162121966098932,-0.9744999076579703,-0.10956100991558693,-0.7496671256023281,0.7700872084739374
,-0.22878618141957677,-1.0344602263245395,-0.19021239307905075,-0.2998528146385196,5.762719712223305,-0.5022917136852108,-0.19115764573061553,0.22873423948158492,0.6581516799328315,2.608751586292167,-1.4374242907996748,-0.3688191395081883,-0.9752918506184065,0.49534577448796496
,-0.10006559845643279,-1.1874214386700142,-0.4637201177884916,-0.1456643893001277,-20.471982964188125,-0.24718500068819996,-0.38901375122099396,0.8337906823103538,0.7525803746610603,8.713126393459252,-0.94003236551827,-0.031562296105889266,0.12992270387038882,1.0244896011067208
,0.8318920168155933,-0.6474103551958468,-0.46952243422880546,0.02753202454716918,-7.959914964785623,-0.6071876865222209,-0.40665454567436166,0.7673031033753596,0.21753325813521995,1.5646040805175248,-1.7547212476627359,-0.13312637152196216,-1.2752230396451558,0.16424329251645461
,-0.21315592176668519,-1.3621268579669563,0.10032548722533148,-0.14228901081379772,11.118890789514193,-0.10054313046916181,-0.3324814640106742,0.7825305505320136,1.2200252694771347,0.41253015105796387,-0.9663029659622452,0.05449857236136073,-1.0569698632385616,0.428081037233428
,-1.2062312366533927,-1.8288758705166157,0.27172971955689185,-0.4087124344324461,8.397542858916724,-0.6953756219218092,-0.41893722197271444,1.3930935335700376,0.9983037562840508,-2.283711195366738,-0.6598938921804285,-0.06559143140253638,1.4033340256212257,1.6576329189705183
,0.2450891616451545,-1.826603016249356,0.756109918589514,-0.5372749454997621,-9.09735551261168,-0.7318804477697848,-0.731793914725511,1.208784452119385,0.02341090426848575,0.6577231116753548,-0.9441657555346823,0.0954045590468461,-1.3782612496402105,1.0015849259287848
,4.040171961781896,-0.20579687591117346,0.712400936897716,0.37584633434842246,26.78265681310266,-0.6463903175504716,-0.36353786604271887,0.826926011604928,-0.380267732399985,2.4707062517244247,-0.5065417034925587,0.1414318029534169,-4.281699634098911,1.071278756504102
,2.299507688948709,0.7911687950155522,0.3325373284075566,0.5982595111556307,34.79654610718612,-0.785329875432989,0.41006961264874453,0.5423085204176218,-0.4893732856714473,2.736394402761668,-1.0744041900919932,0.4676678069808329,-3.5679527994816223,2.007756221603451
,1.1452970505150097,1.2156707924257786,-0.3062492124879417,0.5625330963465536,22.653316538329072,-0.5602223516378257,-0.09821082080410905,0.5340690056531812,-0.6802697951909004,3.1545971450399333,-1.6395130215874842,0.36717111882010467,-0.2698075049954962,-0.641330054469667
,0.39427149965855457,2.472742510191024,-0.21016507782366747,0.3784800527564621,20.84257048009092,-0.3550595580995351,-0.46208294180906023,0.003531370244969916,-0.7603029681413221,3.9650831356828293,-1.211103669506864,0.38459953044743667,-1.2153446171466256,-1.5739019360518913
,-1.9574866570821754,3.870743170844939,0.07481636580835509,0.5526827420175816,14.12599057204726,-1.0279511193196995,-0.23118696697539318,0.7493928615929007,-0.24556038449993908,1.4140876622788774,-0.6296662329518985,-0.08874240639305968,-2.8192839977258903,-0.47830578272534935
,-0.9553841016995028,3.329694260240667,-0.29788474123037767,0.010348022557243472,0.7509266033850154,-0.6098267673604294,-0.4483028014557501,0.005392103755797766,-0.4734061240927052,4.115639903446074,-1.6595602105613356,-0.6088468829806556,-2.2833429365473434,0.1765540889867989
,0.5503459572567795,2.544354681740989,-0.6642939799986449,0.2879422138231025,3.468694893323096,-0.3458502594681842,-0.35789089632956766,-0.555192547465166,-0.4905206195719511,3.9852106001444794,-1.47396482118827,-0.5877182505277143,-2.619993519703883,0.950123193070389
,2.552487590113815,0.6431732589780447,-0.6637167542351181,0.33759212353625806,-6.059164294229479,-0.6477772239246875,-0.2312724553704166,-0.7405686272351334,0.8528393518465129,7.341409526012698,-0.7672482974926749,0.061069622279448656,-2.982630974005098,1.3552861844677604
,0.48215767926303493,-1.1349370199036342,-0.5807544043021837,-0.0938721762276718,5.544747091929588,0.6787631425831647,-0.3654100832742211,-0.2507036688773409,0.5877669615389787,8.412711319781737,-1.417688148930719,0.5243855780015871,-3.127260289653334,0.1699641195972136
,-1.444960475332886,0.1082867584040407,-0.49612018649892664,0.5413932266652293,6.238076523612351,0.4022297979335455,-0.4168328924472442,-0.5217197685145569,-0.0439147010104065,4.4030574494780925,-1.9306177134365285,0.5848471033378764,-4.079402504673709,-1.0467858484989345
,1.323931225778913,0.9664407456443853,-0.2957607080503351,0.11928760039003332,14.098690884344501,0.1254741605284783,-0.415119719448475,-1.5498086185839228,0.31209062191194176,0.20859566730382637,-1.5391127284987807,0.5212789998840028,-4.623671115897511,-0.021640803389404637
,3.0559373967148606,0.19972019729157692,-0.09779357311852313,-0.518358915357815,25.26892900056679,0.09773742348931852,-0.5424388796236432,-2.194014385040087,0.4054499925452868,0.43555262434273223,-0.5872829883190446,-0.10622867105560213,-5.41861757657846,-0.7425315035597112
,-0.31062637400895526,1.0612787623374347,0.11140503080809488,-0.7037331361983049,37.74283317089619,-0.5240761597106325,-0.9638686683565691,-2.2804275877083153,-0.8678316996944211,-2.002602448039959,-0.7912896829367063,-0.16296255602731163,-1.8421929404222754,0.6501518974351007
,1.1598829757412223,0.4015398556829072,0.02459964665220618,-0.2850156936414491,21.985034162188985,-0.7075834313785554,-0.5652543229993255,-0.5951927115291167,-0.283031214878275,-0.5768903269066014,-1.2911194169693043,-0.2966353083805907,-3.7445108815153727,0.7350634995826699
,-0.7633280589435949,-0.5445390985053764,0.0437866381526477,-0.3890010530397787,17.95937002176212,0.20001797824990153,-0.19419636260117012,-0.5104456710969356,-0.04913194010021075,8.771578666262178,-1.8646054664027825,-0.33400199973914313,-6.650349086321463,-0.6882413971754755
,-0.5178485347970384,-1.2624149059388732,-0.28250404662750006,-1.2958460776336664,13.945206702623983,0.3439179849851164,-0.49454929729133307,0.021760284623957123,-0.3933325946760608,0.7853129959661713,-1.1690006455115112,-0.2022472112567309,-6.4329406018851225,0.34474768275226864
,4.934433151686444,-0.21796223883764615,0.04832294075701106,-1.1600485877572004,22.436704475256832,-0.6458099179133399,-0.553790844719242,0.9352824011634026,-0.7747579372030133,0.9011230639426108,-1.2276469718515761,0.1354239324269977,-5.801777099174804,2.2271399160569567
,1.0091144703546746,-0.8406994585778252,0.04755856343916504,-0.6343306485594896,9.385922331460439,-0.20450275206510302,-0.4852558529600935,0.7119932823484791,-0.5489604140606693,-0.6628190478528792,-1.1254921681398182,0.3315226277314735,-5.8864440916404375,1.5187433136492614
,-0.8456615591772748,-0.8481568316365127,0.24895570989345905,-0.5213991759399647,0.5539401417814003,-0.15526840058808228,0.05352514662842337,0.5815912045733628,0.21779756675131867,-4.223710146643694,-0.6177047056863504,-0.06821084801518379,-2.8497850920174823,0.9523287167458657
,0.49692051667084125,-0.8090754049939333,0.14601209974250068,-0.4752567057155072,-4.251889857789803,-0.21067863871977535,0.24384891734947886,-0.6224323592922141,2.0871159460098307,0.9746569185287535,-1.4251463195756535,0.025520124885748,0.3511169544540835,2.170518398232251
,0.5876870956622328,0.18954723633244522,0.2627031068454132,-0.558976106111215,-0.24050244963476827,1.0490286868093905,-0.03671923411809084,-0.8170636084274474,1.2268899465978127,10.24656619916018,-0.9355269652419609,0.5482571515037119,-0.6029970380241405,1.9611883212290262
,-0.4840497895746438,0.6074557500482201,0.09698923604343883,-0.4883317299813601,-9.479177874483252,1.1122689645560673,-0.5311796006235237,0.05637384576592705,0.047857737276918375,0.27049241010445807,-0.7064539523578701,0.3104787422068816,-2.0685448357887353,-0.5977004915478303
,-2.076583855707212,0.5256922328147454,-0.14117157681165177,-0.8325332833279714,-7.352021366722516,-0.34305170083932846,-0.2838329806074222,0.303619720075221,0.6017968270818443,-1.5487939049774713,-0.4589891285072796,0.19102229607801213,-0.6841020515835676,-0.9633352696476879
,-2.1946479771435814,2.341335909771585,-0.08501727309318174,-0.6746849399245386,3.797354245133604,-0.927670328565887,0.08931505457577993,-0.41945256339421344,-0.035213532218089344,2.8660946967685823,0.7138790466984765,-0.10615622860701278,0.9516477555012857,0.35358447012293504
,-2.21330745199744,1.0659854154334643,0.167872013381609,-0.8749016812604745,2.3454615629699105,-0.4619851661784052,-0.09196407946135533,0.4127362448894256,-0.22911264477538273,-0.6100017421787124,-0.4312358787550691,-0.9103768401528782,0.2858553424852732,1.4575442869529132
,-2.5119732410477025,0.580514634298849,0.3242316711635861,-0.5530008379316147,5.072920416413445,0.34698810390917934,0.05371085565634844,0.5777501354505129,-0.03481532417481331,-3.777059207923083,-2.023972468997597,-0.6893201254106771,2.343514287963304,2.3546132339207078
,-2.240027819155505,0.05203861327951616,-0.014986746464353178,-0.031533625404745046,12.214654328392683,-0.31752510411685414,0.015512363025277828,0.34365742749184236,-0.6508382464460056,0.5032680138302482,-1.1853948494528472,-0.28880923333368974,2.6250952809428654,5.422757071508926
,-2.187839160372745,0.9881430094280738,-0.19076320189359539,0.2532267173991474,12.989521845225761,0.17330770672252943,-0.4709151974249485,0.6114687980122107,-0.12305734612017075,-1.3669197778282687,-0.057735366573525244,-0.36682651903460667,3.0522682454704064,5.272901752087283
,-1.9139396572854044,2.742060862712655,0.4603267022148914,0.31865305648587006,21.08162747149267,-0.21622095071975192,-0.6181297682286435,0.28649475313716133,0.9037551214028401,-4.516380504554649,0.9942472836954199,0.46469879831966837,4.263049505461173,3.404359749838964
,-7.489251025243333,3.4897170416373675,-0.4281339068013077,1.163548052328,23.668313646592054,-1.0195730969568513,-0.39082214897332873,0.25360444063551996,-0.34268236993695894,-3.7220813639347874,0.9157547480968109,0.0856030769575471,2.9968044895957826,5.301302532672167
,-7.5304983858152035,3.5544618440384106,-0.6658513779551686,1.1687006668315647,20.055707431235714,-0.7486008514257824,-0.3410685331137885,0.9296130299029705,-0.2873835281915839,4.523555907296467,0.9482407088814494,-0.3017883092587604,4.341743711053871,6.178598662244349
,-6.4415764367900294,2.1384461730188793,-0.42256060305967236,0.7966685689846364,7.320014107516901,-0.3895706232526422,0.12832801263777022,0.8670706770943528,0.8840627929125897,1.3586889286135038,0.24150920614663837,-0.7438883608286071,4.460272153767651,6.465547677857146
,-4.295620843965287,3.7613284254730686,-0.5180654170368998,0.9135782762262339,22.972303803505255,-0.3553396677407642,-0.8138202363183691,-0.2483547221329393,-0.00938504196228378,-5.9548178158754625,0.470477287469894,-0.9281119024290732,4.218042407367627,4.832464657370082
,-3.5013433105079392,2.873737521687075,-0.542986012405893,0.35300099454747136,15.742732967411849,0.584994092999576,-1.4593361655870651,-0.5800088570302534,-0.7853241022465949,-1.7687450432496898,1.3695110993105961,-0.8242031113977438,4.561254633718082,1.7732674999668143
,-3.2559038762455406,2.518139792424314,-0.25607382258952954,0.5822347350837502,25.292483774124015,1.0594382519857228,-0.6064285556682236,0.12745985160437226,-0.37458374328973565,5.414273374329151,0.4400526670963543,-0.24513907706320268,3.997576145835117,2.6130735088544523
,-3.27896287355094,3.288949705972695,0.09917583131098523,1.057418067340234,27.065471779787863,0.407214410620914,-0.06956315478288887,0.7376038491446946,1.0740614236760002,3.4684767545122597,0.4229342716437603,0.4036444763446268,0.8718605020741058,0.2965663803919603
,-2.4497706649270565,2.0651642219924047,-0.039194187393253234,0.6872329187287388,18.702518876805772,-0.37156609386347794,-0.4882439819910538,0.953861215710162,1.8815422153055525,4.329747569352197,0.597646775685176,-0.15038020888078768,-1.3960586014461134,0.7451672253229601
,-0.22659968657421195,0.5916909027501827,-0.20259091989683584,0.44828468354233386,2.344157650220089,-0.6866578123759407,-0.6152899962780127,0.5380085794531471,0.030373543232031685,5.1565060023983325,0.04004263257958234,-0.2758792965353066,1.0037174569887146,1.1399860853866537
,-0.0898185766022191,1.4724760383001136,-0.6097816545475623,0.9454143892976365,21.123872889952942,-1.1870792038048033,-0.2999057685128251,-0.19748369487042133,-1.6803242186106844,-1.422167266101162,0.7974563572474538,-0.05542838269003947,4.31048938083654,3.8876326722018457
,-1.7634871445879496,1.3061344927646792,-1.024628656248211,0.3696346761844031,19.370144614457292,-0.7411960859926505,-0.5390133079552157,-0.36393105183696106,-2.271755405526522,-2.308810905200261,0.710942591125853,-0.7492997674223008,6.525687747559203,5.68611813149432
,0.9173067831942828,3.098963639449058,-1.106540051610647,-0.1752266733359212,13.500279725425138,-1.0336474545106653,-0.5071404391195398,-0.9141093496126877,-1.5990646705846032,0.3990769421856409,0.15495131566925846,-0.9919446597833105,4.535836127957912,3.2577801861266
,3.2033294970530695,0.9055493001568351,-0.16879269328031948,-0.13357114598293834,15.515717694760896,-1.1468957477640833,-0.17073455808200788,-0.9576709881444915,-0.9736148872175329,-3.2838465659208906,-0.3416494472283803,-0.8656362512181568,1.934989045356106,-1.4832823839257734
,1.33054186176183,0.6367492496944642,-0.0648959539232834,-0.15781679270268953,12.879765279311908,0.41268275915530916,-0.009617974892175444,0.5182338888989184,-0.02927019046772068,-4.591831707256059,0.6359082328760278,-0.07460671003086641,0.46250217584856285,0.038226263505987
,0.823921258872828,2.2445078831987315,-0.4253295689824326,0.03979364480622606,1.8289352091570905,0.39657078183875616,-0.48936743028469637,0.4264068935460725,-1.083641695004867,-0.9739723311924066,0.7460673444907523,0.4220050920309486,0.4596350285255221,1.7206745001365022
,-1.7675125397043385,2.1857511019217126,-0.2547480416959886,-0.09336485732479488,-3.298139742135787,0.34253038009350834,-1.0713823400059617,0.39355402860614475,-0.8455679336588846,-0.9476935615203081,0.41537322385108766,0.3570411831361248,0.006004705838411596,1.8492022416116438
,-1.8283074012819047,2.6143575361933213,-0.2262083369503601,-0.22243470431694165,11.724994329415933,0.3120496873749966,-0.7017451581606173,0.5716316508056182,-1.0308999023928205,5.143023362776125,1.089523060295212,0.5437075531941653,1.2060718583544476,2.0579601923477986
,0.26820741992372626,0.5066200131887394,-0.4939417348850115,0.6678889167067436,11.320153519141757,0.2416889329285067,-0.4887934936492654,0.48082026230964925,-0.7435731326766455,0.7492542443495126,1.0555014921533137,-0.017063561468587316,2.121578215975656,3.873845555409938
,-2.0271241228115127,1.0294719750383472,-0.20302807689867244,0.4434977737318115,8.914258637282396,0.585798811922448,-0.24712060840306335,1.1311680291324187,-0.004466367026880932,-5.817803217885716,-0.07955049904389835,-0.5167314898210666,0.24539881465145594,4.0459672479403785
,-3.0805182250925016,1.8973974706939958,-0.40344786664708093,0.6278694066957672,6.293411589239199,-0.06991939743737546,-0.3025819602772218,0.22300489387470573,-0.34211529615505476,0.2638923677039419,0.6701214312224889,-0.2427643070945615,-2.5219138444747986,4.874838498914536
,-2.1976454367565044,1.2965218930731246,-0.707299560367967,0.7788824895424723,-4.27803588362689,0.10874087786933707,-0.1543008829832953,-0.21583146707441916,-1.18699794428212,10.362465444236262,0.24320099047167373,-0.23262330752625676,0.4736758138424351,5.556801608460884
,-0.9009855393759848,1.5913980573812139,-0.5232370394945871,0.195274045063286,-7.2111853374963415,0.3576449400156179,0.03353252617342278,0.370030798460193,-2.061262724979604,3.007434862066268,-0.7418417410175379,-0.3814383054202139,1.3248742601952157,3.21169546263763
,0.49149144024635455,2.286850102024703,-0.05875456517271884,0.46615855644347515,-1.2191882266114853,-0.6439501817640835,-0.3351244200562722,0.3139644253194281,-0.45004053501254476,-5.894951426381639,-0.0313632623476426,-0.06792916401165587,2.7406466740760784,2.778627236077972
,0.16715283433051578,1.0010392205252139,-0.05611521969333828,0.8432653626101057,3.242627593967453,-0.7975224528209076,-0.4524715935220663,0.11456586304973115,-0.45690034360159276,-5.266462726998309,0.7569049996756231,0.1682470452989021,4.017536227050396,2.755676116621788
,-2.2473117007712236,1.0003055293845344,0.07974859202780059,0.9890084007718216,0.26497750318477625,0.43086829677778904,-0.304520595796273,-0.2679017508524925,-1.9604337870531514,7.355195425985581,0.6704865721034594,0.8795123258498642,2.6492931955027426,3.055760348970621
,-3.718153454858755,1.069138540845247,-0.16501889962258273,0.3314278669675917,7.057488387616714,-0.23414461547304719,-0.16851910930396669,-0.05951028320234702,-0.9939092252110711,6.995175444421529,0.7838912695829511,0.4986887252769854,1.3010610798971265,1.8435854857849137
,-3.3758374181251978,-0.3603861236322127,-0.7979308579039119,-0.35637619066988624,5.703731057764607,-0.4877835818869136,0.007136840143927761,-0.030668390256080685,-0.2921976660172101,12.545024503677709,0.3392062540863899,0.34163760662899384,-0.5531175924718574,-1.1364095103316307
,-0.4424318390794935,0.18815994310805118,-0.7333810631565065,-0.4924333916392986,-9.201665431974053,0.6206186655473508,-0.04723753287293147,-0.3609087798290331,0.30931919570870997,10.991010106088128,-0.8486969851233073,0.07993798847687907,-1.215628270783226,0.3549198625175422
,-0.1600237742770638,0.5096987579304243,-0.3083103265829319,0.07073880825704285,-0.9053758429487861,0.8623642622368346,-0.20000650270905368,0.6166041421856312,1.096291923141705,2.0904174077730264,0.21222574562031107,-0.1065541699865749,0.8472736371681384,0.7258209973698044
,-1.1746226952806247,1.3258879770522636,0.17272136333981356,-0.31873594695832785,-11.085087529283765,0.050220184988006206,-1.5022062909038918,0.705593782304547,0.48997797402643134,-0.3144758945559237,0.08742617475289692,-0.41290151792944896,0.11586792158419922,-1.0053386757484453
,-1.4469474262707867,2.185862652592452,0.06959415290175534,-0.8363277881533284,-12.9970466631069,0.34634632406225724,-1.461467944570797,0.8321593492572565,0.04142449552075053,2.0172431283030465,-0.9263015317461947,-0.013115623160817257,1.5518572567905384,-1.1150409591523427
,-0.5271972867092894,1.031927764705559,-0.032159999140619226,-0.8328024783098452,5.002938726675072,1.53871737304654,-0.04296859741320844,0.3557893571817446,-0.49480708202026547,2.411193646317094,-0.31400491542179637,-0.13077541194698442,3.3761696003195802,-1.6715119896603272
,-1.160960214763623,2.514887974027006,0.30550426852422585,-0.25527060076755465,10.17753841673747,1.2284202732763094,-0.13404996539592845,-0.1065302479639511,-0.883958430742912,8.718757726804428,0.06233844659463972,-0.20994123729502415,3.7593747828129844,0.2099684055596636
,-1.441412164720314,2.8671930176417497,-0.38469076709679306,0.2468707107757664,10.96217401089635,0.3963118180238484,-0.3664870475984667,-0.2695254430396168,-1.3256888407685226,-2.1671988641726436,-0.5248424428431738,-0.16026474168532592,3.034474129942251,2.249305745664836
,2.6232778198600433,1.036352098201702,-0.430223988905626,0.8017201656748421,22.21918887430816,-6.759143058154896e-05,-0.8397340479907439,0.6361390622027766,-0.16080358768175737,-1.5220041741029369,0.6125877735911163,-0.02437349164696103,2.933424515740952,1.029817911794822
,0.9490653261053877,-0.8893447729162562,-0.41112298003865555,1.0712285254601215,15.417002262975222,-0.325997637967523,-0.859985328055222,0.5958048488149149,0.4175343157812371,-3.1641561544151724,1.7659183530209819,-0.11750147561422376,3.142906161404252,-0.048246201394210285
,-0.5997936904053913,-0.6590732734584535,-0.41637450341418086,1.0202744308596337,2.4069706477692354,-0.8298802713742324,-0.754903248421596,-0.1958404222328168,-0.32529205989592874,-4.134138010548279,0.9116047154141693,-0.4902280757213721,4.812193824793043,2.2296784193143138
,-1.8542978606398945,-0.11209787531690829,-0.5358695965479743,1.449596812233797,10.271201085473312,-0.8256202774618764,-0.41404006087389894,-0.10613612982084958,1.0672568292399869,1.7968058161863252,-0.11024993840556095,0.006801921366983164,1.6138587263078643,1.3400938524168446
,-1.8662787032972366,1.7033867965213074,-0.9154924115146378,1.0002452499013483,-2.2605161558094045,-0.718846732559543,-0.23894921093742916,-0.19369396121587576,0.10363037998901517,-1.836779878986256,-0.10531426684582468,0.10696216818861201,-3.9710159015827204,-1.6800612871292206
,0.4541113617249807,1.3761313830256348,-0.6337899665914143,0.5552473748960284,1.7486272082520942,0.4970850227706636,0.05101798056884048,-1.2461778801382564,0.1508188389339769,4.232846514842035,-0.25304352519244294,-1.007892768196733,-1.1128957071744154,-0.42861683812840434
,-1.170364988498547,0.47465194619834106,-0.462688388711917,-0.15343083646353198,14.765556355592643,0.30890402242528925,-0.08675541554609738,-0.8494231203142218,-0.686039053672195,4.21883926260489,-0.4159892644011642,-0.712054577229621,0.7400664609152922,0.7553311504002889
,-1.3715019726737023,-0.15666960408947603,-0.13909548152016243,0.1384685538182414,16.766170926708863,-0.12225819449225572,-0.5835416802258717,-1.0636014790568484,-1.2464398086620272,2.1320149658876715,-0.16640584949129686,0.041732969407619246,3.503992116895552,-1.3800987808711345
,0.20217827901852117,2.459595542401495,0.4448294753580294,0.3652851225389537,31.972175100420635,0.9171774468295786,-0.8299345633004624,-1.1923742794786378,-0.32622202364555003,-0.008259720415267959,-0.0732011899877094,0.37276924513226917,2.7761812939856783,-0.8112836941669256
,1.748499996004083,1.2784857035720656,-0.02998750193174891,-0.20025890866219737,15.63335179640068,1.463299786237025,-0.4078134729064877,-1.3343019275006684,1.1464670616699053,1.226404200553593,-0.7917790870958517,0.15929864138370994,-2.354090224310129,0.6767055384787715
,-0.46168400936228793,1.4784589812881725,-0.427425032618316,-0.12323840246589267,1.4359735249062064,0.032761470866494384,-0.24544122288167855,-3.130501393094768,-0.9988482738178623,4.113201823850479,0.6100040461341524,-0.5510109083358944,0.610753536297516,0.6625222615826656
,-2.570548038450069,3.6616318630987617,-0.5859324649811968,0.433395095110216,0.3658011946260983,-0.24094024535134162,-0.21499386421250433,-2.303391344950285,-0.8063260890831404,-3.423915223557504,0.6722502143843678,-0.9665944899890416,0.7234642251419946,3.491698723978437
,-5.189841994685208,3.5141566443528864,-0.0735105314533169,0.4523875478822534,11.494876973674309,-0.3198830782101115,-0.15353633584815907,0.17606066406710946,0.38659806369587146,-1.2575405307448568,0.9287587183709843,-1.101226890702961,0.19615133118412342,6.325463365163093
,-6.372346973396941,2.726522543593019,-0.7707567116807537,-0.2012713288447343,0.3775810742005016,-0.11077240171271191,-0.25169013419704833,-0.876106673079979,0.2628236802486888,-1.330324524940465,0.7769346974995238,-0.8870734436603633,2.6236792168535374,5.252400088416747
,-3.4523110230501706,1.363241054806198,-1.0915020332560004,0.11349141640002701,5.654152483238962,-0.9106482804504996,-1.037095378020118,-2.4486701619869438,-0.4995779278925753,-6.649017205788798,1.668897542585175,-1.324355472559518,2.5775575780226903,3.003513664588426
,-0.8379090976867525,1.1850797167810665,-1.0298502050302043,0.9480673635802073,-2.4105540951344646,-0.6903552236470779,-0.9221636589618772,-2.7440460307355057,-1.9425275012982521,-8.63791947046708,1.0109023388136453,-1.4311962622016148,0.182237049309848,3.1016204458086194
,-1.5779015247166195,-0.04582032709154082,-0.3275814573518021,0.4603063326690232,-28.987799621801653,-0.47806785917896827,-0.746085905648733,-3.378258045087244,-1.314807040575495,-4.762694574918734,-0.2501335752825544,-0.7225396818146586,0.6951410472003741,2.4687553716808273
,-2.327406324557376,0.09765037125181235,0.06336951933520656,0.14575337764069016,-22.12323506612911,-0.19480227272059739,-0.6892884191537783,-2.074882443535382,-0.03974759832579469,-2.6041653405016767,-0.5538848792124644,-0.3256721983384183,-1.9387125100803497,2.6124261311053427
,-1.0419261918970935,0.48740561570210816,0.0707996158066812,0.4052862576929359,16.817265803412525,-0.11877142910614456,-0.5823315705799355,-0.4199176029200657,-0.16906433537533214,3.1238153410937284,-0.43329748443085286,-0.4567206211991681,-3.021974818365511,2.807953162353378
,-0.25833591842728476,-0.1077371443968115,-0.31729826523065907,0.12266678980833,37.84916114632831,-0.9123949928515959,-0.8358245645615774,-0.6657483864876814,-0.6147892751156955,7.249302021870283,0.023089659334699576,0.016123373953098066,-0.544898180274559,1.6529810467925288
,-1.205631703023395,0.6211775452343987,-0.15565544575018248,-0.13213034456513645,25.909947575106404,-0.5847428562398536,-0.34456913153595825,-0.4493063746572441,-0.06500981773365506,6.287703573865785,0.13658294060518258,0.46970832423681996,0.30162397790609574,1.5880393655810248
,-4.445541401157512,3.2436243220086176,-0.24656733889206395,0.4397870289037468,18.880362635682346,-0.30898459078033147,-0.41736358342106744,0.6790521806620885,-0.8337491008833149,7.748897861129037,-0.13276582758693634,0.14957881501480705,-0.9212491835608794,1.4690559612314613
,-2.890867284231205,3.3238791662071443,-0.12904296086842063,-0.032721998820630774,9.929252090683878,-0.15475372053632397,-0.5987185912418017,-0.9908695935621171,-0.6794939355963437,8.78863478811129,-0.33313326850697894,-0.07645461596695688,-0.995496915406361,1.5700949049216977
,-0.9314385734376226,0.6680688580486805,0.10667858481249466,-0.18118627431344078,3.8542752130260913,-0.011652589772995721,-0.0111904325386082,-1.4243389497991767,0.04865349248951843,1.7622855968272215,-0.10515838291958957,-0.06839587309184111,-0.17212333606523822,0.8076258878888615
,-0.06946349220226082,-0.517414465484706,0.327505054091895,0.6395589676921916,-1.4944575356160936,0.013462106922391448,-0.2693708473867365,-1.2046496181131412,1.284888786427185,0.31264557069864096,0.5433770320665854,-0.135554456326784,-0.3988341002907251,-1.034515823816853
,-1.0151785831631348,0.7641522420920621,0.33235411548269755,0.49074094220277525,5.065080373292795,-0.3524702795137435,-0.3575407211413579,-1.007093932680344,1.5960914978335168,-3.620462430689209,0.25802766504599717,-0.0334146421598899,-0.24580421390587143,-1.341811579088135
,0.6855376636982906,1.7366145336921799,0.05105919483188449,0.02259145547671296,-20.215088330795577,-0.9554537468774664,-0.3036939012962214,-1.8902734952312295,1.8913998843876925,-7.167791139294408,0.09282987479256295,-0.4211813389510242,-4.607474928518557,-0.5137311931293895
,-1.2397178431788851,0.8790580111100772,0.03457274854311299,-0.49469145526019165,-5.932332393469757,-0.7156827106855552,-0.42301586320707635,-0.7782107405483485,0.7217706325753351,-2.5594726961758907,-0.554116523404526,-0.536219886063636,0.9034950658445442,1.1935980083572073
,1.4687193179085754,1.4987382348460019,0.43195709763945456,-0.14549790719481284,11.247548762144065,-0.35159656443297654,0.07641220640262024,0.16818325801279627,0.5165007308449427,1.5752092542837601,-0.1253584379023583,-0.22462799518687523,3.9408978857869337,1.0176037314370028
,-0.4092650435572287,0.5308091407566015,0.09152498311709578,0.031963088188596625,7.937469278798249,-0.1707197843424811,-0.3477682382675595,0.22566464509878348,-0.27245586674040795,-2.6572815124677946,0.12186993758065243,0.22933298090593185,1.1925967907978225,0.6579012173984862
,-2.121499992645666,0.9267683564544318,0.02186240481908995,0.07920883092124562,0.6652720768392747,-0.31094375927900236,-0.5374460141424315,0.7274835675191231,-0.9321190282363475,-7.717064463045373,1.234938544481689,-0.7092707291020716,1.2809557399271645,5.184845904301408
,-2.36062030485449,1.2650476879827366,-0.04909701099274821,0.5997249503242928,11.284791892689332,-0.6900725361282533,-0.31107414333560895,1.299802955101028,0.5666037707794128,-0.9893615363274978,0.70371723029543,-0.9998472138519685,2.1144364237609157,6.126917334157073
,-0.6764962130503308,1.6367235208176902,-0.3580986299616297,0.9266719593464484,6.856738498334351,-0.9399480445009841,-0.3204204433433066,1.423692572756402,-0.19995755138047455,6.450614367864118,0.6400509416594046,-0.17850099764292177,2.824869653353612,3.682532557728678
,2.06973107147984,1.7208772349497279,-0.2913652418912653,0.42471526753435523,9.246808771760548,-0.32795769582001466,-0.19594902765107972,0.6516912427043526,-0.06886684052044405,-0.8311817065926363,0.7167518063662648,0.2941549864109461,3.9001714564679038,2.1316088379488574
,3.6487333419902583,0.5945914286373607,-0.004028281744354585,-0.5393670546729036,6.508859027450446,0.671636421865553,0.060526720602505496,0.3328852708481789,1.103323720327566,-2.8248873919849116,-0.1935906253448232,-0.06801653160962833,0.9026846496794738,-1.7658220002755014
,0.7116899243113768,-0.4833364417842324,-0.27049178059293405,-0.9294404222586117,-9.002018924960655,0.714417737395246,0.2474582882590055,1.7020016339562916,0.4974878710270724,3.6529593593635896,-0.5815109824052535,-0.13415913928631717,-1.6813043714663019,-0.8447323857737347
,-1.602755610484524,-1.1388597998647931,0.06997530060817872,-0.8970963007471554,5.979461543113893,0.26714864060384025,-0.8853777971656283,0.9903922297410437,0.05510453911424519,1.1693266899744326,-0.5811002594475305,0.2398923863670288,-2.387935006862774,0.46052074953191435
,-2.38923387700291,-1.7048957141744114,0.39253494198663597,-0.45638277522466597,-4.477724975248405,0.32209992549090893,-1.0352949927645847,0.047355277930653875,-1.0882306354264988,-2.4888418127579963,-0.6260959289106033,0.8525110179613286,-1.493793091985753,0.9835847356692238
,-0.9421584403104045,-1.183020412145514,0.5130179410571815,-0.7245860946055347,-17.992831589348693,-0.09186681296857276,-0.49505417350734143,0.05100906100428594,-1.9511628172206275,-1.7066943484564727,-1.3556906025890745,0.5712190468802253,0.6052174127564678,0.6435982347760794
,0.6396291143832187,0.2390739507445924,0.02135222620825606,-0.29954946348164563,-14.591553929045633,0.5683666979524925,-0.036877176556246706,0.4776322149394467,-1.290911892976513,-0.3604347461742579,-1.2616000191867782,0.39087298479605154,2.2417037111942495,-0.05743428914230936
,-2.202026211661446,0.7205090103428499,0.0699062008432201,0.2238193121963116,-17.385316747670366,0.7346969665329899,-0.08186065019003227,0.48066476150093,-1.0047714095395501,5.531248667745043,-0.06835490178665232,0.24318173277744598,2.626897006649276,1.5650979546619683
,-3.83508961213941,0.0921641041582907,0.28501474037555885,0.34734061945927575,-32.659393182031714,-0.21154509877354166,-0.6701700169576457,-0.3589202682280482,-0.8656259254933544,5.271065351180739,1.2389281517227182,-0.3057357550170935,1.031293749856866,2.5996033108760996
,-1.27625956068134,-0.7383919996746813,0.9651068080123905,-0.15360174708372976,-23.868295915532162,-0.21956738220391023,-0.8139568626891802,0.2426088258247609,-0.027990920921618593,-7.496335812043984,0.9637443276409449,-0.26738372743584365,-3.260302424749762,3.2353200800291706
,-0.890241433499731,-0.20417083763831703,0.7746527249079617,0.5289007453815938,2.3998722354425768,-0.3352188976555108,-0.41820783941498374,0.6138276506751624,-1.0743239663523922,-3.4566091119050917,0.786386056027615,-0.3220932493642014,-3.3042058511162335,2.0091294525834624
,-2.854341745306201,-1.900400784857151,0.02642511089618483,0.3180882242397928,24.790536494261946,-0.5452873322339831,-0.5374571199501847,1.45771513488533,-1.0526423319885538,5.240014129573455,0.6183686324003961,-0.14703359836767085,1.14693506008034,2.001073182027854
,-3.0193577798434004,-2.2321175464863368,0.2015453265681736,0.7600483502840913,14.294080374252198,-0.2168846439839991,-0.26331536639227765,0.9073121857917731,1.6054395867139983,-2.0380255068857958,0.30352043339119816,0.3590338610122041,1.3470620258952093,1.6004105718939512
,-2.1291633042883316,-0.6395475089931045,0.4375561843014683,0.21843568868765637,1.1920556953183554,0.3369798623691603,-0.19459171226207575,-0.5991762596660543,1.974367685369519,0.16210283878310525,-0.2878672580990583,0.5727498335472805,1.093206911767184,1.9952018853518325
,-1.5480667309751852,-0.6009102988983975,0.2239497695036674,-0.5850808306411377,11.149490297768887,-0.34965885694114607,0.08403843725072296,-0.43889755170799544,1.5970940419427655,3.4118709416672566,-0.43860729010045646,0.15235179634224671,-1.673792936982996,1.6812394905333539
,-4.745101664980061,3.395115639366089,-0.4892628260852337,0.08823544979006664,0.9737325745732323,-0.36690484949940877,0.09422033882159382,0.8506506962009278,0.2778175845194429,1.4719299373071824,1.5835935130200827,-0.06601583940571606,-1.9320053655755762,4.3414055445320985
,-5.508556739049687,3.3300733835296663,-0.4374680828828474,0.45267447299105756,-4.335900330545385,0.02041470918866849,0.10191319322045836,1.207364144297447,-0.13189444926969182,-1.8591536961880402,1.8806600733133556,0.10826546982520485,0.16497931425238296,4.920439850975239
,-2.077308085543694,1.7574064549789128,0.09135205260242672,0.605074205181405,4.037335984992355,-0.1744353490074612,0.5454991595094725,0.43237904096910673,-0.6992103782951894,-5.484992087838603,0.19045146726167747,-0.003937404771440983,-0.3701243477022042,1.766537565619494
,-0.48091459018069027,2.1814756937676574,0.17933492533913875,0.10309406537940784,-1.2124357898772269,0.1758327458158894,-0.264040254675297,-0.04338285208626855,-0.19992851441122134,-1.6810209072974418,-1.6118384800298116,-0.4532381600511464,-2.513250520931543,1.3841285380357835
,1.6930021522797485,1.344201318018036,0.1318173531780034,-0.33197014040328904,-15.389696278156197,1.0566777449188087,-1.3726384454640066,0.3262508503203603,-0.731271281245981,0.650469653447303,-0.8116398955166682,-0.5012403484788154,-2.8582663749596264,0.502252096422073
,-1.3987229177712173,-0.477307865721536,-0.10158997355820158,-0.5022850856151888,-13.335915175854835,0.5918940823083175,-1.5018370321098888,1.3148393404045489,-0.7943495505391115,-3.794223071945445,-0.10391556411324267,0.17258081654585417,1.3239061891631916,0.25339949669979095
,-2.273426499315937,-1.7749550045532458,-0.1750367662598615,-0.32827365836031475,4.217399000064608,0.548213112880984,-0.40523542305034604,0.4979456393277882,-1.592724756521838,-4.642179168130512,0.1169101122037457,-0.09928429010837946,2.6174531807575314,-0.16048114055542154
,-1.7630135535713625,-0.8517362561988101,-0.3290337010153994,-0.26436866353356336,1.465221807682435,0.6068906771495876,-0.2095756028020756,0.041071685588855336,-0.46191822581872,3.681554536557172,0.0671377055663923,-0.23242955997416567,2.053749209121019,-0.7388967876310851
,-3.158930793019045,0.620468419081246,-0.5606174845326812,-0.33835871212506735,3.994430146777372,0.44754153705265143,-0.24926318046460205,0.7732130385486394,0.13022516845922844,1.9501077670074831,-0.01821586879621948,-0.07591770806563555,0.027204049591891714,1.015468160227142
,-2.427925140443077,-0.9460566322672513,-0.014366519153635947,-0.41956013620598853,6.865759597457725,0.6798591531353779,-0.1520528820920968,0.348064628697152,0.31544447096996614,3.482392946671137,0.06812921697690487,0.3326697456179894,1.1054480297070821,-0.766497763379955
,-2.016417664755134,-1.6458481762660333,0.4270688951585671,-0.31397605906589154,5.869303553516713,1.5352955388537595,0.042341535554049355,0.15678737946266613,-1.119416055343917,6.391847664676299,0.9587642162395753,0.06382037452092196,2.132009337472929,-1.4815417205162444
,-2.698924366543875,-1.4755425041394319,-0.05323072005653676,-0.3642101815690655,-7.081517682020365,1.4005462648071556,0.06152276468122891,0.021523590515698576,-1.4245905846163605,-0.36307430509265004,0.7053869064394229,0.2134274689384079,1.9258844400575723,-1.6924413973616999
,-1.8010719621344096,-0.2831671521374351,-0.15389274561786398,-0.00977113572456299,-1.1379882812604305,0.6368557600432049,-0.27110249288420857,-0.003652791156727746,-0.048850885128324514,-0.5530489815646216,0.8347002030886723,0.5529986413530631,1.388478105139695,-2.811180178473898
,-0.004745229051067758,0.23012350909629134,0.04526128851600008,0.07675538833149384,5.222134638095105,0.3808103884250498,-0.4774419203612173,0.2601307953227081,0.36867648108389595,2.1122636960147547,0.33893957781362155,1.2936131233822497,3.3280390321888507,-1.5649435157483484
,-0.8913250497789309,0.0441123892301016,-0.1290023883791777,-0.7867591579679626,-0.5008914172771703,-0.03146427237431247,-0.2665888836712359,0.4905851884606929,-1.1613595031617348,-2.9843593440912115,0.24089072204253853,0.5379675572747968,2.694073317408159,-0.5758926727107376
,0.9649708202425078,-1.1112740376427357,-0.0607058868491337,-0.5025361535333741,15.738130786276164,0.9075839413133038,0.1622217995198104,1.0917626890377135,-1.192581591873714,-5.689053897389661,0.5165142639261234,-0.1282046852399001,0.07018642323077628,0.47392240852400497
,-0.9687523562471962,-1.243234680694032,0.09066272814597176,-0.5232915642798106,12.926214143731508,1.3718098343849423,0.11692150313081381,0.8619673537725818,-0.10710898162917665,-4.849857345989856,0.669090456380334,-0.08632951600374984,1.7736604320331386,0.7539866489594683
,-1.9313174549844028,-3.0443296417054952,-0.02882096383504585,-0.7159852798886466,0.5890572644455887,0.041097897959552834,-0.22181845739224437,0.9509517865379015,-0.10097488869746446,-0.5827442089120087,0.754159891376163,0.271164555130637,1.640302277445798,-1.100312687386476
,-1.8442891430915913,-1.3046811182794305,0.1253199773240842,0.09856837524225254,13.519334595009532,-0.5375545102787781,-0.2568680330505799,0.7566627622276306,-0.2370363807009575,-1.718094499079804,0.7139582234586351,0.7067404757639623,2.83082782315344,-0.2386164371038887
,-1.8114682971840061,-0.3108273313971961,0.11293373354558386,-0.30596596353942784,11.143268710895248,-0.736657063454174,-0.2710620941574966,0.12239150282643015,-0.7080191891106036,-4.729790670705763,0.34519542383457436,-0.14369293353373755,2.444394826971147,1.376169852602868
,-0.6750293889451277,1.5790602087430514,-0.0622680278810688,0.14453039797178913,4.359434760034166,-0.31962183957617435,-0.2630190771356376,-0.02521885017351697,-0.16284352601048951,0.5572968457169236,0.16997462860113585,-0.2720241572324334,1.2243306509162977,0.7072635217938021
,-2.4617832476003483,0.9437211193501968,0.13221868033953205,0.3945100294928289,12.109358614270503,0.5937842831970228,0.19811974928936135,0.4580444157271598,1.6216349510677261,0.9918948415128951,-0.6770970100555826,0.876422594877154,1.100686381141567,-0.6635860495372001
,-2.2547097277367802,-0.8403652712141371,-0.41458515548760244,0.1567627727837386,15.471226770707666,1.0772706199645843,0.4523194853831624,0.6442582988837234,1.487559700054682,-0.6363692539577321,-1.2621409985737149,0.4029963760424499,-1.3485724861294806,-0.9012808982159047
,-3.2977061735851083,-1.0341874667223225,-0.45969354352601144,0.44628123399888847,13.192185069192574,0.7255408138845829,0.5929690277992983,0.673122032360747,0.13780302502633002,0.45614557952252177,0.27047636420636745,-0.3941421591934513,0.49196044171683706,3.523696027602845
,-3.4503324555955635,0.6965794817523476,-0.4704001958081461,0.9215926930837925,18.08799078492736,0.019311983649819033,0.15522459452387802,-0.06644056833381497,-0.7132614853606978,3.1995967977724193,0.9377721502840046,-1.2071570988627036,3.8860375428233267,5.623468326804807
,-0.2853318437637007,1.6511287472086642,-0.35170550549701657,0.7777650194081085,10.275083221453263,0.5160948256500365,-0.28770861354534455,0.4950232026675533,-0.14569747551151052,-3.7975710440232215,1.4814158076512465,-1.2285438247939533,4.692335864295742,5.924766203714513
,-2.3733560789673227,1.5129639471629857,-0.6412874680428402,0.6359928457633527,9.281124812932717,-0.5182840432844442,-0.5552193354907707,0.3489818131703074,0.016096546871132843,0.542862689066963,1.472909544804125,-1.367416429576903,2.9108080340197042,6.586558582403114
,-2.040909430573148,1.663422961783361,-0.4106176733926975,0.540051888985233,7.946085807325976,-0.5045620939636992,-0.3085997761819033,0.13670972868395218,0.2309821469131917,6.3532464156275,0.7724169010778155,-1.120957916758648,3.1285597060425703,5.3202526512977615
,-0.1997210769600348,2.1255159360770532,-0.072281558245103,0.05776502431832262,7.20703262074587,0.43794421054130495,-0.15918850782039928,1.1772100683183775,0.8398401318298095,9.302955593006736,0.046075859948340396,-0.6493369201029051,4.293997342550523,1.9764539082787962
,-1.81738463622043,0.5571411130754984,-0.0753209381703233,0.24497810656473817,-0.05960700975762218,0.43878473032615,-0.23666665485743607,1.2824675370712995,0.7892365350420462,6.159420402344813,-1.089784755061781,-0.06951445151005481,1.4936322980373415,-0.28927981859288415
,-2.8160904046672237,0.8028671958461959,-0.02936431719861967,0.5563480738960024,7.449241084112766,-0.28469804510930813,0.06599300548419273,0.4678995849762106,-1.6379617694752682,3.1013941848307796,-0.14021056998413015,-0.40994497845782757,0.9532541856163403,1.6279703317912029
,-3.697044565980737,2.2770193356682524,0.19583013472180916,0.09352815658570737,3.928670497702166,-0.593682168542389,0.20038024099720061,0.5147799198877043,-1.4491758063903335,0.1843605447459858,-0.4735642340701546,-0.13003285603524084,-0.03581208177763294,0.9736842850438209
,-3.2537792143425492,0.9710212928761477,0.12837976716949984,0.13262066353577603,-4.465619744029317,-0.35621350194228546,0.16763821275084448,1.2598289272279173,-0.5660276176640687,5.548296709624712,-1.131847206118585,0.18843288180798173,-0.8394539948002279,0.10631178674617706
,-0.40833783803067975,0.7918967397501552,-0.30301106363483377,0.2712878048855534,5.711639139891172,0.18346054725584815,0.15024240279479636,0.8237039062813801,0.5436942021774815,4.74756187875817,0.30402950249832206,0.835007933920837,-1.937313312849733,0.5995259767015028
,-0.5113287050765524,1.8822015554297484,-0.18617738973946044,0.30361901830187255,7.577558671930545,0.5739528930191808,0.07492363617997377,0.5337766850907902,-0.5420157554164764,-1.0875811491529146,0.19509961640776588,0.6205652727608285,-2.523236763995139,-0.034886616150750865
,0.25968716707912654,1.0515564879430308,-0.13800677203011466,-0.1970299252941522,4.877611189098391,-0.830596139522933,-0.5092261966513542,0.016149058023940035,0.31798260570339265,-1.4527388915392332,-0.5736661288605635,-0.249301022381836,-0.5510804333419972,2.012672407589075
,0.2945277721777478,-2.6157763160477865,-0.27305607872147614,-0.06561797329102272,-5.920244344895112,-0.5116566051374497,-0.511167646694316,-1.3455565750100997,1.8600744351778657,-4.2624290384835195,0.9293021202254118,-0.3737052638497991,1.4276555882035562,3.4134138100837923
,1.4732764536688108,-0.1876578986163596,-0.31326823974641654,-0.028592452477844716,-11.143725072624939,-0.07406240892331514,-0.07659211975069063,-1.0943282867436621,0.7414381786036888,-1.6638494109637043,1.4913652577463068,-0.15057455920066176,2.3499224526433893,1.8424582407203538
,-0.2866524355171171,-0.12702537867721342,0.3494944077674794,-0.045490985789907255,4.510486881956466,-0.27671610387407153,0.16726404638660786,-0.13616428452077198,-0.4851040988319489,1.1182061820281157,0.09795097947374713,0.3816872432582043,3.6175272245292858,2.1580749639217225
,-0.6119509707415168,-1.650261131070525,0.19398569787032668,0.3672639634235215,-0.03895920568123404,-0.14866678245573547,0.02325183060061833,-0.14503747448414492,-1.1857218358359183,1.821599224714117,-0.5239691047928408,0.015405156825567964,1.8328998452265572,1.007286350794738
,1.6108709699376444,-1.847868746238103,0.1048293217370483,0.2757382413725305,-4.0585485227911695,0.3573852904243215,0.18661191034148583,0.4663763905581753,-1.0922960544395601,-3.5604188199357405,0.0689356043397155,-0.6059471582263682,1.1940196467749395,1.6330083341207118
,3.174033546208564,-2.3125318904224863,0.02489267963844302,-0.7471300321164752,-2.039339636140093,0.8390690137530836,0.5648800512964568,0.7188273722715836,-0.06923741396630011,-0.31757619786385965,0.0823943002612007,-0.21536733316579232,2.070796926560784,0.6281031488369172
,1.0425321374634782,-1.0190713870189754,0.24057670131645975,-0.4677169856831935,6.843776371530067,0.795834271006908,-0.10830904588554542,-0.2039616065065282,-0.696326900223621,0.7983521183239359,0.6156091215725684,-0.06901153997471202,-1.4534191958247338,-0.41181430010483955
,-0.08076831327458102,-1.5372254548137951,0.6368648328003624,0.20563128649919213,12.330437869227211,0.6387874457849758,-0.17054232128087415,-0.7445003681317943,-0.23080800190618195,-2.536335555752716,0.25079652625680043,-0.16022186352740042,-4.3917635547173,-2.1271046469942494
,2.112692451079362,-1.5248898302551996,0.24340043734877143,-0.23125855824875388,-4.7607027181075425,-0.07165711407340125,0.02745446472407388,-0.16538088129723735,-0.013681750692415971,-1.1435757931345838,-0.40439427119181115,0.03247930635713227,-2.698368508063972,-1.834723721938596
,-0.4882775905953787,0.8212319840096446,-0.006619876887109864,-0.7966516400835463,-14.656320197648158,-0.6190195788412105,-0.19283304887926095,-0.45958352208058134,-0.2581456624870823,-3.4264820696383467,-0.20699980861301967,0.3248761474641069,1.5721850435071538,-0.1497469520396269
,-0.03426989034197319,0.6257393600749931,0.16717309514973927,-0.12481947730793622,0.45348598828040887,-0.363909741191148,0.03230687858309924,-0.6845298995656693,0.8874898668303262,0.8830233435258001,0.300765627679626,0.4199475861642202,1.0906271634663913,-0.01968459203757542
,-0.24348180216138934,0.9944531715429803,-0.39106177845100015,0.17779232500106687,-10.596461394165212,0.7886955486257182,0.32745166318870234,-0.18260720547464962,0.12166904305533682,-0.7701197630027934,-0.2889299142776057,-0.359234161193366,0.899868818837529,-1.4713931771510018
,1.3091282696221522,1.8437276306703887,-0.43267597308006484,0.7206928317888774,-0.42964933738703565,0.35456183745759573,0.3686781480700511,-0.025518698502988314,-0.22030812476117706,4.061409564139454,-0.19597288741584462,-0.6168292870184813,-0.27753986493576505,-2.2359114130485453
,-0.4622243701901858,2.2635232617882752,-0.049915612862899986,0.5862056676151737,11.551231873332087,-0.6931236443075283,-0.38706126401646124,0.2764558553224109,0.4839705305858677,4.487454058802462,0.43488373348027715,-0.3281879025332184,-1.1907598301523648,-3.708380782499408
,-1.6210649719905559,0.8267229533709305,-0.2214708569259956,0.1050743481481145,9.789514324956114,-0.4270194033895354,-0.3582939873065085,0.49622437179939827,-0.08189237926249941,-0.04522390648499035,-0.1243432782933999,0.16061535283873363,-1.1542181681906762,-1.7939926262386117
,-3.2746126649744083,0.7502335957041474,0.2256667012812446,-0.44161812027884556,-5.536172136732651,-0.15910582366901466,0.22332238554829587,0.5958262357425327,0.48524673335329477,-3.1995724839643667,-1.3210097903780684,0.14936320967402258,0.9616509171223206,0.38678380868820506
R,-0.6130886504791911,0.8866667420331635,0.03338433966508265,-1.1489791853008304,-12.479333164710189,0.26628373089620555,-0.11609635876771685,0.4554932061236068,-0.04027573686773749,0.38932978784988553,-0.6898459122746647,-0.3675419320043961,0.08069643894120203,-0.7218202133623269
,1.2636638211732298,0.5068340423259203,-0.6124677899324678,-0.5957700474826835,-3.4987567309087977,0.7115360338540121,0.1405335567316771,0.29136477447550735,-0.4399472537291295,6.131334957693727,0.24118103198980906,0.12598956376173404,-4.9143291127897335,1.225027024279213
,1.430706542781918,0.2825610259170329,-0.8167741067765347,-0.20008399519202874,-4.451851927381572,0.3064385124193521,0.9045970975812637,1.060367039150484,1.779113814016201,9.506834027431436,0.12596633016067552,0.2840459679296523,0.3007429586410846,3.769488953204335
,1.2635337126348727,2.2425975107637677,-0.3733523776198631,-0.4857548904762762,-0.3170659236055422,-0.025178120693350767,0.7050777422281751,0.14073036393238356,1.718843324497957,9.749895032077761,-0.28908454717531,-0.22931830143020435,2.2581848209599795,4.992571226086547
,0.46247336095903147,1.9319437506370603,0.27196064321775937,-0.8522383028650726,-3.995552592360277,-0.2725634839900751,0.12651899283705204,0.0878006188482359,0.7693393119983198,1.9337118699161386,-0.5929150887453659,-0.7620162789279342,2.013078671925533,3.738420794314106
,1.32452038862096,1.618242270378421,0.0703371465803613,-0.8575445714178465,-11.632364298209195,-0.8386522665231652,-0.4148907551631108,0.6403402861764836,1.0235397403149478,-3.3842046593893675,-0.5343260435469984,-0.19289261322784795,0.9624460289401872,1.9820365338326402
,-1.2950886977362939,1.2137452726618398,0.33390201053970475,-0.31006926854838884,-0.010966227462312135,-0.9497834884266374,-0.4883402378990515,0.9940140343591926,0.9758784782616573,2.800854060205551,-0.7433585925830287,-0.02806619630939095,-0.17254579587253166,1.3660796878812382
,-0.3812879803322585,0.9668668890953473,0.09134790499945858,0.3631887444097916,7.204607157724923,-0.4702685689843923,-0.08157286742890021,1.0096078520906202,-0.3532972694665098,2.18818069124879,-0.9959029891464217,0.2940360972278689,0.834807271774108,1.2782073265923497
,1.2980640080647232,0.03834107618521804,0.319220961783303,-0.05783297140347978,5.977912776498206,0.5030870094978113,0.04717104606506316,1.446925707916249,-0.32201500978858477,0.6489834489048288,-1.0732628971679716,1.292354089152654,1.3330680904152101,2.3829933641012473
,-0.9571239376421211,-1.3015075093425692,0.9434710685918982,-0.5044190243221733,3.644001859112467,0.830067980030221,-0.43012375043677425,2.0764492592925086,1.0653940689597312,-2.9054543354068603,-1.750870184706474,1.0371138304902718,-1.2704429533904154,2.2437574030668173
,-1.2321285093473004,-0.43398426095020165,0.6692642944067809,-0.600861790944011,-18.163330501643806,0.5836011305378673,-0.1533596684294147,1.308377604352981,0.14577962059991237,-6.020899460900376,-0.8667943853424387,-0.11950678142367759,-2.2904716423433387,2.7195617464812556
,-0.7710761894858189,-0.0938445811851458,0.3761503680403596,-0.7062114927761761,-16.46529864926567,0.32182958622359514,0.14002833538753795,0.45749753518973596,-0.4386552186871953,-7.053212369094007,-0.3058666425383132,-0.4290707536947182,-0.7380110764147708,1.6672749281103734
,-0.6579663371188743,-1.773697526085401,0.16130317467282884,-0.23446455431948626,-10.298286370989201,-0.013068370012982243,0.047460581946713036,0.47711292549875634,-0.8011422940867813,-4.136020243632837,-0.27657327795232395,0.568015046610747,1.767676800694889,2.2101737663722885
,-2.166396105719334,-0.8015005922638239,-0.20217264009295108,-0.6675991794582264,-15.011772928227487,-0.3416278216087617,0.11209929456881611,-1.2948375327277046,0.025006328492513368,-0.3689180924188407,0.9786329052796372,0.5376290327086636,0.020586563299834465,2.229612329026302
,-1.0911788953670565,-0.6554951640913391,0.2229236710585393,-0.3447500085082579,-12.870779053847148,0.09960900506610477,-0.24525377032014936,-1.1270029664240233,0.4840342710011568,0.11739248980235045,0.14273337008978212,0.3814578782387457,-0.16915978280725363,-1.0119072952830381
,-0.02425929565878879,-3.3696014905509153,0.5072848932928712,-0.46586644519749715,10.695630530783328,0.40867495018589084,-0.3157868054350987,0.2052751094592103,1.2346052458434393,-3.735001245775228,-0.7182392338593347,0.3233258888758694,-1.0111425380417802,-0.33855951441164517
,-3.244604107686316,-2.6075195063596603,0.4029015251970236,-0.6717108559390926,-3.4801278417853374,0.5229260245450336,0.20961586441298463,1.0327566370646548,1.179152935765212,-0.2540081504957608,-0.2791959733640785,0.7108279299340313,-1.9384052474052365,2.308330896380569
,-4.13269804242016,0.037609963204012296,0.719274230848049,-0.47468629542622237,16.473056162024992,0.1633095188659968,0.1998963380634464,0.5148858285082105,-0.04345789922121086,1.4194998924239661,-1.4116440371218053,0.8496956110019837,-4.088093981581104,3.673681847249547
,-1.5672558239078653,0.10611870389277303,0.537082075266748,-0.39160690493427663,28.179530911020194,0.6894049987653634,0.4110056268930936,0.9033060969296529,0.8792547476330953,3.9667806760420303,-1.602769097791778,0.45843120618481575,-3.9200075161436128,3.490510999474699
,-1.1996167619619718,-0.7765421411489155,0.06630021124958611,-0.22118997628002984,3.978463524875081,0.5042693293622911,0.5265427322236066,1.1513827813715902,1.759685459506276,5.700481822319524,-0.4957425138110331,0.08376343733888374,-2.7155758017622738,4.39028499230012
,-2.062653760837896,0.692742083011921,0.061511708200077,0.09570185744805508,-6.823823470336965,-0.4262932981282174,0.4594035936581706,0.13764139298431083,1.1193135464474175,3.0149929501945882,-0.8102079795682143,0.2623422982639832,-1.5235662233752976,3.153831331292449
,-1.0999914198985288,0.33575845015356204,0.5876024609985293,-0.2337874148948924,9.88647525995499,-0.47491616553910226,-0.21696848119046624,-0.13215513226941575,0.3898380873055702,3.8259707192869095,-1.6132685788291883,0.6439859064156312,0.5349035440364299,1.6483962178288476
,1.3703870099406017,1.4263228212917372,0.21234717158920624,0.588077960112176,19.85608861067386,0.4573573482499242,-0.44186884866860116,0.37888635053625963,0.09094220463362902,10.01762271607604,-2.270360361730317,0.9328811920943807,-0.9266208363017935,0.7289234085868752
,-0.11575143390029985,0.7410873985995003,-0.12840383163294916,0.5172820810519682,19.121986398894705,0.7125311408583742,-0.4051409318272374,0.49735158093891507,-0.5942074883788191,8.654112803631067,-1.2683983264127359,0.06433625907696629,0.17030328358622038,0.20722172398387842
,-1.8144955754287613,0.4594023534310463,0.07083769635993101,-0.5910374173101649,10.711150750483032,0.18436233074120315,0.12048991225147715,0.4718998134678811,0.561433258747969,6.7034716597758,-0.6940330317969363,-0.006795334282396514,-0.07557593494567134,0.6029260711529983
,-3.1264762385419287,-0.6360196198771484,0.13275643502927698,-0.992734518307139,-1.4758401152102232,-0.18963168472343245,0.3243221830971951,0.8626975618681586,0.44153106318452523,4.110346725693897,-0.07647979928354559,0.19979297795549666,-2.83596750679175,0.6731224499488206
,-1.6796210691783438,-0.5173547830935226,-0.04162552738718798,-0.9182298367691495,-0.5085069009018055,-0.19479605491201302,0.030281993805203102,0.3580638282253022,0.40881090772334644,4.589708765841273,0.26806026062090493,-0.11801088451777104,-0.48249099187343886,-1.3623747101216364
,0.4316740755321777,-1.33612319204887,-0.32921586309974976,-0.7539118257179865,-3.7407902943262044,0.26994765410935995,-0.3073986456835376,0.7144803365466916,1.3170625240099472,2.144196752728528,0.40807353860914786,-0.13276651568405828,-2.3557996985418455,-0.43449480490422604
,-2.3772366543215226,0.2978188841311,-0.18762227380061994,-0.47526575242627606,-3.179725167044618,0.24626101387182803,-0.2348372452452456,0.9059198214652704,0.8111540348649771,4.500917761623965,0.18692286236216074,0.2892903529336887,-3.6940541315825834,2.3428653723182133
,-2.4909330403984677,-0.5059812526310907,-0.08422460966021499,-0.015024604823437399,3.142514473801733,1.1152385127527455,-0.46645627875610113,0.5430949337494987,0.8867851894545469,7.998097095135187,-0.12319875596577755,0.2401818980823058,-4.153102904423341,1.3942529635386256
,-1.0309588676760886,-3.178938451031655,0.018556323974945062,-0.5323238837018583,12.971807367623327,0.5535141349885926,-0.33181192197373033,0.49800466555367595,0.6899700547646945,7.115948490725337,-0.8770833620811364,0.21915969332418864,-2.57234796081328,0.9285751419721952
,-1.4350790501176878,-0.9403539342373919,0.4022281388623285,-0.6997792538912903,2.4550974463677275,0.2744041147643701,0.3114583361417286,0.5351887532171727,0.872230116622256,8.389865902200786,-1.0387117060537057,0.4528949569959872,-4.095033925052554,3.06686442736858
,-3.623312340299928,0.7713725891188693,-0.23728085099125173,-0.4338149198628291,-4.905183333771974,-0.18573204020762707,0.22668101505025134,0.3339030540407149,0.20709751963262224,4.887550730469749,0.5164578339723686,0.9952091990734432,-0.12142155024533614,2.5286054987114635
,-3.119379991537967,0.7309680917929221,-0.05063029571243506,-0.1262088864297068,-0.6975355962797741,0.23872643672126448,0.1436442488812641,-0.39148715237056575,-0.8290969983037489,0.0930986287446789,0.6663824443557061,0.634010315657386,3.1613405372921335,1.1769990299134203
,-2.5390092638311375,-0.9200330160442847,-0.029818097225466602,-0.0338925094540965,0.4499592081407994,0.9012158927284942,0.42271401711446044,-0.12185020536747662,-0.6998286162631413,-0.9430432729279707,0.5413363177386837,0.5464159325921102,-0.474265008945141,1.2184155618038586
,-2.842374967246509,-0.6251640982860167,0.14009733298239735,0.3114167734158194,13.865181399970838,0.6650692798793919,0.2289922211783932,0.1680470321181801,0.608540907089722,-1.4577278427912606,0.036370368973673864,0.21364587253998962,-4.174697617166892,-0.07882819385363965
,-2.875896636372662,-0.29352931146002376,0.26530173243841587,-0.591144635934153,2.6992262280121984,0.15067959297271288,0.4006344645966617,-0.24035674864829779,0.6454775888053944,1.9625022483179844,-1.048055866954501,0.06553903847069655,-5.13016534456732,0.7594610340309199
,-2.685286380393193,-2.9914484218868465,0.18987065500459088,-0.7243062541240204,-4.508534407690137,-0.13766406197515352,0.3573078212506881,-0.01089556256077392,0.5465892377406554,1.8676749284656708,-0.35439756501133357,-0.33615712683228494,-6.508354020927099,1.4895863734370742
,-2.3243326518466025,-2.994377383428902,-0.1885738827734316,-0.7955207807143014,15.43960132552501,-0.7229381302368515,0.008507757815704422,0.9512631098223918,0.07416745354283782,0.9982198984152882,-0.4357305478559559,-0.11277108816801147,-4.065029502788485,1.5794962960220778
,-0.6899287986525056,-3.7245050333322487,-0.2618563653967555,-0.5134272072777032,17.601841959571004,-0.28301289722504946,-0.0001405005516188889,0.9994394136989065,0.36884203042641156,3.7634602816356333,-1.0283152145176118,0.7129930992457592,-1.2100939276952989,1.285787179806923
,-2.0008553334340773,-2.2807515606444957,0.0029707418290360406,-0.5069834363272713,5.7734166791924855,-0.06537319866641252,-0.029370827209660014,0.7087937258575924,0.1653391376360694,0.11724665716517729,-1.1183353143343273,0.6519749837112245,-2.924137861412044,1.215528537366224
,-3.0509273223626705,-0.6941345219585408,0.22007764163927096,-0.5918564494220724,-1.8687358745176865,0.32024704430469636,0.07140709513055267,0.7438109461685818,0.45052541079461383,-3.8227620019486275,-0.9153907668093827,0.6280814690280342,-3.5159628342649776,2.376123849471649
,-1.3325146634107212,0.46054528628283226,0.8433364383094833,-0.28187726896579357,7.880516093150677,0.19902177921959804,0.38353643873559895,0.13566551632553897,-0.5063682835381301,-0.0022263740711205003,-0.7332585920275544,0.6613327145358835,-1.7273836422156927,1.7175039510175938
,-2.208524654692197,-1.1693899960455607,0.3039883199479779,-0.5059903677591828,9.732393659838664,0.26240936231685014,-0.22224763617436788,-0.1469897903303449,-0.8428863349725411,-1.3828072177350188,-0.44277167680238966,0.29137430157283395,1.1381805833295429,-0.5845384290724622
,-0.440518253477485,-2.1083746264442325,0.31943095824455314,-0.6647123949827591,11.62000645467871,-0.0014194899127738267,-0.2840519186051588,0.20144873928299223,-0.3403424392312322,-3.2520411613513818,-0.5509071411959909,-0.05484539062216341,-0.011565818265802665,0.12193586880038737
,-1.3713361726285787,-4.3778532440207085,0.14767266854875186,0.01915761409220834,-8.276670531727877,-0.6911954480247424,-0.49188416017603814,0.07118503438680886,-0.0036587244770605832,4.8499462427229645,-0.2264215208712883,0.1459078800370794,-1.2885853137590795,-0.13831517740048285
,-0.7059468242585908,-1.2817500418280416,-0.1382896694347018,0.43993254501082596,0.7608596388536331,-0.023762733539730303,-0.4685500182140859,-0.4955880674017987,-0.42064106591162864,-1.0229040354684171,0.5566197920805493,0.5930425149335875,-2.549340830475351,1.7546086715398272
,-2.4617354977402743,0.06654030841062561,-0.3131600597081891,0.4233813723386311,11.421342536993345,0.36333231977376973,-0.5629713737411053,0.157522749965198,0.15030811331786467,-5.919186287728014,0.7977536239674201,-0.020976671225849553,-1.4546270516776347,2.119923225347248
,-2.8361544559132286,-1.9897815247071937,0.0721007534321276,-0.29890011639346065,9.094289207136184,0.17189176017647526,-0.061861932499854576,0.3485998440063804,0.12729935070872023,0.9212800544154832,-1.1050014438205138,-0.22727103278114996,-1.5222156699133669,0.2229881778754312
,-1.6953387340595958,-1.122490909646212,0.2999663785931538,-0.7502856689486392,24.690891510434152,0.4035364924888178,-0.0753152598492303,0.792841289212515,-0.8144702827028957,4.745495680233132,-0.676126820834735,0.06965771639164377,-2.600065612260643,-0.0223695746497432
,-2.174967740749455,-1.1176997578257892,0.1712086562163087,-0.41646244862496395,16.639986187540575,0.7705336669320858,-0.0456620107175547,0.5710532288216477,-0.6091691907659165,4.511915997583414,-0.4602469513602718,0.6633622706939771,-4.58733894399725,1.6415610065943715
,-1.2955360135026246,-0.85173593251186,-0.02428836853183652,-0.5124391963306713,-4.892831231225022,0.5952779902170638,-0.5017893926250774,0.5318394340133953,-0.7392661884192124,-4.085525916726343,-1.9425438460099302,0.7316666074191508,-3.77788181605406,2.0233740205639665
,-0.012102393746127394,-0.6080582932079183,0.7022720767435081,-0.4729164901185951,-1.2155052349671,0.5251840958951756,-0.5129540841036591,0.3368764687112404,-0.753582925027999,-4.372970030006873,-0.6013412417603944,0.0033583410081657462,-0.8981038062270634,2.044583817151451
,2.8035143797255073,-1.6879748497087759,0.7090358521766407,-0.26647418169337733,-17.162254462386226,1.1657704258212342,0.38777704511028205,0.9804861196866295,0.9065092906852913,-1.7878923310941246,0.6050090496570021,0.21375719886119118,-0.908370617708973,1.9559483387612158
,-1.4718720942922248,-1.2635800796049896,0.3487786618266191,0.1270103394792017,-4.160629999052108,0.7907835548197366,0.13355656880979355,1.3936467510467698,0.8719357758434091,-1.3383941202998877,0.7458961397549909,0.48841984415511347,-2.051886918887102,0.1469004013539661
,-2.252125991290447,-3.6507942088707206,0.30173198100004556,-0.13497856876143266,-7.169563909459189,0.9837225565600253,0.07049616881431402,1.399340243711684,0.9266475331672748,-0.9785256385036283,0.5920506872865232,0.2859634845363747,0.10680420593341226,1.2289529941559472
,-1.1242648954649592,-1.8014779814401647,-0.05668174458369564,-0.6153255578872062,-0.6658666167012903,0.9400095700766022,0.14810765732331313,1.045822937492333,0.512645526389586,-1.880060070128476,-0.8500565649669353,0.03879070300449996,-0.4109308473315463,1.404251336138979
,1.8040603918313902,-1.3161773987287944,0.17451564927971217,-0.5916424613645014,-3.493559228076602,0.19021185190763068,0.15906101922597904,1.5280507816524416,0.6504689890684628,-0.3010605553547493,-0.23759194179630647,0.08347590905588725,-2.1429406260373516,0.5631360238601018
,0.6427925731489391,-3.2789287773134084,-0.3451304616259118,-0.610536055186157,-15.86030900346896,0.7967923629464395,0.12143193441634724,0.36854518160126754,-0.373642227240193,2.152885541848342,-0.4315612424136032,0.5090257453327433,-1.7397391374968816,0.41284376399285005
,1.0852560636845687,-2.643630071941062,-0.5646966217093701,-1.2067556358187848,-9.62720333636034,0.46776233519898763,-0.05864558138747899,-0.44761383131739224,-1.2046632406743676,2.4013837067888963,-0.643024186503941,0.15870350150529103,-1.4288663077899852,1.0181709083437247
,-2.3168713528579987,-0.8537811460740451,-0.2156241821783079,-1.0626838856810508,13.010900826300475,0.23393107254775572,-0.05284589245095312,0.062019555141126816,-1.0093561153521426,1.649825382301056,-0.6005017598502326,-0.04825278897510234,-3.554728844282633,1.133529218443533
,-0.9851467651652578,0.3021346445885471,0.3618612262304216,-0.23528155290654268,19.151267426344553,0.5612487132922446,0.2286680251169573,0.21983656199398524,0.9946208483130754,1.3387331242724434,-1.7629431423194135,0.12842330304549723,-5.145035501803862,0.9652689093418111
,0.036940214280788246,-0.7526560017830899,0.1303464479911864,-0.3134878580609959,8.478519602173499,0.9467913131304272,-0.021596870678850452,-0.06348875736279815,1.502790925454537,-0.9198088529773808,-1.3307708740081647,-0.201173492947787,-4.025991392110156,0.619749435159733
,-0.6432085771473787,-0.7484551290728594,-0.15514549969128658,-0.28912961064190296,-4.488763850466351,0.9959667908156887,-0.29041393661215487,0.09761770971278745,-0.7278715615091077,-4.132815564011578,-0.5785773591180305,-0.3542355202135525,-0.9647901172599644,-1.3137566567422019
,-0.8278610994547709,0.41816193309942484,-0.39288859488148964,-0.5457327200794068,-13.595182096968953,0.4622542574094931,-0.3866186659963363,0.2670387589999217,-1.219081151849576,-3.1618561439255757,0.8537579280057539,-0.04704264824706752,-0.5141958664944709,-1.6661158724648353
,1.1317949235478044,1.0049740662474949,-0.8320281997858169,-1.1700974926017351,11.826947031907777,0.0076804805928248196,-0.16747329100088446,0.5591734722902363,-0.4711457925063572,-3.2843373152415882,0.3500561296896653,0.451583111051316,-2.9943316271934077,0.41463139069360055
,-0.21709965933855244,0.23394875431530948,-0.6241167942803293,-0.559669631023941,-1.0551420387153598,-0.4379273496653193,0.2693751138156563,0.26880266249881357,-0.058347105264925474,-6.63487635585257,-0.7565628682464736,-0.46102422768966395,-0.9228342184513082,0.78822785960019
,-1.3582256131526635,-1.3106190336526713,-0.42839167133632655,-0.2656176880848154,-9.163592433990358,-0.3058493969139282,-0.07319895030958538,-0.5224190759022573,-0.23736415656551726,-4.558318394337481,-0.1392144549385851,-0.47755352631810805,-0.8860913043165809,0.892263599612447
,0.44589415314900027,-2.4577560020436975,-0.713235366649599,-0.0830553013917659,-6.517492000023821,0.5002911699456926,-0.1633459782331889,-0.44762285297488763,-1.5699656620171096,-1.0343107061512478,-0.5573700021997771,0.33136704869708844,-2.2115932530291067,1.2772424489975245
,0.12522088080658392,-3.324854953679696,-0.6048723958287967,-0.506070445269805,-4.243761006873476,1.3258158425088156,0.30735996216534794,0.041296909892938216,-0.9383790581639544,4.431649430770876,-0.7311812583025844,0.37297568193251723,-1.040895706329853,1.2435880131329218
,0.5961929080034978,-3.980458414641621,0.04815935346644562,-1.0976798508422971,9.236623798603958,1.0201219224179383,-0.17520996157271784,0.18774795784602077,0.5712159773188061,-0.9987677042298728,-0.9279031515994218,0.33285851511936243,-1.8970115401524756,1.6458790730820037
,0.013005713350716493,-4.1373007219271045,0.4828805036516765,-0.38674777765661794,10.77173225938925,0.963211426468169,-0.35046085746024247,-0.5803937001487641,0.4611329665237508,-1.4762971756985028,-1.094714421775302,-0.18037653691607133,-1.536701317693086,1.4742328660030124
,-2.107436433982389,-2.2930813127337446,0.40789772499834837,-0.16126196622288622,4.498553856447623,-0.1389553201177489,-0.2984416211248777,-0.2699093355334678,-0.2323298992163515,-4.5298161922522375,0.08003028266480498,-0.19125390195360595,-2.248399276053679,0.5776795082301133
,0.6535414687218803,-1.3825645961790127,-0.14969489305107803,-0.30759079531423106,13.9018116688151,0.2359476714473829,0.01192243131293936,0.7202649487817083,-0.07039301258464443,-4.00326000475856,-0.24188054774584022,-0.020407352403123538,-1.36459851198963,-0.14080831146439113
,1.6135057088312212,-2.1801936607627663,-0.7897507538355976,-0.1599832276470046,3.4517460683437884,0.5905306262795413,-1.1090839085702893,0.4736873315675182,0.6728465810913135,-1.4742609513934444,0.9796253375304883,0.4741714038975942,2.1719800030902947,0.4473451180391093
,-1.4941666223744046,-1.231452181272539,-0.12361867582361985,-0.13414277201536431,11.599083070236809,1.3911692680482863,-1.555026111754125,0.3948904365794135,0.6586223071351706,1.728635670350893,1.0699457760273168,0.6560759580972996,2.797621822284445,1.3246917644145768
,-2.2459470198879066,-1.4721124975184288,0.09289769771038017,-1.0566712707900732,9.328076381565326,1.553835865502039,-0.7671065969292844,0.7623298979135688,0.38621107216438666,7.510101725051272,-0.9472396599397169,0.05092909969154113,0.9398247827554428,1.480518069921402
,-3.246330895889453,-2.1486356023615114,0.6060073949987944,-0.7683314461475079,-1.3642046760458206,0.7814720985338864,-0.9727783322945779,0.7093255021703092,-0.29988408241996006,0.4422132358311804,-0.6843360673552645,0.6790643112427353,-1.1842528713272857,-0.26142669858559153
,-2.917566524844707,-3.2118621451159997,0.7694750806643386,-0.2613338435209792,15.74860768068702,0.6345682699967466,-0.06578434079004636,0.9453480709793918,0.3095540222118173,-0.28407351598950703,-0.3150650482367349,0.5748022812472845,-5.120880929712444,1.5166376012349247
,-0.6297632807541389,-2.2002372943710227,0.45623271334796717,-0.0035267341280681174,12.246245253624442,0.5456527765295293,0.6541080531634,1.0435501450454048,-0.21304946283140974,-0.19195463446106414,0.22177718931725718,0.21731600278938434,-1.2711941194455145,2.1913282440121256
,0.09419545609037787,-1.8261548334828719,-0.5914442596541981,0.12164192766621267,1.1680391732337028,1.3913111229291122,0.6706080563625127,0.09096421886566314,-0.918710368983161,-0.7008513011747223,-0.796225145696273,-0.30994267703010336,-0.3082196474410408,3.076357149182161
,0.005088917077140583,-3.10999215935003,-0.3907850652315713,0.1345756307496074,0.5644653395371444,0.4671397481077698,0.6380835747197481,0.22006203877326896,-0.09084317078505157,2.8433591020347544,0.15568232322002998,0.06483450103622003,-2.9457875178423176,2.083153667262257
,-0.28511907875516385,-2.1303145367778438,-0.2951055894607989,-0.005460562914208088,-1.4888041816735238,0.6688972327296412,0.38565466926963554,0.9537794872899018,-0.3286481795777901,0.7842851833244653,0.3968865355771367,-0.22726539561628045,-0.7335256629416016,1.9969610178669657
,-0.6358942705405786,-2.452047397053506,-0.031376875591779,0.0847844205864642,-21.962140418805596,0.980938005497117,0.15915615286634996,0.9273753748712654,-0.4785561648744752,2.388797758646537,-0.02956684751971051,-1.126921426609338,1.3727252651364101,4.016509580906018
,0.36333787101618675,-1.5067608058177377,0.04489881639785563,0.13874963990482905,-0.21529775480443905,0.9861531967188918,0.06958610856041135,0.3190203146996919,-0.8713726121194988,1.9579274389530843,0.2191601546540414,-1.1635277842113438,2.981434456760101,3.92456590571155
,-0.8439538921973126,-1.5542489549362752,-0.415713214817774,-0.2702077483274414,8.880635480302486,1.1300897112636488,-0.4268291724867689,-0.35621426403103307,-1.0206746953039962,0.9150551780296324,-0.14991776765760528,-0.5879170288223156,2.491660361764527,2.1602952388522114
,-0.47887611720937867,0.18615623719988633,-0.5576503663544201,-0.10682934064518053,23.644956228649935,0.03289059867804122,-0.1998192941739262,0.3207710145404342,0.003037776406526601,5.151439516792308,-0.3852676621416451,-0.5261418969945678,0.6126518739909201,-0.35841183689625056
,-0.4714377016968433,0.8193854821805964,-0.07841740753089665,0.2334781264642759,25.227722224358892,-0.48040595269567027,-0.6101508197473178,0.7057699519354863,1.0597717762993384,-1.7873792998654776,0.2721007561530221,-0.06490367011506988,-0.01019853383574515,-0.40107659885380775
,-3.2514983977955874,-1.295013475304054,-0.5262488947822057,0.06465037466275723,-4.468499923299524,0.3440668670111503,-0.8322696064324583,0.45033177825278664,1.419690426835748,-1.0434997671438522,-0.03354086587327082,-0.5663076600073075,-0.10422359834181436,0.33343667485626594
,-3.1197281527901017,-0.7234472685268275,-0.3233548511003547,-0.2529492768032748,-13.70798374684653,-0.13585173186858687,0.29725692927323377,-0.0018441023017726924,1.458161943239661,4.755669828671727,-0.1527573481649532,-0.16558315398678133,-2.5026059707675388,-2.552647326333903
,-2.2708240139458225,-0.6450870178438922,0.3450084034982392,0.04375770477706792,19.419113749445135,-0.5542572242340614,0.26155672872266356,0.2515124163175891,1.6284072524087634,3.375597864589967,-0.9900002310108181,0.1684842970012256,-3.8102456334605552,2.7134657957148387
,-0.8383306738075552,0.08887604517757879,-0.1140549517824898,-0.2531759517352292,18.507469942586635,0.04961780997414379,0.6618562918184541,0.5393497253247572,2.019971984761587,-3.0665836902449635,-0.9196278675883275,-0.49591753131668986,-3.9762697709746493,4.222297857755008
,1.6729647883925212,-0.17738580805704054,-0.12807600687674975,-0.7876007183972503,12.269216891508213,0.24539259989085915,0.811667727701454,0.5759806882075306,0.9295305360402477,1.0298449074199203,-0.8024361512266915,-0.43662416225224415,0.028313867020714915,3.5807223695040227
,-1.1699124038362336,0.6959316616178343,-0.022001131767016912,-0.2760074343719695,29.344607902420066,-0.00435036492069568,0.15102973989027224,0.4460441292321086,0.2426993828908822,7.332472838680855,-0.7923885559757111,-0.44743849646844125,-0.18322187843722745,3.3650620589523563
,-4.181100655183399,1.1037347828891078,-0.3692149265078378,-0.3337579037352346,20.079493124546328,0.46023088968954795,-0.10639761723041372,0.21012652948277338,0.4415752727354853,10.446576964779046,0.13465689360480107,0.15095610225391035,-3.598134487985774,1.6357468629140162
,-4.055719721984265,0.9641962412213332,-0.43135841823166926,0.3073758343582409,10.213471418053821,0.48180735700523536,0.02214360382705991,0.14420870820478088,-0.38149447027056116,7.057893180014347,0.4542991056761439,0.720766770834979,-1.7111741974234895,0.013777486023098072
,-4.321263107098863,-1.193815348079371,0.06555228866677966,0.19940072029588454,20.89903990316078,-0.48362149112598274,0.20219824585901566,0.67550123252903,0.6967173247573313,-2.2171374073978654,-0.19929955884655823,0.017379876777621275,-2.110425503624696,0.3623529970121055
,-2.353947894479542,-0.8053069596731763,0.6469764906898224,0.6503802737425317,11.940213813913191,-0.10676304257748212,0.1715543032239426,1.1991591840085327,1.2822628275650314,-4.729395006727529,-0.2539679742712745,0.11504134575178998,-3.0606924839881606,-0.0636470243604321
,-0.721589686086487,0.23303047854522807,-0.006360756334198036,0.021038484697310292,10.827708111002659,0.24617663815498028,0.1653451304002719,1.1260352652908896,-0.028521767861652836,3.481597072154624,0.2919065621451109,0.5110737583158256,-2.5101244443297634,-2.3982536247941675
,2.5394295731441776,-0.8407502457506943,-0.20138419416054396,-0.42023013794557035,11.326563940294239,-0.7238996020655434,-0.355320528507003,0.8515821621470275,0.12548135744436079,4.651262968874448,0.30217918689187184,0.7422846843933604,-3.1081152182688614,-0.020594671075582213
,5.864559885970796,-0.46450711148363466,-0.1403543476604363,-0.08417300988756034,-10.298428881249617,0.08075808573610237,-0.2882125578539148,0.7104748157585716,0.5386722727801078,-0.00842483201300878,0.2623485850109869,-0.5412550638295155,0.7840429893628502,0.3502130299997414
,0.284415536321836,-0.816571973410322,-0.28191331925310925,-0.30112499925933556,-3.1077427084364335,0.4674287470708743,-0.1782812009261342,0.26964339569285256,-0.3097830411645907,0.7193098687279045,0.5193844933011744,-0.44829092376323415,1.4938990729552064,-0.27346868163036275
,-1.5215284499345225,-1.0608790041743525,-0.20332051808458138,-0.2376569313786603,-2.4897146132916603,0.44886438841869053,-0.3697522779220812,0.10776004101625829,-0.18739095609150236,1.6310127144852518,0.49055396346216407,0.2555072824718987,3.533197377632498,0.677537387854238
,-0.534417972103932,-1.346015243435302,0.2043793809524211,0.18862803628680033,-3.069175320636478,0.3023231357804027,-0.2895307415017332,-0.08368819506542197,-0.09770995319715228,2.7324812668996374,0.1844146517332452,-0.21137588155469408,2.9304225222823037,1.3194200333005175
,-1.075470843449483,-1.3552543991749713,0.26870598870580437,0.28687800106213096,-8.885685724108859,0.023146056019575565,0.22628010097433715,0.7819636207067893,0.19502524790988987,2.004195253819282,0.07561185338418933,-0.10119724716080719,2.682864551839675,0.4777689165762464
,-3.715934255918158,0.33008486171452506,0.05533499232528051,-0.005785047631734041,1.8556800147634054,0.09641057037197186,-0.07059903438468859,1.403532297029504,0.28469725089516934,3.3562526610321246,-0.17994070206192977,0.3542320708415344,0.006950713968483868,0.39080032575835455
,-2.8049231495616023,-1.1251708196168158,-0.21414135912944787,0.16170316023396816,-13.23436926949532,0.5603116585469853,-0.18171882681950213,1.2283443852556901,0.46748789483667375,-3.163223938382579,-0.04794467960144061,0.2766965570726273,-2.8738341526935547,1.6835577465710112
,-1.2979071472483172,-2.441903074157364,0.12548483928359958,-0.2604094134765089,8.435809592043828,0.6997187817166577,0.3632849483787678,0.9722841962551981,-0.46688195244704067,-5.2016419773971,-0.529816599785127,0.30846756888386917,-0.7906292381179982,0.7684780510672742
,-2.6285207278182696,-1.4933518519633093,0.2614144566145996,0.19993711986172694,8.322566802308069,-0.5651277561810399,0.05125148845627818,0.9330703967611911,-0.5062301638930867,-1.9223708345552508,-0.9540001896855481,0.0025852367893829933,0.8505680350827766,1.9523274158842066
,-3.004465474054058,-0.3234862858590178,-0.6609536214435584,0.5072725751659364,-1.0215792968729063,-0.7023179886446609,-0.3524074432093476,0.6310600752920442,0.5788616293877032,2.6341520931467466,-2.6274536786053035,-0.1443798642973307,-1.1012128593870014,2.7655249162660316
,-0.5064574753972851,-1.0216853826641419,-0.8542442496377018,0.36091948246327976,6.1980685380921035,0.29574444164073915,-0.2991753419509805,1.080076612456324,0.676318832806795,2.5121448855336137,-1.5381677565475032,-0.5280120465357708,0.43944799625072406,0.7815094423752137
,-2.4891522238119883,0.9839881219951986,-0.5065153518544601,-0.3536207984202761,8.669034331832037,0.24147315810766098,-0.4660444900796549,0.3075286417441471,0.0766693057660434,-5.098568964512623,-0.7164173663385518,-0.16526453841825622,-3.354229094899093,0.9675934181718263
,-2.9791272820132146,-1.5549572587408003,-0.8081989657495255,-0.4656301003791742,-2.071224490264101,0.856799906925583,-0.3317169778969258,0.4290896112489725,-0.6418972743728475,-0.007469768638985754,-0.4649809230487126,-0.4357874299147926,-8.594619763068554,0.2560043787970473
,-0.9855201620191164,-3.7532969616479286,-0.5931433152935957,0.22355675965405705,-6.33803191695,0.4790324841157087,-0.56631169943708,0.6772845313066931,-0.7143087752724361,-2.2206478449113383,-0.8509079329435267,-0.023956535739233696,-3.657821887958531,-1.2779685101322655
,1.3674542855864398,-2.2384679288204565,-0.274541127192167,0.48983229915496296,-9.580213169531412,0.22833679062238385,-0.3646808709305286,0.17195591650303954,0.34167397505731567,-1.3917360508345622,0.445968533650101,-0.5287531507575355,-0.82144022479331,0.11068767108419778
,1.987962499495609,-1.9940877349951402,-0.4158157042788748,0.33332207772030725,-13.226914925671764,0.31343986884616776,0.23864400696351482,1.05054704871654,0.37844852186547107,4.535800702760827,1.3314507005834186,-0.9765905607884161,3.298712672177146,0.5318297253485367
,-1.2165202590550916,1.1414201638566615,-0.6969536494776988,-0.37661084105966686,-11.42510739124067,0.7799750709249946,0.23461534209009147,1.4825710639109875,1.1479602663103605,1.2577600413376229,0.5369417023359787,-0.787582665780721,3.3347937972500237,0.7704055631500422
,-0.2043834057109123,0.7385900663211032,-0.1962430485229689,-0.11374872349599001,-9.644012764524758,-0.13156837694646542,-1.060908751459582,1.1518509344692387,1.4692431134689905,-0.38860548665097433,-0.18858887248397477,-0.18583707920404913,-0.12142371041408219,0.37020675465884884
,2.135992870438943,-1.0301215292698662,-0.06732978982005794,-0.17522672683319734,2.315657366727032,-0.0028747860385853028,-1.129466843206364,0.7854749301743046,1.3168720294045761,6.425951756789794,-1.5187843295226175,-0.3709098022000973,-5.504873555442501,1.2290175419742229
,2.3009522687096515,-3.077254831999155,-0.04935799478350353,-0.28743915909521794,-3.750205349076266,0.46852799685794294,-0.08783277484050646,0.375034767834466,0.8614371723655101,6.133470621933641,-0.44806338577633703,-0.6126872945301228,-2.6000468224753517,-0.8387904842487931
,-1.0195418323206655,-4.5031639996447765,-0.1138937472867124,-0.343573333019079,-24.066394238260315,0.7758172849209266,0.2640766100753123,-0.4092232263517794,-0.829749478727152,1.3339538304972691,0.46960175914313723,-0.46996633025649187,-0.6222069826663503,0.4076049472749441
,-3.080443101787495,-2.87160505938901,-0.46679091030776787,-0.3333466576372215,-7.035942181194559,0.7709300619019706,0.09480398851857072,-0.6309475289623029,-0.6623443468262438,-0.28495539097193273,0.29260909742202684,-0.570119079173034,-1.6393741178321342,0.20386099168636926
,-3.655783790342124,0.6096847729018877,-0.2779571079933554,-0.2997733727029724,2.959896146621613,1.583931325649292,0.31298925967033986,-0.19551934409937902,0.44581697992286384,-1.8528026658611187,-0.03648908403770096,-0.34237509916388925,0.9950191465511542,-0.17500299199222474
,-2.269911425196703,1.0810435231333146,-0.3465972901643429,-0.6489771420565696,-3.116482066823999,2.360572010181137,-0.5713949687937018,0.1555123710351118,0.231075365392227,-1.3610919011966947,1.0917652732288967,-0.5001081238787398,3.5455261744437703,0.7591956065957873
,-0.02092914756783806,-0.8629306330611369,-0.22206116051584998,-0.6808222013303707,-18.92776883028635,1.2809718333556224,-1.1320681306171623,-0.19304543426243514,0.18859344634049743,-1.865838417326668,0.5539405622106407,-0.48338841664790816,4.195187366893795,1.547078363662192
,-1.4089470294440334,-1.0851175906797887,-0.053936772067564205,-0.34861747077311434,-22.4438880587963,0.06462253221442296,-0.4802928128103268,-0.1307540586182214,-0.7535558180977319,1.1013424202891346,-0.09755396029485809,-0.18805736088105526,1.1198222417039938,1.0085857265824931
,-3.2407248298511577,-1.420006177306922,-0.5211660118533671,-0.5946433588848905,-9.422881442331214,-0.4511942832643145,-0.34886567420605374,0.2914977277003261,0.29027186983406544,2.877273320244705,-0.1404841789991269,-0.26132362184491326,1.4020174888123496,-0.23920676794780488
,-5.477970807535486,-0.18038002281063903,-0.6869043503825428,-0.4015362139967817,5.473576273747311,-0.5447548999173282,-0.04052516098920713,0.2816042385820572,1.571988056543807,2.802860354182169,0.5393784388238346,0.11509991569583597,2.66296739985059,0.5110249354997091
,-3.826966270614366,0.8734909690308308,-0.04790273435749682,-0.22165185876103682,5.61121563126666,0.20000450296645925,0.3068204492692068,1.2598316106061518,1.0109188332273762,5.268449941144849,0.18294435230120976,0.11437120976486115,0.14988454990955208,1.7685693282496542
,-0.6870640197418655,0.2063588501376997,-0.12807737267519148,-0.14412158470212183,4.2473593393559135,0.3413051502481782,-0.655671149150961,1.1936553429915309,1.2439296760837135,2.849195787067459,0.03185262033002959,-0.013308132199134258,-1.9477468811080414,1.274489894211091
,-1.313263386192938,-0.16338236505755271,0.1654880304906544,-0.4005999417998538,-0.7890738840858932,0.83972587642238,-0.894689936863492,0.883194220285525,1.1310967233915403,-2.2293416523188485,-0.3411834648046544,0.3002486165428877,1.172327852252557,1.4033686601705893
,-2.0348890471396466,-1.0138769789571673,0.5148256693569168,-1.2742517183005402,1.8282335981502582,0.9008545218204242,-0.2147772145244491,0.7520816608746705,0.09668004926333887,-7.2748604320261,-1.2791139564487566,0.6990814461058236,0.543743449771964,2.2938681107291123
,-1.5780466916662117,-2.6199609560005976,-0.13075314895622434,-1.2115313867646391,-2.40187207732968,-0.14728269551741774,-0.26309918098582497,0.7268639300565439,0.3774876396343231,-0.9302334975073575,-0.4645821390689624,0.6433248895177133,-0.0758706571934961,2.095413546033745
,-1.5128756283580502,-1.5327742067056118,-0.5561361243957753,-0.6139890409413918,-18.518105111294506,-0.2875584679639817,-0.4761210475878372,1.0055080488494743,2.286715974322017,3.0521111329203143,0.06385110098886503,0.5656289626750631,-0.8373692609516779,2.7317441714541078
,-1.1657446416015007,-0.61280740435223,-0.061749543055110996,-0.5602953715558449,-13.424857000964304,0.2769813648508717,-0.009333104207632807,0.5861970681645476,1.1915802760053178,3.0675153397194577,-0.3309235573178755,0.4512317022302488,-0.3093739887667391,2.0315849357651388
,0.2669114446971262,-3.0558766987681234,0.3696640716857609,-0.33822336479734383,-28.013251966422914,0.8757391403508297,0.0797375621946305,0.1340834013224542,-0.6909383463767383,-3.069024767214989,-0.6279095004253904,0.46034594715305943,0.5039084424911077,1.4281114017986063
,0.1271212658658019,-3.2415651684209266,-0.04112621166576081,-0.4286543701310174,-48.5449953490533,0.31151202840613124,-0.37495156388683104,-0.2969542137488056,-1.2886805835660076,-2.0797831418066086,-1.155816307849187,0.34029662503852937,1.2499185399251431,-0.2620840075675765
,-1.711086563977433,-2.5094121102784164,0.18443617195539994,-0.7514119743056902,-31.64006390149122,0.3297742345733294,-0.3605090942005796,-0.4716312956038269,-0.5659538622824353,-4.507656242478786,-1.3621533566880395,0.5425088200734741,-2.831316850698578,-1.2297764707835337
,-3.0701842726354323,-2.520188023659564,0.8148469565068743,-0.4383477103389577,-18.588838096672536,0.46234272680905186,-0.20914531593913085,-0.22186220965810657,0.2316876634487595,-11.173846588974412,-1.0539420643493782,0.08537390536423148,-3.9304954390517324,-1.2511047425378297
,-3.584039196496511,-2.119264371325457,-0.19238829948874772,-0.7152764237403711,-18.113727043925973,0.09900646232061777,-0.14018803180208755,-0.45953416585200435,-0.9291105256573816,-8.594699317085341,-0.3030834257935841,-0.5536100105257374,-2.3415505100979046,-0.5850314151626986
,-3.651582612141602,-1.0793418102650318,-0.4936212818356825,-0.7198716400612475,-17.960925642535187,0.40957265850235924,-0.009244490506904932,-0.3749257992031205,-1.1082609620904842,-2.2505534544073806,0.20401237499500452,-0.49579726773782923,-1.6785026797640261,-1.291340380084699
,-0.22214339923531473,0.10026830895646623,-0.441137881311904,-0.667955288858787,6.874338854792379,0.4973489448107013,0.17928228413700414,0.12795879179710545,-0.4976081969323194,2.8492806816339304,0.06334214640449207,-0.3889249864810345,-0.1779513954517564,-1.9715469704481765
,-0.1791897386719908,0.22251245510216774,-0.31005157696182667,-0.18097484099432326,1.231728743952848,0.9405098655877856,0.07359509054825632,-0.05859708108180134,-0.6881952294919245,2.6328034238031273,-1.198956468303303,0.06893645002136004,-2.7145687525324997,0.6255929002758479
,-3.5681050835130246,-0.26405924031375977,-0.14471651967538168,0.23565256713412017,-5.279854692835721,1.0831635870141785,0.21708748287252497,-0.5251300806095188,-1.2113279791183247,-9.273581118197615,-0.04021691531937961,0.14279276854878573,-3.8541383378124405,0.8492163880715669
,-2.477471558734823,-2.5017858546426415,0.20623959603520395,-0.7202067176518363,-6.34963022166065,2.0166469413606714,-0.13915106793011078,-0.0830400351981772,-0.22267664396553793,-7.334591181797197,0.6228693193350776,0.11168121521319865,-5.350797065329051,-0.2516057355309617
,-1.2666441918134235,-1.2200227308115408,-0.0807867083623237,-0.7122779198451852,1.5532181963728733,1.2857765563137025,-0.33112560245856737,0.6884773658005172,1.6852215867973237,-0.7562140329318968,-0.7960983461403253,-0.27064388008078005,-3.739797825464756,1.436098227520006
,-3.155142315240971,-0.5873546233628577,-0.40660313208061816,-0.8138802885054218,-3.7581435584940293,1.3363036267762582,-0.32392973847254386,0.7481747423393325,1.1756851294878394,1.3440917961091432,-0.5474922448778774,-0.2887142833429294,-0.5223496895928735,1.8843573257573487
,-3.80666012798621,-0.07353769195064654,-0.05313555764352279,-0.618684755729823,-6.5897235762820205,1.348318028739053,0.17429497291092771,0.44738163032568273,0.9601505856923319,-0.36763738327399814,-0.8954286804304125,0.33263137981449853,-1.0091127453979107,0.10364489742498213
,-3.6825560935999895,-0.11728752359228994,0.019672383416375516,-0.5371092505229987,-18.10237721780774,-0.030178197866077887,0.28380198751664104,0.7880023718877739,0.40853421534438483,-0.07244219613216968,-1.12528029622405,0.05893079036088256,-4.2467975580119575,0.7739436311330081
,-1.0341136630817767,-1.1222754300492848,-0.33885856519563956,-0.7837512180397105,-1.7648525791676597,-0.041995258083090396,0.04797826656713696,1.1646670331882067,-0.4437228666172481,-0.5166505105347807,-1.003641264002087,0.10461974577329461,-3.12722131839999,1.2055491957168796
,2.1469352835431263,-0.4577033008555045,-0.23482137393622995,-0.12896795257272375,-6.621758251402404,0.4927992059172436,-0.06165920457093657,0.820463022266531,0.5194670705812151,0.3837007737647407,-0.2721653770348102,-0.2203520340161919,-2.0254003568509615,-0.2465072787423613
,1.347440769459231,0.7074841817814452,0.21978967197600502,-0.7737250636818581,-2.2883531440472233,0.2542448875736229,0.017295336286869738,-0.6331438679689179,-0.300988065654642,5.4055146900071165,0.10318751755519566,-0.602809136436572,-1.0504561954728617,-0.17905463757641998
,-0.7309600712903225,-0.08137734239137638,-0.2295964065858751,-0.8040850799223231,-4.766804436749792,0.3072799637823696,0.21413391057999823,-0.42733228769880144,0.16002859254760213,2.2329102411974304,-0.030260328076723877,0.06097323123691056,1.7862023148222514,0.8198444846198788
,-3.7583039728335526,-0.3565443347456359,-0.30364384084342816,-0.8264600582104575,-13.920689695486939,0.4811955993233228,0.360212734652461,1.619046421708571,0.724597643732548,-1.6454581099620045,-0.14634891794444654,0.4447477704103928,1.667964729602116,0.7671565170921144
,-1.862385402714442,-2.5280324380538013,-0.19160577551692837,-0.955422111907746,-10.033844273264387,1.089821796999772,0.36834451509916133,1.8361649198402283,0.32612046173346176,-0.9818610549175547,-0.6348961911741563,0.5866019211639772,-0.4970111028307081,-0.26133628911047163
,-0.6088071310400169,-1.2054940961832183,0.16283988476075004,-0.8869927486562608,2.4641754744566793,0.4017920137317143,0.10871104307280696,0.5790323064375394,0.5144590905244707,2.5076562694049054,-0.3680144123886423,0.190227480474762,-2.6944694947846104,1.0151966552974736
,-1.2897050621522583,0.5174751507752321,0.5099496451903669,-0.2635113178284547,10.35630681183948,-0.4398731107535571,-0.07016096838591815,0.6668680457114627,-0.08293668880076363,4.105024434683437,-0.14507940009362788,0.1597840353294062,-3.9705276234851974,0.18314729301636817
,0.6572141678692144,-0.16750100567343545,0.23504281289248063,-0.46638060994005726,8.883511732194053,-0.02649054495142412,-0.15623758643199612,0.6934157212465084,0.5348894686350321,0.5896922847184337,0.27072748415645786,0.5139875671219388,-1.2219939330881895,-1.8799182640533387
,0.5490665677736017,-0.2711703878549393,-0.16278722804896364,-1.2613263560887409,-10.34690644990703,0.25258875137865705,0.6236356105543038,0.6101995823284861,1.0736425541470187,2.1776694402494794,0.4390478964807198,-0.05194507312197945,-0.6955518467103535,-2.3236899985672883
,-1.1691789534820898,-1.0420172467602393,0.3438440461327777,-0.30583988097553116,-17.966390744617573,0.7122618500792782,0.31014888429531984,0.8603840075933523,0.1910921801040412,3.7086741004734924,0.24566665613359787,-0.2855328070228715,-1.1210745127682729,-0.7621779899811895
,0.46524906375888037,-0.597553909417962,-0.049536992464919216,-0.4419313582894216,-11.61754787191819,1.506029274539247,0.18388999310792636,1.068060454278144,-0.31004703464135314,-1.4466918218853013,-0.5725419270152565,0.08041412170861008,-2.311978232765087,0.3830796075513458
,-0.08779865130475936,-0.46415491466398273,0.061115001226004266,-0.31806840813711396,-3.3099350517031785,0.23203107435206172,-0.1683895287568403,0.6225176748955953,-0.8001455461237719,-5.00881149257051,-1.922676378061657,0.22560842954505123,-4.571734031626793,-0.1430708131164043
,-3.1871193044507447,-2.1512220928964303,0.18917264500997039,-0.22725468027458295,-9.6264377450735,0.5870956602595899,-0.4425474309969683,-0.3383760668232003,0.6443400936991364,-0.35674150967035034,-1.5715162883236136,0.46777837608129147,-3.482144110543744,-1.0147304895354383
,-2.009474018971622,-4.162882316563584,0.020927110916324862,-0.2899724793672032,-20.543239160558205,1.6675749297003897,0.0821966845065296,0.20667111622204395,1.4305347605256007,3.2569662369289154,-0.9259171669263208,0.45182741000744225,-1.799746077697782,-0.1409937157337171
,-0.11424897141340128,-3.9027729865378613,0.06404767158438339,-0.03137311649770417,-0.39392563707124434,0.9286325413940202,-0.01643895942814294,0.5876715384689267,0.3160280862699163,3.287951466147917,-0.965678247467044,-0.03209555289652789,-0.8912619725644142,-0.47547595884343125
,-0.08724800777529669,-2.25518153276873,-0.15109664730483707,-0.2925135375441031,5.482919044701444,0.5926816076226007,0.2489388757877024,0.5305608777802034,0.8869589169294394,3.459567320473239,-0.8668517655735161,0.09354009665134085,1.0090992546850683,-0.7365591723995507
,-2.2003858095217033,-0.4150280537463772,-0.37427409743510237,-0.18334709286993367,-7.05894805685486,-0.1512332989264553,0.5249820973563958,0.032845627574593625,0.3124792379503126,1.3215742341488608,-0.6817284331333535,0.049012491709910774,-1.0947641228770542,1.2616240152845821
,-1.8464196575043705,0.37925378467673226,0.0027944108565116604,0.09608499240605944,-11.8708008586592,-0.6221204649226517,-0.0986104543206656,0.5647267404650489,-0.5911787233856204,3.907203603388765,-0.22981998642710466,-0.13647157863599632,-3.4645290138822453,0.7515293485058584
,-0.8393772417692477,0.588681357715844,0.2901288225279108,0.28299856944271895,-3.0640452340147655,-0.1386112800031087,-0.3627190465423908,0.3056087848782027,-0.13313320953238028,5.852565233908714,-0.7811640428153684,-0.10317551610916649,-2.697530364096052,0.42490282796537204
,0.8349468108681765,-1.4524425797565645,0.08530943098108389,-0.3931977074124585,4.501923757735101,0.21418344875557205,-0.14489996366991056,0.41489637985737887,0.15021813354799998,3.2530161444182535,-1.358736207276628,0.1513652891783944,-3.0844384405139125,-0.7587878541302456
,-0.9848356307161094,1.6528957245878846,-0.1342234248010325,-0.27551946757090073,-2.1714371655647056,0.5219739235751283,-0.44627035697618944,0.35691980450389427,0.9131597074078904,5.253934552727876,-0.33983106492250564,0.3450674483786787,-2.7923531319633006,0.9846159041775548
,-3.3270101722750964,1.9105612277742596,0.4499274072521464,0.18558637443316034,-8.570789306991584,-0.06018510621758334,-0.3136821253221666,-0.18098836098295482,1.2402649751941788,5.390143872972857,0.3077528663382391,0.34552285717305486,-1.6978456307575236,0.6928628796862712
,-1.6234234599951505,1.4896612183451103,0.8178424095231529,-0.21462296553739837,-13.145628083080258,-0.23487287550369407,-0.6971056225286537,0.2862955470063529,0.371973611835191,-2.130203629450042,-1.0410789326352314,0.44590298841814596,-2.3535235914173813,0.8010264158080486
,-4.984635046943809,-0.17676515811352322,0.28751647408598485,-0.11363744277397748,-8.108965754123469,-0.09603195114982768,-0.1969055214183685,-0.010171465197478614,0.5726507013204,1.4286679450360253,-1.49045065574171,0.13855214816748587,-0.6735806065479877,1.4621131413612323
,-4.240045199894256,-1.9242539670721046,-0.027952053621343714,0.2372289186948444,-6.790129648378042,1.137560015735819,0.2156246032893737,-1.50604311468414,-0.15847590139569376,-0.28198895041263866,-1.547822568336384,0.08425725949720336,-2.0430130747055673,-0.47853417666929643
,-0.3743904041121046,-4.034578354655033,0.015792052296713745,-0.08125044999941414,-6.528450722171513,1.11658736317946,0.2076524606085413,-1.007919207651237,0.0911430142377715,-6.208186608392943,-0.578703151795595,0.026658597382007685,-5.880809684410487,0.7134411394257433
,-3.1498055501617874,-1.047216544503369,-0.505591167661089,-0.4115179885212235,11.297023079106223,0.1817035855836823,0.17164598742643833,-0.024457336033469,0.5913657407076854,-2.3079592351308724,0.389248328796498,0.09553986779322264,-2.863078961019866,0.6158399866596326
,-2.3948080068775126,-0.3984750655390296,-0.5868885868208094,-0.13518897787517456,11.796498451210821,0.016964976832545314,0.2605987649120051,-0.3152334534662412,0.5319163610338901,-5.601883659073927,0.08441690779272734,0.8614929449266703,1.492199637669714,-1.946874553560073
,-0.919064770498346,-1.0602007125913666,-0.16176648324260265,-0.2982468324140011,-3.7140929326095398,0.2919494225846091,0.38293496808073435,0.5755726915966336,0.0006753505255608786,-4.294376386689384,-0.43577611550467,0.679249360470204,-0.11134641684264113,-1.840092003539623
,-1.6236720871051122,-0.35185245245278435,0.4471259844495049,-0.6383538274496456,-8.170339499814498,0.19447788953209016,-0.20010932936133305,0.8920544499238364,-0.8963864829816995,3.5989191040079667,-0.6271634646733155,-0.014014120629436896,-2.6312752882521115,0.7726110823901833
,-1.4972115430710409,-1.4142830275876843,0.05607273658808226,-0.23238338948033804,-15.147009695664257,0.7275153733055769,0.03291794424736586,0.452337530327743,0.1647718198708632,0.8323970849246795,-2.077695042302717,-0.28447594932998965,-3.1312853099610396,2.127452668828373
,-1.5662644484815724,-3.513833855340454,-0.46999689569403963,-0.455865191404424,-20.80870876755498,0.745517489351339,-0.21921275472102622,0.12820013775862182,0.916919851423005,-0.8644873667277331,-2.1477744654239013,-0.1755609924136738,-1.3175074363349673,0.45306798777465823
,-0.19873109690058188,-2.5657200533732,-0.6142377515239471,-0.11961987061702294,-20.85034467109859,0.29717592926876585,-0.9380675640073763,0.18781708529130878,-0.028834023655298073,3.128460586944041,-0.8024497031222778,0.32280011755424076,2.2858525880047504,-1.6146177143321963
,-0.30728047668578545,-2.3100350778137346,-0.014924120359044543,-0.05219392021886637,-18.773744198414164,0.963546712365895,-0.5141912962926718,-0.166071230027088,-0.5851877271823873,4.005729598814273,0.034234836300816175,0.396542240780892,1.8423139051559352,-1.6427840871023056
,-0.5814705569399051,-3.0659503896161295,0.012605628037554533,-0.8526233689186207,-6.170959004451141,1.1878830616742309,-0.30839091502334814,-0.15584190707518217,0.16055934377910433,1.8901615733232378,-0.5649919804093487,0.42323672537365453,-1.7109840290870961,-0.8471443705726269
,-1.3146770269609802,-1.7947691708242932,0.31921709661474595,-1.261414203676487,7.089276357849034,0.5150667900688664,0.03703035097343107,0.10594817050435393,2.401068060459879,-0.9350533871339756,-0.7285823150077828,0.21373006827679594,-0.9034164148783286,0.245778646713989
,-2.1958040595021826,-1.1140888655055072,0.5913718283268895,-0.6208560069715681,-2.5577875904497747,0.9088455920055268,0.3957808977759976,0.3490760796429174,0.7862252252534265,-7.309582950248449,-0.041129228031959335,-0.18173255349475298,-0.6937788942228148,0.6028430009977396
,-3.0102038677229177,-0.47006952347882786,-0.02134093315115108,-0.20930309747511897,-9.85436883477192,1.321006115941563,0.8721739050667716,-0.1785353216246538,0.5640626883107817,-3.1225797407142353,-0.2678176312189338,0.3704194619885755,0.286716035892237,-0.22575630930263865
,-1.2778308323137215,0.013021392656376342,0.01893057676465795,-0.49890676083765606,-3.7046732923820653,0.9717073005200306,0.801405983931264,0.2602072102814213,0.1403914112317278,13.483213810162361,-0.17235027282544352,0.27018014993599027,3.2956891479816797,-0.031609519598338166
,-0.3754309238832684,-1.8589916052212767,-0.01036689208250347,-0.8271860344503451,-11.517799875681698,-0.08369740265435865,0.10027005237957369,0.8155371342402903,0.8334501377052318,8.867061190957385,-0.11607450980240903,0.287440567863977,2.143857857289107,-0.7085898024587375
,-0.6638854863444296,-0.2787108556361238,0.2546405288050335,-0.3517199366002813,-10.871949106553949,-0.14331142730560945,-0.33194749394076895,1.375364995053706,1.3280123026899766,-3.9114880740270563,0.4839470426138535,-0.08749873666534372,1.1204624794266604,-0.39980924835457377
,-1.7957179531358545,0.5585897041298462,0.09498489890207662,-0.19513458152345972,-6.358143571620989,0.3292893339152429,-0.05515827797795222,0.42138858486595077,0.10850576160504148,-6.939234680159665,0.07051364068403554,0.5674952818167482,1.9238573411384978,-0.8873840271163027
,-3.15317171732085,-0.8250944807350102,0.17069305147562874,-0.5906750496506036,-30.070643546156457,0.8405913737459646,0.09979767208587224,-0.19937181791283648,0.011507125413803767,-3.091978939695561,-0.4817223696579513,0.5120899465664117,0.002141818366864419,0.019482576089626738
,-1.6801338183829448,-2.520700689428229,-0.009217222801038226,-0.9350146906659171,-18.82319917675685,0.9461521178394481,-0.037487090129510785,0.6221667359750499,0.16323192772218073,-1.7988458931804872,-0.7637094452909133,0.1661663186293973,-1.3403145242986172,1.8981427959388426
,-1.6008145791502326,-0.9459912455057955,-0.5119778208149922,-1.5470894234995622,-8.186508938079285,0.42119306477227103,0.17526555453951936,0.8156493341123298,1.3459190411363247,-1.3404113036839778,-1.8630739545765493,0.49454838969248005,-4.844595916035436,2.6977715456132416
,-1.7193585988319484,0.25771952894430367,-0.4634240688199589,-1.106160789273908,-19.453503956146214,0.2919286624342229,0.3352809348402666,0.5111349384703976,0.8447472533851972,-0.7085112630658938,-1.3703859846425472,0.9156149528740899,-5.187648469219504,1.8794197369146106
,-2.40480724807793,-2.2668476892551985,-0.09989555861608142,-0.8992927403068002,-1.0533505762543027,0.847386305728977,0.19544348825545968,0.8954183746281925,0.5886370159407571,5.636457373728823,-1.6147215179318364,0.9031952190643583,-3.500037243699669,1.446058718013037
,-1.9742643481660818,-2.9304055579683768,-0.0626776388341942,-0.9927125905821417,13.180849426041217,0.14926754797566855,-0.26735781490764915,0.7683679512388935,1.1527457793094869,4.564228663158995,-1.4636889899750567,1.2683918192923183,-4.327015407690816,1.9344653952328599
,-1.6333368762362124,-4.17637895158532,-0.0011062940804165465,-0.7138212448030313,5.177615288757916,0.5015411095964897,-0.01665173658601718,0.038344820106662104,1.089971002367385,4.49539622030499,-1.3579588832617997,1.113060594952706,-2.732047658508992,2.4269854598361404
,-1.4340871289362909,-1.8442039074571077,0.09594580385540638,-0.8421433888437158,-7.83893660385997,0.8850922641892667,0.3314738973610546,0.2356920190048209,0.8585493804510944,-2.661638179964029,-0.422572705810077,0.040202966094088466,0.06224608623565914,1.7795261348674956
,-1.2204081776816358,-1.1787652085629226,0.5181867046240616,-0.7898582959079429,-15.362091122696565,0.891763764506879,-0.04198188960545725,0.4586726368140737,-0.09795371782484254,-4.53389633568853,-0.6945585748188587,-0.21040189246043844,0.23024538615058754,-0.6743077155668257
,-2.3393342420811907,-0.6396885580745993,-0.2103826070322978,-0.6337575654060412,-7.770469251684076,0.16845576436468612,0.11324500648472402,-0.05143890881580021,-0.9212558607676046,-10.113018382437206,-0.04162523212419412,-0.33110635165038255,-1.7624955469218424,0.823878689465856
,-3.794109324538696,-2.4383752902565576,-0.18273475275918852,-0.689010807732841,4.240916023668774,0.4206768822405604,0.3648974829931515,0.20943194775107327,-0.666913235359022,-11.596837811262768,0.31338912191227886,-0.336656283321914,-4.555626424687415,1.2620967606358204
,-3.113839044914426,-1.5727682805347973,0.3783151413272812,-1.1692972934378296,-11.093946473725167,0.18021933034492332,0.1824659016409306,-0.9547962033677757,0.41126886834202653,-7.1907767801041365,-0.720559824332569,0.7152551165722669,-2.067625059875666,0.6586972051577138
,-2.558442215060016,0.6921003822977477,0.08743729525872486,-0.3547261062531817,1.37531530161954,0.8483620906137066,0.49133632968480606,-0.6329521699666139,0.31456525871110724,0.05840888042269764,-1.1241556557406034,0.5975334805460395,-1.422801302712194,1.4336194176112773
,-1.618508848562657,0.2328425447989197,0.14373712633193286,0.6824201257105879,12.543972340221503,1.2764820258839047,-0.3029785788680625,0.2834073577790025,-0.5659234150437986,-0.9793822002967397,-1.0205433558790185,0.4055322690572623,-1.5410385989221893,0.7855314510288689
,-0.651332005822905,-0.8014383552926339,0.29944311228844683,0.3992871769009743,-7.180778983581656,0.9265923389724399,-0.23042689272629915,0.16609562753656126,-0.8183852669276936,-3.096827660480379,-0.10423924593267858,-0.0040881843982260935,-3.3499826444807868,0.5825928646923039
,-0.16921039673583219,0.28832284908902345,0.18366597436303167,-0.4018805563890646,-22.103696867780812,0.05888816259304865,-0.2375060157480734,0.257367578266662,0.09401619434160191,-2.945163958094702,-0.8211395417177743,-0.30010583881289804,-3.6021635734396225,1.6848425364666795
,1.2183189636261569,2.420938987730253,0.18857630734220196,-1.310027438023434,-23.935370969698607,-0.08023409561163332,-0.43058578475332776,0.8327765215245585,1.1678826506847286,-4.429608348146884,-1.3250376743418715,0.033489307636700764,-3.6567358257962583,2.2117292945681326
,2.0283142069491076,2.178114612005698,0.1727363894092702,-1.7508339702222526,-18.653559315828456,0.26784399795622515,-0.673626741311101,1.0208272312887543,-0.5495170320323558,-3.9591784267914387,-1.3556983384943742,0.9889906974556164,-1.0641340883736057,0.677851634742181
,2.7301263636391964,-0.591943839044966,0.044405658412043046,-1.4822606024452756,-11.313493718596131,1.160810183114856,-0.48015946420443895,1.2766262923278267,-0.6149494313912582,0.47447371217986906,-1.5659289280597153,0.729800296463567,0.6743617714334552,-1.200037726050606
,2.9889092268180395,-0.7573419118603986,0.18522773854286975,-1.1192859005557088,-3.1313139557905574,0.8494920850376708,-0.8720115736945747,0.9271615217442286,-0.5062973005839229,-2.322349322432923,-0.6055166952024992,-0.19495184172326366,0.6441078193989885,-0.9040134346638252
,3.310673062331289,-2.2840110949059564,0.24687981791954872,-0.9885781146977264,11.39034560947285,0.8950061140384431,-1.2675854691760806,0.9770588431805571,-1.072230180014091,-4.799758518580118,-0.00972210739309126,0.07944950027973588,-2.4413972241255495,-2.878868677261161
,3.915975798611068,-0.39441634785261,0.6255072063598602,-0.6669721550612985,13.43131330378355,1.0799108790603278,-0.3221715146877519,-0.11956414134942243,-0.8597169928579362,-1.607774812645513,-0.054254394061724213,0.20645895656266003,-2.985356631742706,-0.3918158871459272
,0.033638414148277056,-0.6673833625883021,0.5574137575576222,-0.5671775328263741,4.758863002094884,1.3656632887792794,0.03597874773039331,0.1391222704788059,-0.3324388042617719,1.6711283524176637,-1.056020626861488,0.4105588219792726,-2.669767679946648,2.1256468903204833
,-0.6024636846277912,-1.325032567443688,0.20361797529419534,-0.5426992883210743,-16.409566527016914,0.8375416254490975,-0.27066733611549076,0.9517312847100474,0.38757280104459096,-3.7249514249232623,-1.2571671462569742,-0.0568042124063538,0.2125200034947588,2.338313517701939
,-1.3683874344645044,-2.0509439030229033,0.2062052309079613,-0.7139709750522444,-13.699407390767606,0.6864933383554691,-0.9564357809039583,-0.015280187352902971,0.8873376964128072,-0.719066155880929,-0.9372934297271509,-0.06796113492406335,0.6854643101500059,1.7980100795583571
,-1.7147756996325578,-3.700435554611864,0.05081061987419301,-0.9557274220269003,-0.7910717998631552,0.4683390961759763,-0.8152733115764462,0.012470988061318326,-0.06047426923390984,8.247110502551854,-0.7825430640664323,0.18643602731476597,-0.025453592292042908,1.2233867615604335
,0.06343039726865898,-2.3828820400377833,-0.5398691849963645,-1.120361089604928,9.00331686699466,-0.18764073386712718,-0.23684326610174772,1.9825881641420557,-0.02454936833797805,4.447062628632083,0.3113369680103807,-0.7397547926320828,-2.30939720403701,-0.6833407557838277
,2.236395710943633,-2.472031194123758,-0.696299224324001,-0.9381061829683973,17.271706769090024,-0.00993516485285181,-0.7627197133618765,1.0997227848088875,0.5999174174073746,-0.3708309301335058,0.2692437286309168,-0.6890389829693523,-5.182349502051112,-0.8214709179245469
,2.6879452981844456,-1.9719368464286535,-0.46718664338645693,-0.4663359679471381,15.226746877564128,0.06222423392565401,-0.5169585898064777,0.03351862507192255,0.27569680359600196,-5.915578070634892,-0.18865590336708038,-0.17424685873548582,-5.104757902436749,1.3097411935048209
,-0.7684938271686474,-1.5594036425641413,-0.45357957021487966,-0.6975918150537994,14.218174471857871,-0.5289875228844463,-0.22080092637811283,-0.04844340947639128,0.34212649785606347,-3.6906164246530873,-0.44617204331626864,-0.7485677389344286,-1.588095823458382,0.9088188299752417
,-0.7394413212739291,-1.43385399754849,0.17277480664172373,-0.784644711315034,1.0442727337170845,-0.009886384280131675,-0.09201002175516741,0.2818136707681754,1.239146039278932,-1.287992450522475,-1.3639393765476049,-0.34015208691696974,-3.3058108471811534,1.423824603628748
,1.7005669172665818,-2.9239296892227573,0.6081651686818111,-0.4809049135567654,-1.3128682059860461,0.9535385826192927,0.16376294653966122,1.3683725576205452,0.7064180514305742,-1.3706118058796497,-1.3179363912775302,1.0546234092954268,-3.858849180346749,0.9584104805644998
,4.275088323002325,-1.7181534907931857,0.15282183862502527,-0.18378822793697028,11.484965013015797,0.11613468817256843,0.074896753156195,0.7687215161458776,1.5110755082030978,-1.7287907235785558,-1.596051375513213,0.559581704836719,-1.1436368433546504,1.526128067954931
,5.770183933284849,-1.1998172794007649,-0.2065927816757951,0.5105032058102662,1.8817028619780702,-0.20858001046950225,0.29550335185865567,0.12997431114707492,1.685931506183358,-0.1318503912580548,-1.2712063731776457,-0.01615441565089777,-0.42940085974317144,2.617657310468477
,1.1238108781460299,-1.6549344710988299,-0.09258425085326598,0.18908825420328196,2.1279320214945496,0.09277749217760636,0.19433048025589414,0.31673849222594,0.851059099011204,-5.809508900706302,-0.48230247408690774,0.3731365730375984,0.32139120952740086,1.0757939346331766
,-2.609885371489699,-1.9726463100236655,-0.09986726084775838,-0.2230680983486577,-6.8654620558863275,-0.14094523018527233,0.16053052346354488,0.15038944691469802,1.323659402078786,1.9164803199017095,0.011764520055812501,0.317832465028509,-0.8303354731109316,-0.49338530682660975
,-0.5709932778909625,-2.1770307224075642,0.19806161554347151,-0.09237214960170921,2.786355538062843,0.11602784896957408,0.2423522315733168,-0.2876311115149819,1.1233900679055684,-2.760824235082265,0.35600780093250833,-0.20324250457608217,-2.588202146455681,-0.8669600912906148
,1.4605476171767096,0.3192906682513078,0.24152623677957558,-0.058240453760601336,-15.880638105060399,-0.8753466418082682,-0.13247459320063998,0.6519258544539692,1.9810907948194454,-1.8291451262819156,-0.2898237121535774,-0.4867581953269087,-3.0977263097555605,-1.4074061319920375
,0.703828274256873,-1.2041021713423414,0.15149203858926782,-0.46020222015452084,-25.08170697135893,-0.15007774681107183,-0.1757319846270961,0.7649791571244864,2.016951246806953,-1.917248708256193,-1.3624803978770847,-0.48671096818270737,-2.1289559623922445,-0.7667204558451463
,0.8273283246971617,-3.119445521011477,0.0977910097823162,-0.29620364727102655,-9.879231758225865,0.6738062685387396,-0.11828551189808309,-0.22614706902347553,0.33308808170814486,-0.15427517314621053,-0.26368415831242975,-0.3586054911189693,0.47119481987804196,0.38464379247085156
D,0.6879548936693997,-2.8819074215050557,-0.13270099567694663,-0.6000612868611492,-15.913720206178832,0.8833836683331046,-0.026023980838549458,-1.3510679335558609,-0.2710887832849738,3.569897972706635,0.2455029836412201,-0.4696286506812462,0.6230555972882252,1.1038603291190443
,-0.5156036611578604,-1.272422602144196,-0.13052406963914243,-0.0788572723915181,-1.0857711967557695,0.4695078089031276,-0.6537079132016347,-1.1404075950245574,-0.9638561151214601,-2.1688461337630174,0.3583110564228961,-0.5288657336571901,-0.2676324892325469,0.5724524161890562
,-1.6246217069626814,-0.32703670593767736,0.0423907360653589,0.5424439755733971,0.3558908140464483,-0.7032991111600048,-1.8541122577374118,-0.3794651555171187,-1.0904387628558458,-6.749764765848498,0.6652343641945074,-0.42358474493840687,0.45599671877173414,1.1843339196625282
,-1.024532907099666,-1.1845786135534744,0.7018409088450581,-0.08330092154958284,-6.865956926919842,-0.7461254216167529,-1.388676792487179,-0.8149644422276948,0.26345908253700767,-7.125601929919757,0.15317165084516918,-0.2294313560069565,1.3988555981243063,1.3459723210880188
,-2.289536345998061,-0.2665294445424526,-0.20673748836208197,-0.48275600836490606,-8.153904225599703,-0.6187892489644612,-0.09653006471108078,-0.3721994173474392,0.8328802056575437,-6.3649950891283185,-1.0933393977228572,0.1681159789006096,-0.09324903941929817,1.40847884956647
,-2.3171598568750738,-0.5791181041355588,-0.250813275725481,-1.2044276066387232,-2.0041412642887866,0.19895776180777097,-0.01830348417374196,-0.2848843634379516,0.05653023455938253,-0.3088285767552427,-0.482868340953715,0.2038980143625434,-4.267287170781903,1.7981078397360692
,-2.6238962669575625,-0.17961122105637226,-0.19336346829521936,-1.057206993484054,-23.076784159164283,0.17197756181146776,0.21199270316617028,0.04800462446291971,0.34488871642212826,-4.741045973471257,-0.8239869674865012,0.02807148764759645,-1.737870514851023,2.009292476204598
,-1.2227015521712827,-1.284858068239062,0.011165296551915373,-0.4666089312338968,-30.835998539495254,-0.05555382639787276,0.22660459975034794,0.36312535028681314,1.2037994280689015,-4.150106048991459,-0.9845967062647466,0.04526282081299998,-0.28771633257932056,1.5810106122168126
,-1.117695089369673,-2.1341326201508917,0.27779485192539366,-0.5283363429491753,-22.997682575574196,0.05624317794726553,-0.13800093888981954,0.8084258035782617,0.16437047869631394,-2.7617898021307923,-0.8097645105658501,-0.12952365343162844,-0.34115569523405825,-0.5368540902650383
,-2.361149233364773,-0.04775661038896965,0.15660534415378027,-0.3255876946032806,-27.71376057709959,-0.4117244617064467,-0.25648996467520996,0.48479676977353986,-0.3703357176860179,-4.792945205333057,-1.0175525249538133,0.07128778281117203,-1.3780927500314806,0.5723785571128508
,-1.6246656284979022,0.7400561807694522,0.2994850727494308,-0.21377914133820555,-30.143166288731507,0.22648787331884457,-0.07223366658131396,0.27771347519101847,-1.0606555245962588,-2.3633907320813243,-1.870227269990529,0.5759803627939672,-0.4332354647894515,0.5481995846288534
,-0.15573873842272862,-0.22334060466384176,0.07104790342448992,-0.591521336193883,-13.493512791890376,-0.19176825675866205,-0.1886730357718804,0.36236495525380785,-0.8092242966883484,7.909372512224736,-0.9919511085231763,0.16746171555600167,-5.068409290193424,0.7697647246860925
,1.027049977775901,-1.4110952858540347,0.32808631008808603,-0.5326271017113066,-16.14358227293565,-0.384288587276713,-0.2702806029682871,-0.04507126486352254,-0.6194658962482399,5.919917325603647,-0.9722767900901145,0.4628385418534009,-4.951118777503065,1.8050614422207973
,2.191638750949026,0.6872637208845749,0.3034162513388361,-0.2754879930160864,-3.578875894923939,-0.024486371410022897,-0.3310094937168916,-0.3683754899657971,-0.10414894110237362,-0.4704792009389036,-1.6328236175245758,0.12163861303572039,-2.5651067917198813,2.0122658746772117
,-1.343152928825977,0.7668949959342958,0.08858623092339338,-0.26979997814438994,4.997696820575669,0.12728744653991655,-0.24139294993272084,0.4141011964021877,0.42273347538510947,1.207810578813684,-1.3546189528243031,-0.15657486274508906,0.02652295844218067,1.8045429475987376
,-0.962162043861554,-0.7361617176243159,0.8524984295752456,-0.1402333919356897,-2.1341798902879114,0.5128697820720252,-0.319664167349292,0.030995901883344897,-0.3806575072741984,1.2181193197753897,-0.8700588693125663,0.2458183645212465,-0.5255392556951973,2.1774769453512928
,-0.8307969599274656,0.8258559983744921,0.4723977232510888,0.24165870960525834,-3.009528954741612,1.4098474270567674,-0.2970260577191196,0.0506946685790856,-0.5686879163982278,-1.7898684697089629,-0.833305917066276,0.37788398680726376,0.38221244653189507,0.37273329882395045
,0.5320372089031832,1.9617454169619664,0.43712854668302403,0.28416228001511556,-1.0509281613730934,1.4477332753998948,0.05222714657106797,0.30506873512866867,-0.8339435774877968,-2.778966191331044,-1.7930478936945833,0.2254950906683481,1.7267509580740985,1.2880091587361076
,0.00656429105750908,2.961246524990666,0.16084502302061057,-0.22219241052014937,0.7285075085691816,1.4856112543672586,0.0570886457930667,0.4755711221748134,-0.8170089406415576,-2.951378991944584,-1.2953404935737656,0.4299418242884167,1.8349471256239953,0.32096993105858185
,0.6556503253106583,2.067003190264276,-0.08907052936858825,-0.7171036189346239,5.906721785488236,1.4105408477100312,0.2973292120440172,-0.23615417650232265,-0.5026814195698722,-4.600154727445996,-0.8873304425964511,1.0784668118510752,-0.7209325349400925,-0.8269112821341426
,-1.6822294601709538,0.8870085611196418,0.41833711744151825,-0.763620362311077,3.7327483015298557,0.1972463807245485,0.27168155906957325,-0.7828413996958627,0.5484014131032816,-5.517780658372337,-1.3311915734374071,0.22848774979240916,-1.741381211651134,0.13879777234399707
,-2.04156882726844,0.23257091671750135,0.10773105687723847,-0.5271767766700527,2.1603662557245,-0.34298549116637417,0.2663751015681948,-0.8523081649089542,-0.7095399702425089,1.1743741653673276,-0.6542845719765966,-0.2498737469299585,-2.2721196601304987,2.580432851117354
,-0.6161901354208206,0.5622675135143482,0.1871051860350445,-0.7980227234277792,-20.179599843572994,0.16348082500451033,0.13510917030285127,0.05990500232773477,-0.2502451338769339,-0.7391570600868665,-0.8567300690406882,0.014724021797441514,-2.320953701001573,2.7846235058068123
