event,eeg.af3,eeg.f7,eeg.f3,eeg.fc5,eeg.t7,eeg.p7,eeg.o1,eeg.o2,eeg.p8,eeg.t8,eeg.fc6,eeg.f4,eeg.f8,eeg.af4
,-0.0038720517960853604,-9.353908878491666,-0.22664745901111663,-0.8872095642485979,0.07055938258258403,-0.008195606721328108,-0.694557248712558,-0.05512384955631628,-0.22955131122323566,0.19536953804699636,-0.22861358144846106,0.016570994786956783,-12.88767125477501,-0.18248136256511732
,-0.2744581842334088,-11.847534790131146,-0.1890316648933855,-1.1736655870628698,-0.4201659887129827,0.12073431674280442,-0.8827726028590692,-0.583237972695895,-0.9733982557446471,-0.5675153980979154,-0.4085074334067497,-0.08655087004739764,-20.94696751991916,-0.3389026625344277
,-0.7158752496348696,-10.228907266957744,-0.5555609022653364,-1.3548095617434652,-0.19902406504093786,0.15232986657368908,-0.267504107205995,-0.4325116998487669,-0.8786040742716749,-0.5036052460300198,0.1401222922279137,-0.34031131028980105,-22.57233930565169,-0.3016926037755232
,-0.6827507762841437,-10.765540589059723,-0.6694115290331736,-1.9709316618254398,0.5342433844290854,-0.6074597488560654,-0.036153697449925325,-0.14294597684801622,-0.47340024158765925,-0.09374509786024225,0.338648053463767,-0.269856740042325,-37.887559635742775,-0.21517713668971153
,-0.033871756901908495,-7.75533928287784,-0.23364587130088438,-1.645996094347395,0.0859582295269542,-0.6657354766754576,0.5959431811211974,0.11116122291661679,-0.4852592444056043,-0.21501730070555816,-0.3767928316736606,-0.17576333809789815,-20.758010537737913,-0.556992312407541
,0.10647928767763842,-10.069146447161371,0.004945894941492372,-1.1136046141924658,-0.3225658864305231,0.17166330284011022,0.3447280442607771,-0.05985565965183596,-0.2401367246511411,0.5275009780676182,-0.9026808640995876,-0.22073861957354546,-11.84371080360523,-0.4268916823479432
,-0.2060843620760797,-8.246767540751938,-0.25582179944244543,-0.9860955418294813,-0.631687078266783,0.2342925841432922,0.16742448231690843,-0.24215444342306097,-0.22550349785719295,0.777840040589363,-0.46115217406671277,-0.14269281599959432,-16.262729115986673,-0.07491355063749634
,-0.16200741703840135,-2.2266864154865007,-0.31627589617274204,-0.488042335751097,-0.6237158896901446,-0.7454893344588773,-0.04998481553040968,0.31026556657915827,0.11330730763396989,0.06915158797737325,-0.4259475829654276,0.010182670597147697,-4.1912941933293215,-0.5328308214977053
,-0.023261031833691537,-8.679231863371152,-0.1200414095399098,-0.8555211816054189,-0.4217561135434173,-0.6240823291044266,-0.13687542877332026,0.9459288474933054,-0.22089093633516568,-0.1676519832263718,-0.306602873008221,-0.005172576059198359,-15.242354532922475,-0.3014088412727156
,-0.25653499243828637,-9.686638057839865,0.3944048679295259,-0.7928939642777305,-0.11344948318582629,0.3881002395741177,-0.1593045477035655,0.09600860323912633,-0.8353714921915871,-0.6032502358665781,-0.48257953425210565,0.18199010054175577,-13.163806785268882,-0.09600616403847309
,-0.4244152975643072,-7.59481548188495,0.12722565401869024,-0.7203975007583464,-0.5003536269991776,-0.1629350306119036,-0.47964992982259136,-0.3226884550026227,-0.7640185084442332,-0.7987975055489456,-0.7998179869421274,-0.24127323195932127,-13.903884433374786,-0.4264775081632641
,-0.7362535167787126,-8.994393627366296,-0.2083414623809481,-0.9262661397339149,-0.7393398696697808,-0.8746569485047033,-0.6975895238804077,-0.6082924135117102,-0.5893627650595343,-0.4464408483430445,-1.435802799017135,-0.4704743545024566,-17.69534179896071,-0.35343111784706394
,-0.8320142900590336,-7.246949220475027,-0.36344455164264317,-0.7928197766532415,-0.9244058739076118,-0.6106966062835426,-0.6675856616538856,-0.07304696319832664,-0.27992344531540797,-0.23656935742273805,-0.8277454457060291,-0.4921792685890626,-24.2727216934136,-0.21897606964519073
,-0.7346849080081431,-7.415773085500393,-0.20148368154844856,-0.48321172158903763,-0.4448593355613583,0.9085201968583222,-0.2785166512358741,0.15576363807325921,-0.11519058997515116,-0.371325374534909,-0.23883309243790635,-0.372084455034501,-40.00553325100331,-0.1869693141095277
,-0.1882725904678994,-8.621569348901724,-0.37538974449685364,-0.5773131724386059,-0.21804889552644366,1.4479652150000228,-0.0484105027731619,0.34499376035151225,-0.19209487676678333,-0.117110830043433,-0.32129013561449643,-0.2333208589421135,-33.999735359732156,-0.3091941936942902
,0.16115109203325811,-10.531177225705607,-0.41903233658546485,-1.0299695007871152,-0.6223362307927233,0.915570036987453,-0.07208876981555172,0.1577442213505053,-0.23968401795632124,0.08245931310643202,-0.36281315411329146,-0.24362660459662347,-36.55542586293589,0.13037355998015066
,0.004546451502967345,-7.48476869343975,-0.26021671539827873,-0.8409385359100171,-0.25163739923028755,0.30752561125733574,-0.11205265874753326,-0.21578461750566735,-0.4514054201254259,-0.13691637004261395,-0.12222886544263273,0.15123543259831768,-38.45495067290022,0.19156095056579836
,-0.24672702099236404,-11.49147994340262,0.03285452385961007,-0.789614805048689,-0.577270915694261,0.08030736668261944,0.140245702915416,-0.2764948230302838,-0.4707012776952289,-0.17873680028899674,-0.28974305257594973,0.17125164207930976,-17.73768628592378,0.23491754373087517
,-0.6158576915382401,-11.494495785498328,0.34076907562889214,-0.852914701311103,-0.8594669168555898,-0.20289339235897644,-0.25475727201481324,-0.04863296180877442,-0.14824032451114996,-0.09282491479913972,-0.05802143519948413,0.2315320498948805,-6.434416222293611,0.09779277086950632
,-0.18229607154097183,-8.284461038151413,0.0656422441563692,-0.9548406824590249,-0.3347456119867575,-0.30963615279511836,-0.36982587585576904,-0.1800005843187193,0.008947026886575376,0.07227245058786204,0.19551063326120194,0.191753546973109,-21.194872250710624,-0.13923996859468665
,0.27069886284925593,-7.487071824847043,0.03554438867349509,-0.67138807584326,-0.569801922138592,0.3200995788395739,0.1223167564748276,-0.4629479475047956,-0.5319463027030529,0.2206108357486658,0.20587830129318252,0.004885937465050126,-20.01653313608611,-0.3419156824178252
,0.6722017481759119,-13.211176731230475,-0.24147930743675092,-0.7413077487438555,-0.4247491270618697,0.5164818411928923,0.11995289170121232,-0.60451646417605,-0.8926168245610944,-0.04751202106091074,-0.3447322884630808,-0.0623427785002531,-10.217246914874647,-0.26920660339337055
,0.1634525402023014,-11.618449811001724,-0.37347696445050965,-0.7721781839411279,-0.3729810223975215,0.07872533271457048,0.20622738822947723,-0.5085166206523671,-0.6937011705751126,-0.11497246308879909,-0.8819613851670564,-0.3201571536658007,-27.919751859425528,-0.2748162805182815
,-0.552090206629711,-6.939378581934111,-0.3886177675493292,-0.8297718855896942,-0.9442350776360755,0.1050635248005402,-0.36830102316741337,-0.5521531169992424,-0.4045838652911195,-0.0764955812665655,-1.119275317475907,-0.17446285257217167,-39.55780251250971,-0.31935394435288306
,-0.3996098772771406,-8.421699117255837,-0.2796713041428486,-0.8213036264610161,-0.879994715229717,0.08563653696727665,-0.5362454836639997,-0.6886104011966658,-0.46486280559260157,-0.23508387928285557,-0.9105476237038757,-0.29272944860024164,-16.49749568291126,-0.38524325899194706
,-0.16624586358559063,-10.300490012361193,-0.016036039506946254,-1.0551943540528363,-0.5633263682977453,-0.11333260135422323,-0.2019367068466892,-0.27209161324397646,-0.32326844664771015,-0.3911666783810807,-0.7410325062820886,-0.20920279880622858,9.348186782625657,0.08594121735345692
,-0.25329136694198395,-4.210218115004557,0.17613318090558563,-0.5853578706909833,-0.1968881316920987,-0.6080253216638114,-0.28787985758371537,0.3008505665753571,-0.4788602501343938,-0.6840016659953697,-0.2653116399335186,-0.201346159031619,20.91917005064651,0.3152955880498707
,-0.176778547550447,-3.492320622030314,-0.6846836054120085,-0.4896851433741166,-0.2080135650365686,-0.012798428285564515,-0.417501781859329,0.44607621784251855,-0.3548302544276213,-0.3822034940430534,0.2464597131034793,0.08479049120991397,15.433096367132064,-0.13015214876474845
,0.1782389435950647,-3.4277355714052153,-1.708428802395222,-1.487487992993396,-0.11462793644639324,-0.13977609501802996,-0.5705112665251837,0.24185800819116193,-0.0019980219138280874,-0.24134763167999893,-0.02340773529777173,-0.1489900661330576,12.749566385679339,-0.18970301175232981
,0.2404841706734098,-1.4730870769693136,-1.5675830997489164,-1.8695738396510568,0.0002653831520513377,-0.3089393175811917,-0.3852378930055298,-0.004857580776952106,-0.2301272859280312,-0.035629498762327655,-0.7048567538588969,-0.3153132765328,-23.309311176938863,-0.37643138615875793
,0.22954841856981925,-8.834954559573015,-0.14162305430616703,-1.4984490649050615,0.05221404280267546,-0.09578305102318334,0.05836198474932714,-0.22375061896081344,-0.5050838343892573,0.13531170698289782,-0.7095052135281704,-0.22711626085301637,-27.38843806592973,-0.473612539461586
,0.5923869133669827,-12.171834238653348,0.05538024028102875,-1.2378003608540529,0.1199646097923098,0.0034672679663717925,-0.20352457787602307,-0.3337240787050254,-0.2991709878845597,0.2451345644441615,-0.23097163089191736,0.17577503412170847,2.8166631205583674,-0.4465588585107467
,0.3750361325829207,-7.511153159161468,-0.12557764354233997,-0.8777249897980982,0.41813581797443133,0.11204127001595499,-0.0041143775456186134,-0.34140158574542817,-0.27810432194319124,0.10690018779613152,0.4166790704586584,0.39183700778665814,1.1636363992186038,-0.2684983383655423
,0.25148938613998845,2.11596115458921,-0.13616787874245614,-0.8158743833261283,0.23313109729014753,0.6776137783204301,-0.27953482706655336,-0.25564778934075233,-0.1544472232103319,0.2906800390640965,-0.06116629648187262,0.30475324659698505,-5.316889044775902,-0.10809167055361629
,-0.2120043235383061,6.173369659368652,0.2754347359767651,0.11494650546724448,-0.05439575317138495,0.3641513896636012,-0.42157315067007345,-0.4830479240039908,0.009294151288077727,0.0315196660883307,-0.19787482830666223,0.5071815502223247,17.581251511662604,-0.2136174942032556
,0.025617560764428456,2.9394816824403844,0.2076576598659359,0.3896788962434845,0.5528674818154133,0.4007040866379919,-0.051526512490815975,-0.2581279611680375,0.09754810032444752,-0.2126502870165988,-0.13610560675657662,0.08512362559801825,7.627412011038643,-0.3031666836997282
,0.032582346739205716,-2.9754531941797153,-0.07328001893900346,0.6933215566759361,0.05050335743686538,-0.2857258034981394,-0.13419411289030783,-0.01983887063471116,0.1021925524091451,-0.010253461080649095,-0.5824567422736604,-0.19908897694925737,-11.104993741373853,-0.23558154481249577
,-0.21106287797310722,-8.165071387845195,-0.2263144366276221,0.042309611459442564,0.33092201905794544,0.19209627272795116,0.2286672453888298,-0.6015265118432946,-0.49060019461429333,-0.5153309172708168,-0.5129758275716529,-0.013626166989907748,-5.516493964374838,-0.07856245022453129
,-0.18703775114959062,-8.440154841749946,-0.05957256520423149,-0.32676710798884245,0.4070902877786952,0.4574749085735238,0.27677307189793915,-0.6392928974745264,-0.46476966413442344,-0.7238169305780597,-0.4423606711549953,-0.05780692021150524,-8.083182499838868,-0.21501993993759005
,0.12416886335564868,-4.45377867265498,-0.19487142549213443,-0.07889946711972073,0.4759130779092747,0.5220323583961045,-0.3728049873219984,-0.3237320242648505,-0.3292295168718977,-0.5132801043297569,-0.647502942932212,-0.20433309020279478,-13.576689312013409,-0.4305473411936777
,-0.015073243381943699,-2.684636151512122,-0.4083855565050386,-0.16122251442488014,0.48503579252064016,0.9953530305829175,-0.45404527524371624,-0.34099807396639914,-0.41046533149939923,-0.30865911860272205,-0.14329250221040493,-1.632859746107142,20.545353879466944,-0.2125249162341631
,-0.1618380698283134,-5.30619381812394,-0.41150257040428795,-0.6121988478058116,0.5139184328050644,0.6831955250910295,-0.06353691651221366,-0.5636450625125482,-0.32186125183988323,-0.21334890736317305,0.2635670044088425,-1.9147403253594206,-0.23875432629284493,-0.2773045554932558
,-0.9680750286520164,-13.541588110021824,-0.30283038537105966,-1.8229277772960917,0.20204375322046625,-0.382769377204893,-0.4349119054813011,-0.7596618486708666,-0.47436443460140293,-0.4004216692877215,-1.7652123365598873,-1.1105676986168471,-52.69522275724054,-1.0108694238498686
,-0.8749913078345715,-10.725994245791547,-0.32294294462326234,-1.6072249766198872,0.2234295684130381,-0.32464252113111824,-0.6243517942206582,-0.43160989215558454,-0.18126537094647147,-0.22392011041459667,-1.8571606714001607,-0.25927022184145626,-34.80151272270837,-0.7864124395280931
,-0.3879847409576597,-8.226837274010812,-0.4498931690705794,-1.0303017357686959,-0.4672302967681635,-0.16268140105109596,0.1898936857540509,-0.021932731415900963,-0.13443358656960616,-0.6888120804343566,-0.9723138817050562,-0.43857806718368414,-2.160317317621874,-0.04559757380275191
,-0.30715140128083357,-13.332047405737079,-0.2768607413722913,-1.226320128886131,-0.5646570005326957,0.019628004674601067,0.022854126051714396,-0.5898864598318703,-0.26953614632499806,-0.6010564331105311,-0.9998734816833286,-0.5994290255076964,-18.92430208593034,-0.32660057539573356
,-0.9230770036403554,-13.023748432957259,-0.09317586902657027,-1.446394743088997,-0.27876422915269117,0.07470101229321384,-0.4002594177604151,-0.9412833955128177,-0.4631754690825673,-0.39230517905336515,-0.1893284513863504,-0.29181222307331317,-16.850948430096757,-0.5754747823167439
,-0.7974852398363763,-10.28644999975044,-0.24622171796841005,-1.382388398745909,-0.7021346998410464,-0.4027591639708025,-0.47986716593485973,-0.8778087676213525,-0.7089545694523128,-0.09752231656684793,-0.9182103644197919,-0.5503148115005564,-9.737333204734313,-0.5044941514754856
,-0.5789910450434888,-7.350298919377952,-0.23075700659426565,-0.8051542649446799,-0.9659563438013116,-0.7379599646494623,-0.08129162445443178,-0.5883073283755405,-0.22183892249375,-0.4456133505982721,-1.4317100877017535,-0.7017621299385849,7.3449809458957676,-0.5450409261454495
,-0.3070628124930158,-4.215442080139248,-0.14710623918886437,-0.7009889555111594,-0.7083749400254852,-0.32447646905940297,0.03635776100825176,-0.3007369761884778,-0.04187521655433043,-0.638507719591904,-0.9284911424140925,-0.2561473158093658,-7.765191340250759,-0.18736745588884926
,0.5043561183296287,-4.176365194224494,-0.0736275971242735,-0.33395482161014217,-0.3132935575195366,0.031500852046344764,0.03268356963035661,-0.34993638901548235,-0.2617960415276707,-0.5733023462264892,-0.451786442039967,-0.08577598920738001,-8.073025982640097,-0.07398128012505488
,-0.10007393052470646,-2.6749879773237613,0.007866239790282416,-0.09711756181763939,-0.17124475525390945,-0.45604824733119775,-0.29534166650097554,0.14499679501037613,-0.4108088783308781,-0.5377882673773541,-0.028670370535819716,-0.019168659343559612,6.469860284167824,0.01875200265072791
,-0.14942767008717533,-1.867823511661954,-0.3076033783996207,-0.062174489171554416,0.24535477311311557,0.3475393948836332,-0.6920986512804811,0.13203334779022058,-0.18127236101686703,-0.43908115200960457,-0.03942935607125844,-0.10262818069286644,-5.126585931173869,0.3323307072843392
,0.08001469103172662,0.5273590275266843,-0.4558012965549932,-0.09412835139109264,-0.17929210146682623,0.4091889244108352,-0.5338082476424215,-0.2788195831396367,-0.2761417187367591,-0.3643102345077692,-0.3540898857612354,-0.18167909508913085,-13.754571859624802,0.26424804700254734
,-0.04025048679782304,-3.3365209191177176,-0.2607935588915389,-0.4919369099027027,-0.5430115875915098,-0.011233501105993785,-0.31133200466879796,-0.5080269243567995,-0.5499372175827654,-0.35044418759131074,-0.20343808662949106,-0.08542567263853505,-15.230068007811575,0.3967987355448551
,-0.12253075022212125,-4.338113418218804,-0.028453898836266388,-0.6588411228065061,-0.3096618357414864,-0.27756683892156786,-0.39444069658166564,-0.565333871287633,-0.6714028512881474,-0.4090919964038936,0.3167299837674581,0.12659441255384882,-21.455862939443257,-0.15287771591893515
,-0.31191167057978736,-6.391588032536175,0.10484580698486498,-0.5765995085427025,0.2029740085609356,-0.6567003302187813,-0.39919373124805824,0.02466378158926831,-0.651921308243014,0.09444128165742244,0.47992324245023016,0.09732626525700831,-20.94352958374709,-0.1865961660923071
,-0.1868041010242252,-4.339097522699458,0.0892908658132529,-0.2697526656082007,0.18474136061888632,-0.27686303041003735,-0.4458998482510661,-0.18313454268517354,-0.4642129076381371,-0.02868353731820299,0.27460309044584197,-0.05450533909832727,-36.1563845675134,-0.4418361916151486
,-0.543761738873604,3.6956249409756117,0.08178397620175146,-0.48244914649924314,-0.09314820797968744,0.3863042624233454,-0.36151815376990953,-0.4741641562916499,-0.5303899875680594,0.09959990373387616,0.08578394665944195,0.18332699237973246,-38.620258858254644,-0.33226289684605986
,-0.25055497453790976,-5.802012052744855,-0.01588185677465161,-0.9017201955128802,0.22770047351665848,0.4817453937973838,0.1481609035909999,0.166753223741904,-0.18856641732575108,-0.13632578681568688,-0.26485700544048313,0.3941575330199524,-21.472874272158585,0.018518323724595734
,0.13058619247183242,-11.063056170021307,-0.2029369356335064,-1.0764461437421489,0.0033004130304234913,0.6258662215006235,0.04691539332020975,0.4358197367119888,0.15090810164808677,-0.19798461814200188,-0.5154725312035089,-0.13052676636501076,-13.78883139588066,-0.05502153056257395
,-0.2439635434828517,-8.45105656620454,-0.12575632932348033,-0.5995856255852796,-0.3691233909312388,0.06260528792326871,-0.004321822905048662,0.47053601829745934,-0.08467144323261164,-0.2942110176506743,-0.33954555505866896,-0.06859109601123144,-22.957359242150233,0.10899479178861486
,-0.24320756186780554,-6.694027160028278,-0.1902198395356361,-0.7957289773619358,-0.7112959448111745,-0.86749912818825,-0.5519168159078538,-0.719426202554042,-0.8702125517704878,-0.7739605520266171,-0.4120719908101271,0.09702549997080448,-38.07783675741859,0.4549990586399148
,-0.17573642650061666,-8.482239540744231,-0.2148656448016909,-0.6777011528150192,-0.8911404594502134,-0.4377774794062285,-0.7102599726769141,-0.7277017022888451,-0.6701311598741247,-0.6107372229100219,-0.08999016025473212,-0.24990019691927348,-27.018475554530276,0.022438460610845607
,-0.3564209848271982,-5.802866186743198,-0.36737025474222673,-0.3222667693788555,-0.18088834122625638,0.01163268586989495,0.04653542390474703,-0.21192897943477812,-0.0301132609924757,-0.43541100324613646,0.19532800195005293,-0.08821420872783516,-14.601748311524213,-0.2535629737014184
,0.11851432451483086,-4.00319388664693,-0.12637151683054768,-0.2937796484192283,0.08192876622765144,0.4655492680852601,-0.1890589792292609,-0.4477179309535254,-0.32710262248145255,-0.035321937388799136,-0.15079960012422974,0.0792637844595845,-5.132925180974084,-0.23041346316871167
,0.2428503404440478,-2.183798919619801,0.22271398148846974,-0.008283745752420458,-0.09142026219666156,0.5386780074277546,-0.13295071610171855,-0.7820608414558887,-0.16516540413859318,-0.011565653982387158,-0.8000947373617736,0.19916067596422662,-11.036536353385884,-0.3560905303438912
,0.02587495888137703,0.9843592883758704,0.36424465242952003,-0.07895427213524478,-0.024453692420836542,0.19401343427021112,-0.17698617146675802,-0.26289478193168264,0.1970139039020284,-0.15157659201168236,-0.615654652351575,0.17112902245096,-19.86784049107703,-1.172549308708341
,0.8191335436037093,0.6639204641139148,0.08059627767024112,-0.20443703096679683,-0.18831290906963336,-0.415330292452631,-0.053250820106004806,-0.3800840434521183,0.05785938909664765,0.2796435916682076,-0.2108346438068734,0.05274161582720782,-46.43459203566369,-1.6404087951079778
,0.5169779637993408,0.13546171315417627,-0.15472655708997568,-0.4889394479378532,-0.19895606188219603,-0.5266798504943081,-0.140619608317741,0.03274229601113457,-0.1758037880828708,0.06869065272440142,-0.21246331123476447,0.2614737717372942,-68.46375382671128,-0.9190334328561908
,0.3010138517935203,3.5892003306929268,-0.15950111051317897,-0.5643996753991728,0.3008900281803267,-0.06122628331515774,-0.2872545749065217,0.051580302236378946,-0.3264469273192713,0.31908867480848013,-0.2083016031069082,0.04966734137234107,-34.244044251028114,-0.21842210610508903
,0.21513872504375525,0.5607495947274158,-0.09201705041053461,-0.6925002342024983,0.8485357713761614,-0.10394936565383793,-0.14089786064841006,-0.7813750920370504,-0.6891697335843263,-0.13502863003913765,-0.1815848375260284,0.4376633104047313,3.893529503662703,0.20710739349276347
,-0.011144717810544155,-0.6610941943012513,-0.2070849498861117,-0.31194703158781256,0.6328466160602634,0.4460772478840389,-0.5142579770516421,-0.7801887151400128,-0.7517377740011608,-0.3364171910598707,-0.4849383524182247,0.3007941774071954,-2.767187388288455,0.07297892256002461
,-0.16260618180423989,-0.28107389060021104,-0.08223350075471213,-0.18315351783182318,0.3167324137376939,0.8932889292614855,-0.5876291721056772,-0.19066676923268025,-0.3525762555529468,0.10761962555276464,-0.2213668712284416,-0.036044409577697334,-1.6434604899231018,0.22201866590339073
,-0.06093523905611714,-6.896317079893216,-0.20937408559279844,-0.0029072639325216803,0.27788279382527753,0.7950015630048041,-0.04184064693926118,0.3557304820946272,0.09856206830870416,-0.11055094917075042,-0.3644665912095676,0.17582988914426756,-11.38943383374138,0.187781752370373
,0.32895993963425385,-6.788585445874537,-0.2423708764464804,-0.07527822949518805,1.0419401901034644,0.8074566451479934,-0.0875380296453327,0.8248007576109591,-0.05822978718802605,-0.24939320985242952,-0.520950140408324,0.05835278847314746,-17.376508651075937,-1.734596569880125
,0.04370380569844231,-4.067451108682399,-0.2961111327280237,-0.7333448107377958,1.0562458966918717,0.4118323675231898,-0.10810957037687456,1.0066611818922895,0.1901123387122418,-0.013002451365625554,-0.504468183722042,-0.18590344586920496,-14.150008374683914,-2.0421710508635194
,-0.6483068560017758,-2.1270891732031303,-0.027996699504029426,-1.2019913381313725,0.555881369604279,0.551690596721311,0.3680713595656702,0.612534033907044,0.38267130103892,0.19246960761502668,-0.23622942624403534,-0.23794767443200185,0.5376789660115676,-1.119967164242194
,-0.2883525713130517,0.252871489217975,-0.17993816720810582,-0.6020385578476787,-0.0856060521618246,1.0383792052959486,0.20529514306085064,0.043924723306747994,0.17053220942129835,0.42984056749039584,-0.3356160262142353,-0.1418472969531851,-19.232022293901863,-0.2868181514331719
,0.48263968129813967,-4.77707980364389,-0.1374807457214769,-0.2718659665394896,-0.4247824635768173,0.34510397754953875,-0.16890449719823875,0.1668903522858117,0.3946508670217089,0.2897993276424847,-0.19967977704035286,-0.03382600298111881,-27.387690892218977,-0.17322065894305907
,0.17753991362817828,-2.7198342815474095,-0.18918553825239912,-0.35863416321530145,0.03406698969582189,0.16559355090356667,-0.1555448860105344,0.31889096232894565,0.47843764721101667,0.07707320561764945,0.37263392781791665,0.15378587516050057,-22.671532100650357,-0.29044928984888757
,0.5699988782099622,-3.370630660543789,-0.03193201385432159,-0.1479924771317783,-0.10793958907023107,0.3320664265017847,-0.5094656832743878,-0.06837930929904516,-0.1008557868279096,-0.2778280385518575,0.10217607289976001,0.029484635941175605,-23.361530047442955,-0.20921830541140163
,0.4295027524582178,-5.917198129733829,0.3213240242713843,-0.027229149617072165,0.09038412008910963,1.1100858754877756,-0.6766675303230897,-0.19216553774928474,-0.4691244116670114,-0.2935627575010619,-0.3272701019261574,0.09711767266554132,-14.582194470563538,0.046857287768236666
,-0.0777593870944705,-7.182826896902424,0.025547179034039472,-0.3968132076882299,-0.06279410054441259,0.47425829122975327,-0.3708304015537343,-0.6024442393363203,-0.4915992011614361,-0.02120432798020733,-0.08145233318650945,0.08191097969542532,-10.247052103849919,0.08770297091587272
,-0.04052742983518564,-6.31443659722315,-0.11609431915624298,-0.39102355197798006,-0.49880613046618183,0.3031346567480251,-0.3990667111766513,-0.5045452959202646,-0.09743209912273995,0.4807368786687825,0.4274832061346766,-0.286025360000018,13.418372514313536,0.18835636777791728
,-0.49124864122734385,0.7628271177616497,-0.17694184264465573,0.0528868659670611,-0.42303132999888887,-0.20111620848812178,-0.5192394950007008,-0.5975004825126453,0.12119530045438906,0.4225339186809096,0.23063680818583213,-0.15878961581418788,-19.16573630489529,0.30237332750934476
,-0.6131869171285427,-0.7210370669387096,-0.08084568183546768,-0.24001200407668122,-0.3375629706830776,0.005950589045165759,-0.4141428723138385,-0.6149882860034501,0.04145467322347406,-0.1487676627299687,0.007411568013492696,0.2863368124295671,-26.11012823826508,0.3329513943502895
,-0.5256651994421512,-2.9600142693051237,-0.016911178969008525,-0.1696329769081942,0.01081254711045817,0.3149258630877313,-0.16947129653343956,-0.26463389704409584,0.22785354641368477,-0.1754368300498351,-0.011325023942457518,0.43952535402031107,-3.165115175280905,0.5069242079918622
,-0.4081060157892795,-2.0682944794161546,0.18023939315366563,0.3649184051760609,0.5858213630179366,0.4733428754303622,-0.27655667837628456,0.35446573458603836,0.043143790396381616,-0.2406185171794374,0.1616217982352997,0.11788692989853873,-0.12408763970123958,0.2047275130102528
,-0.04794322050189362,0.02798599826754274,0.1890488751182155,-0.21784715917715788,0.13385604797813486,0.3214419115768371,-0.3282478473610765,0.0009048248417200548,0.3056148920647492,-0.5300852490125572,-0.05345719245162826,0.3292084941231614,4.627641095514206,0.29106627029956544
,0.039355443364217084,-0.9054557443157468,-0.2007276265551086,-0.45095939424648107,0.0052156386522735024,0.46922057605575923,-0.14708248222158968,-0.10272584839877129,-0.3810556257972492,-0.4951099822810914,0.10644020290351013,-0.0687076278149404,0.18337751955349813,0.037210200091086984
,0.2397123046257528,1.1940096078265305,-0.05042346356706565,-0.20075006255780573,-0.35699897463370633,0.29186877432235403,0.27045967109696734,-0.3574698861425287,-0.5175158431091392,-0.20266167393293666,0.1865030690937159,-0.02305367060638757,-1.619538771737679,0.40263734826375835
,0.11956923532718639,0.7924968555996132,-0.1577197669229313,0.026978488462584143,-0.5274277298993582,0.08297472985193842,0.08951587749975648,0.09305575895705233,-0.1260151254501998,0.5663458091155483,-0.30513878534918326,0.03678040625629454,19.433998827045155,0.5447809133154277
,-0.057181494242929495,3.911607916486502,-0.005986616390659856,-0.052095335929249365,0.11024099238057569,0.32916942974040614,-0.04598905343336631,0.3857780036525523,-0.22218845115399433,-0.08933742436001439,-0.5683156287068923,-0.2527828529928263,15.361068239287913,0.33351069848898107
,-0.12634193774395172,5.320909410843656,-0.036296858230040814,-0.26303334087037245,0.04497150135115769,-0.04094271165947408,-0.35466845781573036,0.5224100205998177,-0.3516639309572044,-0.27139526446952333,-0.5569799317588884,-0.13627854774380357,3.7437621613706953,-0.11293414062336692
,0.21463102890234506,5.421992404788625,0.10489198607241292,-0.34272192684467473,-0.17704713289410282,-0.1526095674576423,0.025756832759717456,-0.010608364660574576,-0.41885460570124716,0.18275481976576108,-0.43148725743377603,0.20124963721399702,6.3024260447933464,0.1296117018891866
,0.1972272896371258,2.99689636449187,-0.12262135535686558,-0.2554995541133575,0.08813179619853106,0.4148562680153572,0.10798386628121293,-0.06696230778492965,-0.23122143893387634,-0.1331848779609437,-0.5573570741330145,-0.07091356295854248,0.1553332202554853,0.08283754423347928
,-0.18077257651035505,-2.2932089534760527,-0.18750083551864585,-0.1290814351721505,0.3108275363246819,0.9648235676303044,0.0630759578267639,-0.31219763291390495,-0.34940604449083124,-0.16899974800156917,-0.37731433453801766,-0.0341292475526662,-12.293728460516355,0.08840902058023943
,-0.16337994566338102,-2.251987249106346,-0.21239536643807905,-1.8772477957978497,0.017912124545762572,0.8556897743146172,0.04870103035078101,-0.4900883764580594,-0.12205970491293397,-0.04898270995465499,-0.10032360887370155,0.07240069845046418,-22.3437706514651,-0.21393312287233987
,-2.7385592832438332,-0.3375383484519942,0.03609835735081173,-2.9071497866288682,-0.4228374904632488,0.7104036569384535,-0.4102117131223858,-0.2856427146786355,-0.006769071711916262,-0.3004884931742398,-0.23386671707484383,0.003893522815652474,-15.727745921930765,-0.17584122294633964
,-3.1612061394997872,-3.702958504592412,-0.07045555609833923,-2.744140719446061,-0.4764116900298055,0.37384444482492635,-0.1475595316994346,0.21154624325198082,0.1906189218074955,-0.07187361008845679,0.05224451242143823,0.09338117424689685,-9.390151607176552,-0.0690520871382857
,-1.6796053264890434,0.31385571054627787,-0.27779901966026505,-1.2621944390202893,0.16261742953693023,1.118233387110019,-0.11003851473718258,0.709187060005657,-0.2989873073772457,-0.165755603769792,-0.025218328717009287,0.19788460292409232,6.640925788703176,0.01214991483636981
,-0.41808588745705033,0.16274945580467046,-0.07257545501212408,-0.4398844346589283,0.20548835977599464,0.6065277360953003,-0.4021025830189414,0.38095582994983135,-0.14300410434455216,-0.1073026619502019,-0.29183302623474716,0.010613136558709307,2.63254245485749,0.11165786624879098
,-0.2950033078373305,-1.082035971654693,-0.23431034310146112,-0.25016134214147306,-0.08914531933573125,0.7759824725044531,-0.38146811697224586,0.4893756350841312,0.38593189244740106,-0.31483747598987494,-0.15744239538592114,0.09999301989982598,-6.351818859330039,0.20119626884386696
,0.15279698478997675,0.04350152607837468,-0.14310309706045787,-0.2988128230139258,-0.00357221400533712,2.310931657375492,-0.25635628366729607,0.4333315465766867,0.26412446670130907,0.034501680948152806,-0.09546984437141207,0.21954558855686146,-24.5589161076991,0.38218009970399525
,0.18198142782358873,-6.091346811197117,-0.050165847977716414,-1.2900121198342516,0.27514926327902145,0.9436997630578172,-0.07517701043024451,0.24587603886899465,0.08802206979126578,0.3937767106272655,-0.22577261268794144,-0.1248020323528365,-18.405506222017955,0.16635478562908945
,0.09261245910329449,-6.618185674691003,0.004542932979312584,-2.0156839459613254,0.06089217089992674,0.18045092685257041,0.5545864097622821,0.11084215712393006,0.017981830672034474,0.4319360385502893,-0.025142628323097133,-0.1222077946291629,-7.119748769773366,-0.7569277245113502
,0.317944443434706,-3.66381085945069,-0.15916986316712253,-1.2795334151510391,0.0027453940040194262,-0.29819930123924654,0.6632589023022404,0.042496314085769905,0.08514641178541815,0.046085244859483905,-0.34458861898059273,0.11555659675380378,-1.1688443839903546,-0.47285321393413793
,0.07591060525003605,-3.2801159670259312,-0.23301341934902872,-0.11937046707579396,0.052980684448023556,-0.39897860778513666,0.5913850240446825,0.053123733466031206,-0.24637415240485838,-0.07354502594305791,-0.5499930070495099,0.389092488484983,-3.3897361532923216,0.002417647492740024
,-0.0228050219889482,-3.012275839657955,0.050692778331284806,0.6658324547280134,-0.09288844785106003,0.42754709943008473,0.2002609003136727,0.003155304426214064,-0.3851365030634197,0.0019061728150315464,0.07870428995396068,0.06377464837548821,-0.25170387914683967,-0.08304886844774925
,0.06044005334503806,1.8934574791007368,0.0817601298880578,0.02728195419108205,-0.02215953816200325,0.01314642695034842,-0.37300239717151856,0.0008864283120352992,-0.19037000804520432,0.4119303939849056,0.09862156242144006,-0.19082269915881533,-12.876061185564016,0.10671412672561768
,-0.030713965486243115,0.9020966677390472,0.013821344135171975,-0.12654329660552888,-0.12888246594318067,-0.12600323613978665,-0.07758185827803447,0.12730265573943175,-0.14201662893529024,0.5102500630479037,-0.4530348126941358,-0.17621776731026798,-7.453274353944571,0.20669651823340643
,0.6062256015650641,1.4356406918166562,-0.1842866166251381,0.41680239519914264,-0.17049213259106058,-0.5350232756233663,0.20081114891281932,0.22050520613277086,0.06111683255085029,0.11801324447700226,-0.3517335260983621,-0.3667593037525658,7.090330674867163,-0.44356800119936657
,-0.43954273235254465,-2.6387072061136334,-0.37883191200967364,0.3593446147413325,0.3624581461374553,-0.4208413199283307,0.028301318445043813,-0.4692656467228096,-0.17401453695046562,-0.1966485918377308,-0.37582735896232916,-0.3426477007601411,8.827087313965446,-0.33423693991273995
,-0.3287010383921922,-1.1181505453488594,-0.36632306647812196,0.36318961087903046,0.6691381331379904,0.5124505964725706,0.06667847260865231,0.039327471698861166,0.4988557992968029,-0.0620319148404821,0.21736660981099018,-0.3360102787072388,5.739412854847601,-0.040163409596324896
,0.26250539802001843,1.0690843212018597,-0.20623520017446303,0.2982275824500073,0.06351150742355645,0.30091281472553844,-0.15604741169373915,0.4242508289207099,0.8860889215434008,-0.058217414130446565,-0.22620369466906382,-0.2980105420925456,-18.033823676260486,-0.26271384588091967
,0.3095307311614352,1.470906257166094,-0.11052953126654592,0.3463474453823516,-0.42088437391600575,-0.04188806048621552,0.10142310234917197,0.21120982728393128,0.7341828220297089,0.08851190751086911,-0.3058222371233281,-0.2180510328608373,-19.52397153453936,-0.23811540634828668
,0.7169818819272386,-3.08982502073892,-0.10323436646987025,0.3462732211814563,-0.2934989348903043,-0.06196162706288919,0.027228404265816884,0.21630625350742688,0.4397055307286711,0.3578553390327178,-0.1309878234485174,0.10244858465886676,-17.111984866178087,-0.23506109907337003
,0.5631300351017238,-2.908641820240469,-0.26737108950632205,-0.3717056947248607,-0.0033190422582045783,0.8056234080635464,0.036445031679471496,0.3752010741917485,0.03661686373034062,0.6861201635391055,0.40573373386462286,0.2684349531611832,-13.078799300981489,-0.06444693715080375
,-0.03201412768391365,-5.968889520171335,0.22844852760476905,-0.4611213385806184,-0.056659293385606116,0.9624247004641396,0.3175041327725245,-0.09519413676571788,0.30480030438729866,0.1392544900560774,-0.3461356938146229,0.3701878938728363,-9.800667285536468,-0.2503474280744789
,-0.2813539310023578,-3.442914647031643,0.2710063629979618,0.04532470102237489,0.4449317057899189,0.8495648210813518,0.13375478283829675,0.12966031885352558,0.043180530936927634,-0.1519112597455913,-0.6786048096682382,0.09388800784896996,-8.05461782865723,0.29953571867761564
,-0.13791836083299908,2.717137841434983,-0.17895122427260313,0.6195487640047501,0.8337520085290305,0.711824703270554,0.04216595553799491,0.15958687998600257,-0.04634430575934179,0.020489796190315546,-0.17341651711328815,-0.014638583781211764,-4.56804314387385,1.2683711001555682
,-0.37300621688492086,0.5147232118234554,-0.6123486498396812,-0.10636793223521519,-0.25685074175612177,0.8942247171205232,-0.10711485854251993,-0.3237455786170704,-0.042852536127234324,-0.09367504199872793,-0.4106082794424543,-0.38273413097744635,-3.0319107904473395,1.0394656603492523
,-0.10911879052588414,1.8644844991425873,-1.46265594325031,-0.21636501356059287,-0.5000014666708987,0.32540640522606057,-0.2765860382607023,-0.5919542364448439,-0.1164185969285339,-0.08497189537426741,0.3707878166629853,-1.3433114049980017,-5.392282656871621,0.5920986607004262
,0.5303716390959168,2.47575667747613,-1.4233992668723183,-1.232004764172385,-0.26679132923814236,0.6340138993967698,0.050051278363143666,-0.28421779537890024,-0.003019077465772073,-0.04526183260893763,0.7823502429135841,-1.3171584982577442,-7.650642285731587,0.4459893552812294
,0.47479369323113507,3.1166061345722946,-1.4377363279687512,-1.7967453939389018,0.5170045321624465,0.6961551082482582,0.32917458930241356,0.2788986777915806,0.26596905181149183,0.005377780638776839,0.8173082978205689,-1.365299461079413,-7.212067108056957,-0.002780407959025765
,-0.23082843381572724,-1.0448927736659093,-1.0887204937421304,-0.7356201687955594,0.5308229813834925,0.7475481076954631,0.23208676990419708,0.17162874967403463,0.38505860550908966,0.42314834762468106,0.83363486528948,-0.9958490868198298,1.8312288544140427,-0.18168858423983
,-0.8005354527057141,-0.8989220668350556,-0.19560778802557052,0.18094646502078665,0.12792068248628252,0.7925189463733164,-0.05074595820668458,-0.14794154537587692,-0.22405934818140177,0.18268792451174753,0.903832304127796,0.06910094454690711,-8.565451102645573,0.23428929174718494
,-0.6717137156711959,1.8893330572364013,-0.3016114227042669,0.12080834684992878,-0.47464554908878775,-0.22227088065076603,-0.6889392825937382,0.04001008477785006,-0.3099151476118306,-0.033528991799588,0.26971146811540203,-0.05287641101954484,11.359430900048118,-0.04422838219141541
,-0.4318287468618582,0.30862987536259023,-0.04904746081857978,0.5941289877772942,-0.0740989804457764,-0.3584705080647375,-0.6296738033517257,0.17859571369282848,-0.3170165760671569,-0.13216700544794388,-0.201185546236979,-0.13173138037085794,2.049937219531997,-0.4183769747125929
,-0.2171172066413497,0.9979680507669219,0.08975753096492503,0.5098229845949958,-0.3549238370320747,0.0313626432866534,-0.09840394958662277,0.10335842731548123,-0.2146392548511407,0.30842068390996114,-0.23296898796844284,-0.13540169559056958,23.266669961442464,-0.5273850551986771
,-0.01267889139429937,4.697440824260589,-0.1598281265418234,0.28978787922027116,-0.6601578106227799,-0.2759869442348083,-0.6953551388378324,-0.01329310063360823,0.28039780506196804,-0.030472647273360527,-0.5023022873748195,-0.44962311723042653,10.859641259715524,-0.5874446828610295
,0.21978706427268774,4.2973689919812825,-0.4295343551272867,-0.004164959525936039,-0.31000934675011743,-0.23517890881428993,-0.8232539443612644,-0.12316894706573052,0.7633148813122567,-0.12792756879919442,-0.4582021186506356,-0.43261675770019586,-9.413289846757555,-0.5982700100356074
,-0.12997573355932346,3.949000970728707,-0.20616169417780422,0.25300420954449826,-0.041383418330767745,0.04599493829018217,-0.5905683413519677,-0.4528426253370917,0.3164278948068407,0.05278380082219716,-0.2740501616956998,-0.08293725328399994,-17.290583335809995,-0.1426704869319535
,-0.0615492758205244,2.7782316939880927,-0.06276103832827379,0.08030370106950183,0.4332240496353169,0.06125205251448588,-0.6423312304453925,-0.1861697829906837,-0.11594438260445333,0.061621604043493844,-0.1562048157604262,0.06488393563710089,-2.5695102495173487,0.02584093437126099
,0.9806055276741399,0.3759154388281761,0.0933574182390021,-0.18040722456606775,0.3469521260460427,0.016474269904483432,-0.31063402571123944,0.057909661831000485,-0.3502582468114345,0.4819230037689435,0.3818723534384852,0.21882716615090056,16.199633369710753,0.24741587407440382
,0.6981962466154435,1.3324469079929802,0.2445246404590706,-0.017847215587944394,0.18255047850686182,0.1587010169846487,-0.09666037426901042,0.10285354205184007,-0.03203656804317802,-0.00046396440273648086,0.21481718558467744,0.2985603094032762,10.059704679882165,-0.017091125511994845
,0.3792925840987933,-0.7721607453944239,0.11851730800756133,-0.044542570235727386,-0.15177123973214243,0.2958785690786103,-0.0361450863494281,0.6973469511480569,0.1621423397576768,-0.3188390217927393,-0.4700799539724754,-0.027801545225129624,15.591294971328479,-0.23570882000383236
,0.31615717373797175,-8.508768581983581,-0.0928685094171273,-0.4691688122301524,-0.6609956928775585,-0.47786177147570413,-0.018373022329324477,0.7536943073453568,-0.2000013729229504,-0.0019816867315318584,-1.4833316026408205,-0.5091516527581305,-23.471726719431086,-0.8031474448706637
,0.02827700919903907,-5.7435336668037165,-0.12995784919796355,-0.3679268590631972,-0.26898953341503007,-0.361252936686428,-0.2057314094357159,0.8058619588369738,0.04132742879852368,-0.07948000937148283,-1.0740121899457882,-0.4090538592140507,-26.190595511432292,-0.5976477084408888
,0.033727800998542674,0.03601904150011769,-0.058302410540388885,-0.5445529286484246,-0.01922123962702122,0.2610442592674046,-0.059380820342741315,0.3736529623436436,0.0941492367345834,-0.163579160387073,0.2930362851187485,0.07398703608959678,-4.111741211882268,0.6626991894984665
,-0.15344407354975045,1.0445866740253136,-0.271689208809688,0.09536595671508485,0.21176140084001904,0.7442308968577255,-0.224560776475483,-0.07038664219592296,-0.20545665737524782,-0.3338041150350501,0.21190524478019868,-0.13823038895917594,-10.71176769686643,0.049307634476622224
,-0.007048984187730451,-3.5614020869491285,-0.2201258142917745,0.40511387443408015,-0.12289053697937362,0.28085230601769307,-0.7489968202611662,-0.5481529093693742,-0.6286600367283737,-0.297402337968267,-0.39345266553308056,-0.13185107036528784,-16.81224561465348,-0.16990326826084343
,0.08660914420929876,-4.558076859880233,0.017363773045158522,0.19126983364747713,0.29882434735690083,0.09109732097973075,-0.48774739021318336,-0.3840804152281593,-0.6638146974426608,-0.09038002998689072,-0.4163208409196136,0.004136474594187508,-12.990843722756146,0.5473315101734787
,0.3560437754568543,-2.4380343954805928,0.1847160297625304,0.2955617874397466,0.7298527468275154,0.1511635046525869,0.414023933122957,0.10655879526888286,-0.33973912553433505,0.06052920826501661,0.03394188756790667,0.12592799733675963,-15.014463426264609,0.5059431725432195
,0.04580050384110865,-0.21575683711472848,0.18096665106758653,-0.1226931113122644,0.7500621556602005,-0.09377430714100095,0.3127546311432063,-0.26405012465720895,-0.30702597526679626,-0.0673259418344847,0.24356111943213188,0.22760147258237656,-25.209832853074715,0.12650534796474813
,-0.31163856880340435,1.3276671057059177,0.05591733470241476,-0.3349455043305137,0.26556632198654784,0.3689802088535471,-0.09298451466138918,-0.5266168533301319,-0.12788379592714316,0.306239906452036,0.9204628648417423,-0.08904555143369346,-29.30015429300316,0.5380448614152453
,-0.24182717722193817,4.790515737360032,0.003992682544373645,-0.12361567844191997,-0.05963710300937878,0.22452227006948486,-0.2944936022755857,-0.38305249227151955,-0.08681886781508255,-0.1586893709244586,0.2378600126886195,0.08186899558892488,-13.931078484568706,0.3803770885583136
,0.017331134952230636,3.8635456828207877,-0.17942444543951935,0.05573499284446357,-0.5488529765046342,-0.00886441284225104,-0.21129892489230856,-0.0931793894433557,-0.3345411518055653,-0.38700521657649606,0.19143470184860323,0.06440002446330158,-11.87498926793349,0.009646817833674317
,-0.08658164718091609,-0.21236674679936587,-0.22597641571818256,-0.009055591311174633,-0.5511737832160973,-0.024546837244889295,0.37806193431226454,-0.012310514987351636,-0.23950619981637153,-0.16204710726508442,0.11821507499426648,-0.08519814304447217,-11.205196689051212,0.10049602185663044
,-0.009514309641829009,1.7594747603163416,-0.06939973777574847,-0.596807535959581,-0.20890766740777536,-0.27676570025286695,0.6407199787888173,0.02931442913159761,-0.341855969068907,0.2743038839999083,-0.47302307208364486,-0.44752324486265493,-1.2267453668893988,-0.03896749669117468
,-0.22451202306091878,5.995839489290135,-0.03852409196872944,-0.48341087071889977,0.2496670237112723,-0.15580454044519518,-0.11695190079728499,-0.15654608848625884,-0.5734069515751979,-0.09394717433084718,-0.8893918994814815,-0.4063661524895889,9.777742046642603,-0.12255445314413756
,-0.34654118962653063,3.9061206607581065,-0.044293553687449715,0.20555274568813492,0.1513851154907725,-0.28597198527530826,-0.19438296794248217,0.2148532612541188,-0.4373369314521507,-0.08070873132989094,-0.5023811787674771,-0.03741672567335351,-1.5797330440832422,-0.40312313398106947
,-0.01988461506876037,1.9649231770267006,0.26822938432745774,-0.01481824543246068,0.3671642188685502,0.1110791225448523,0.4746124236557776,0.6829052150777627,0.12155570909527746,0.31214680665184097,-0.10168766656542647,0.26948436770661477,-30.198384800543487,-0.1130106682830075
,0.26854230218188635,-1.735141335670828,0.21645665668042535,0.09117162884386504,0.29251644721216274,0.16176701034524626,-0.28185760700973517,0.016368563427789116,-0.10596845933064701,-0.02985995932983068,0.7519392940418127,0.30976389220720163,-17.048437737761,0.8961592468610572
,0.47196190027389173,-2.5881670114945567,0.10935211123985637,0.37668989111662987,0.3507200207105956,-0.47109165542398834,-0.2989649783238538,-0.16608508670940594,-0.140608239512106,-0.21431643726153213,0.7540990202149022,-0.04740733744127755,20.678820312038987,0.28022022997919543
,0.15187672416821743,-4.053663466992727,0.3272023336665525,0.12422777865628336,0.4659549439358313,-0.5699680083537523,0.4164661826622178,-0.5048483010141828,-0.3660664439655918,-0.29099707889486603,0.6022874679129632,-0.13240031214737158,9.140376530313931,-0.041582664455321945
,-0.3822295602897292,-2.2294388720824583,-0.13755198001407412,-0.3698465731828098,-0.020260213954721582,-0.5693381274571766,0.21962342681198974,-0.4291978024693966,-0.35481952165867925,-0.04857962956955808,0.27384126468452225,-0.0021419618798084925,-3.3982971615682973,-0.354543643555201
,-0.2831513889277412,-2.118907361384861,-0.22661524155324303,-0.1601120388471066,-0.13544281290000357,0.05762465780138881,-0.28760088399321915,-0.04572762205425862,-0.30202883613321074,-0.13849595034683584,0.24571149801960984,0.06697217209037425,-17.332528479745946,-0.18895595959780548
,-0.04995792732203146,3.5278466106755926,-0.19246450672074317,0.27439362265066225,-0.31405112952534936,0.659216232407825,-0.11328973478213923,0.560413878376635,-0.05680030229007585,0.08636453251968634,0.2556072460540276,0.240766134532084,-13.669854410858143,0.07935655510516199
,0.006668837047154849,5.495686672052021,-0.026852105480064805,0.04173738938499964,-0.16330752549449468,0.6641009912503153,0.23309035730180094,0.4812518548190449,0.1402318573759396,0.6307430952706435,-0.2804408891516187,0.12271797003298077,-7.080447425009386,0.15934355367696962
,-0.08669553125966356,-3.625940231763648,-0.1142755253837028,-0.05521733993158524,0.4539870743310492,0.32660561659719234,0.9670130381584928,0.1235643871387302,-0.11743239127983639,0.3733881788275145,-0.17979804024855378,0.07681463687052174,-12.395105419453667,0.25068202363982905
,-0.1220055644784558,-4.728010347065846,-0.07410864735593452,-0.04843567452442474,0.03930485589031129,-0.04606857650005219,0.6737715774214373,0.07554646796626804,-0.3257193462775162,0.09157984746950332,-0.033549450315764076,-0.14812607864072255,-20.029453349123145,0.30146558647619276
,0.0887171203552869,-0.39827856722149696,0.2516612284218221,0.09076396063219881,-0.4572184274166996,-0.39323968541839244,0.1023830884306466,0.2671981140303638,-0.2383302452183502,0.0028643700833270785,-0.6920488472961485,-0.15590697638431586,-2.9346166731017953,-0.07806435358648314
,0.14709705603520468,3.0074645851809474,0.042435339196592335,-0.4451480746802505,-0.1715719650657074,0.06513347520295029,0.27193189376748655,0.1454391889562792,-0.044572095839470346,-0.21358376064672355,-1.136294928384921,-0.17516833264127954,-15.654179129587314,-0.07668635203685195
,-0.03276649819191391,0.35590152848359874,-0.03721952050939107,-0.4483412324012038,-0.04760276913621282,-0.03311203045768584,-0.11672337105111574,-0.14586038766169254,0.15777987460785545,-0.17964709558558511,-0.18528321529813016,-0.27095499368128356,-12.405044956842842,0.31947398324384824
,-0.17150094983770434,-0.827232212176406,-0.05423905042256358,0.4512842188379165,-0.10267712486669105,-0.10129878957344038,-0.3386365066442335,-0.1496620194281339,0.10077684072767454,0.4464873165759932,0.6369935090073076,-0.25288764931947044,10.17625131757089,0.23182801694969796
,-0.14026802025679758,1.2138417184911685,-0.012881042306617968,0.1309002776546093,0.29821103793442344,0.10587133479047253,-0.23859670879931422,-0.19087996968575718,0.05533343628001549,0.19287319667205596,-0.12654060567366185,-0.12393150279579274,-2.497186533557596,-0.20427603699498972
,0.12712653279267666,0.3698703260713348,0.024598355609283213,-0.0138216008972107,0.1570577767187855,0.4118445944083674,-0.15869604987001262,0.052721387327325044,-0.03701674550792885,0.06745901391438715,-0.055954386726938435,-0.22113846450927133,6.500115838480091,-0.41205490298284897
,0.37928471221879656,0.4216856392049545,0.02041238359342526,0.21109806577234624,-0.1504265397589247,-0.03334431850583702,-0.5013062827551369,0.14836480830709944,0.1998765345653196,-0.35761869219866654,-0.22315961046466865,0.019123932935234546,24.563252268796457,-0.2919886453406386
,0.1685285984657877,3.783796514216151,0.00803504360735822,-0.023972191906293273,-0.14861014945770004,-0.18341158405012897,-0.682037420232505,-0.25675932760633285,0.35519798761166305,-0.37010820851601905,-0.4583519603980115,0.15718254897578776,8.090828319778463,-0.30818788587615464
,0.234930199839539,6.07635111482356,0.07117240330796953,0.3478695152172863,0.21438489944920824,-0.2562518766090089,-0.33449075370070214,-0.3193634768488371,0.4576279719130294,-0.019934596510053883,-0.351044240783398,0.26758845205106924,-1.4473537880027882,0.0024315528964032195
,0.16838971335307376,6.682233872460184,0.1656257755464109,0.4923886777012293,-0.18816808140339428,0.02796134914973856,0.3518349951207511,-0.0036774550652397884,0.09361402620790203,-0.25210567285161356,0.23432337001598016,0.3834327831208614,13.280213331746715,0.4081480246505491
,-0.1833919797442688,-0.24750735776375626,-0.05279213222351929,-0.22005729902454282,-0.11594328920201691,0.02792594267977838,0.0371641255830801,0.31053000198559966,0.25223140567023167,0.10613788303655211,0.28741193647118907,0.21866019227818106,10.531613191018534,0.06506166432370017
,-0.4926139742413178,-10.11753315371376,-0.09149522221941044,-0.7564013722287386,0.03565941921171123,0.3108404580614396,-0.20293599510567126,0.04703135963588668,0.17072423272313567,0.0874896880117881,0.4321908623613131,-0.02319521344650393,5.882596217106847,-0.14167074651525152
R,-0.46745832949202504,-8.949818820032432,-0.043661004648598005,-0.4983028865859844,-0.30866681507752264,0.2166170863895403,-0.3747973576093531,0.10246697556032346,0.1580318664045164,-0.12523819266667913,-0.22288652554594257,-0.3830782011549449,-3.9132595002742736,0.21365115702480875
,-0.0081793034340764,-5.994346126888138,-0.2550301559296333,-0.38474585689497914,0.015233019658361088,0.22811899204850858,-0.2838782559166125,0.3630794439974869,-0.09726015225695399,0.14586284304783229,-0.07476354354197294,-0.15709180620780563,-0.07041332820873247,0.25525641200855426
,-0.7031473474286575,-5.767308287062773,-0.12051381732910155,-0.38207642262787134,-0.049057886627287085,-0.34728421534595677,-0.36911390104099623,0.18652592633436055,0.22871628500634572,0.32847851832121283,0.39965711440837265,0.09412233789805143,15.439618527097904,-0.1303304058758074
,-0.45170390188698195,-0.16641482117422535,-0.1694956714262924,-0.2525490445856127,0.15921837069566236,-0.19960769997369177,-0.29442033624424274,0.2013911449934933,0.281706452392534,-0.0028831754611971265,-0.2409807543952289,-0.174147258189812,-28.849920442019634,-0.09382240620003605
,0.2678915595399865,0.3514395557995308,-0.05101315418928837,-0.1627898564521274,0.47789053575920454,0.4718963020328424,-0.13927577897445106,0.5734826604654216,-0.12845834975708212,-0.15577764750190642,-0.18006500323320393,-0.15297292546415048,-41.1952120453959,0.015702963370684372
,1.1997206875133677,-5.958298333072725,0.009145439481476884,-0.49936102009927347,-0.23383656911914535,0.47350510677470803,-0.20697986484322517,0.07522594320483425,-0.07810347836380874,0.24538348718827327,-0.6493917657657379,0.056370040180936165,-25.032339257793954,0.0005750594065522447
,0.4604748367590856,-7.443761168256318,0.1097851756911463,-1.0701833802296026,-0.6655853648475223,-0.35251043726316,-0.17655429194851427,0.25528145216848275,-0.04834397212471252,0.1968197287515428,-1.065588762672135,-0.1397734770400721,-10.60520326285206,0.1054239953152793
,0.13006591244187854,-5.719663251801086,-0.03138061242275422,-1.1719633899960624,-0.06632733057461943,0.024244134068500078,-0.11917111225232332,0.5641412112639376,0.05242409899478018,0.08534827633663405,-0.4485398901127838,-0.19583487625919332,-10.32847016096141,0.03330184133680743
,-0.12172354853837404,-4.238836369337245,-0.0704472378413912,-0.3438685603589462,-0.14670424156911624,0.25336881741275885,-0.13534941537830003,0.06888970199276473,0.2574199070526051,0.7112920198290835,0.05898392283354113,-0.13366899684034564,-15.419950479958256,-0.14128059059659112
,-0.17040527982791742,-6.321830003241717,0.04805796828786383,0.2216493833993985,-0.7587332798482591,-0.36437109022618014,-0.16083569614465398,-0.2826973651394817,-0.0610028081995852,-0.024303438317564194,-0.5659416097171837,-0.2683015339390697,-7.585081734068918,-0.10906486758554367
,-0.1126262631523169,-6.303744475972537,0.2967348943686156,-0.902007978575752,-1.0820059189767797,-0.9673787631371639,-0.22350608522788576,-0.8594185994240486,-0.4346777820600364,-0.5902745113382891,-1.3841128242230267,-0.1952204504974907,-15.01318875943654,-0.027001036148010492
,0.09765343294710761,-5.476078626466711,0.01376604188512963,-0.9608947157151043,-1.0697184779668334,-0.4935110322400972,-0.6252238392449092,-0.5209562012814172,-0.5045591079341863,-0.5463592183592166,-1.1331557419045142,0.04548884081729789,-7.593217551805107,0.12735311205230984
,-0.3569428583672184,-3.004043880763704,-0.2736297172354519,-0.6059769109925125,-0.58688941984589,-0.845899210355938,-0.5663019141977582,-0.2895861961781602,-0.5053188591029768,-0.09994701568158348,-0.3269690517994041,-0.14525920713336665,-20.872591922425855,-0.08377005491457108
,-0.012180484446166966,-4.765389736768165,-0.42647756584262075,-0.6568272024252509,-0.46682568010038056,-1.0893472939571727,-0.6248769320922898,-0.1559990035017285,0.10175176047984781,-0.07879281288235511,-0.12107857377424444,-0.38654182229694817,-29.712655208914132,-0.6036242076239806
,-0.03951406774886632,-7.11839298278095,-0.3021518993249139,-0.6476184326244334,-0.20351567440810955,0.22070485121508537,-0.22144666094524507,-0.16073677380945195,0.3001551965373281,0.18152253223772494,-0.7532609612636926,0.03675001226541158,-42.717690175018944,-0.292922470306619
,0.29345144076213386,-10.413475995412892,-0.29896990301949716,-0.5831915950095499,-0.2425430706017315,0.3093519466486706,-0.10758570110567726,0.12865197839265824,-0.051846153488838156,0.5762233999383528,-0.47602586749525944,0.12228782906200308,-32.26357249504307,-0.0740217158219647
,-0.5068333236559812,-7.678295274336674,-0.37985898268440055,-0.34378906095689943,-0.49692615525899575,0.40299885278826886,-0.3388599283374928,0.4746514929192108,0.06058582262573841,0.5131951780606265,0.0714481814639483,-0.012275192146034194,-4.4687112879152755,0.03578771271927067
,-0.7900708859610404,-7.294976457083718,-0.3469619367254545,-0.23190164891472362,-0.5321863206854355,-0.019500990965320278,0.15555392958182576,-0.13665139212688465,0.11878852671527484,0.22954782265712115,0.019950784622722137,0.3006410996270793,-14.88689886655367,-0.1149258682635415
,0.1261292731643976,-11.990127355881096,-0.08457969395932294,-0.9611855937081026,-0.30286023203978873,-0.29963049684231075,0.08155184169391984,-0.563413871017256,0.2435178581083638,-0.14518925431685978,-0.8092616394455505,0.2377844516119392,-30.355101898213334,-0.08206163021793206
,0.20550524707514528,-10.511876452639516,0.21775756565931187,-1.1100236539755912,-0.07342054708772017,-0.45106011918940514,-0.12317496469572513,-0.354487287561106,-0.21899233287186945,-0.5065912620605667,-0.8041194737565908,-0.25537125500322394,-21.348266202107766,-0.411228860423009
,-0.37559670442505316,-7.085268268596981,0.20063544965606842,-0.5007719611544613,-0.3669290937445379,-0.4838164529591843,-0.3497541487544619,0.28901088174096473,-0.38789136760949317,-0.5120996098674214,0.026233190136159233,-0.25307833982391237,-15.6971580006682,-0.4286666762817129
,-0.3167141803933711,-8.480582485023028,0.11440144652961771,-0.41524150013187927,-0.3251465937892267,-0.434245347521162,-0.10785737708081818,-0.05080083780749814,-0.3621659599214511,0.0655871652770808,-0.4101791213465566,-0.0886541421100498,-15.028342617544663,-0.24473482996049967
,-0.36664616433704467,-8.490144734404472,0.5152099656246809,-0.6232607733068498,0.1103833362014007,-0.09241491357935441,-0.5127158552377288,-0.174395698424269,-0.4133519953292095,-0.08224031549605122,-0.04597028909928699,0.07207086867788855,5.5684327739664115,-0.30081038106297564
,-0.17621056660269951,-3.333098227278165,0.2962670147127062,-0.42072290943828394,0.3104565248607757,0.5506556594283031,-0.269809353313115,0.651570401261869,0.010816239143847413,-0.0788782274277116,-0.1572763269516643,-0.2251308366760592,0.5023847859299512,-0.007359017312121177
,0.28088773817545604,-3.1807420040768277,0.06127197156988279,0.10414452850688136,0.07216218464208415,0.845808249064937,-0.4103831492215509,0.24834303976817948,0.19842671350204596,-0.08221646627148352,-0.18728518829198476,-0.1790576210447962,-15.322918685244217,-0.05960384169606684
,0.19963343475049533,-8.307008298168046,0.07711806360063159,-0.2266814419339103,0.02970412192788794,0.6192319749749909,-0.7422672232397032,0.16426014264503136,-0.09549517725492583,-0.225007169991787,-0.10764506937255164,0.22131876169888023,-7.978650286293201,0.09602304827944898
,0.2337201556474936,-5.1975807939576155,-0.02966173297799553,-0.1607452586959802,0.45763116574266116,0.01742174351003103,-0.5425918546833304,0.12651481289908728,-0.2866306216588038,-0.2156978036232847,-0.5655135621190154,0.015895910944380077,-2.5234443928581918,-0.013091267257476046
,-0.26596071581053204,-1.5414431421093602,-0.03666570364996465,-0.21550988186534198,0.6926067693091372,-0.23722832431285182,-0.028368994245999993,0.5192748392244124,-0.13357196455801057,-0.4076164185450792,-0.37707755693362227,-0.09121614064560622,-19.17113472609197,-0.15177446833908181
,-0.21095012593373375,-5.768269445729658,-0.21402842865931498,-0.23679358372967263,0.7860938952160842,0.10964799809148613,-0.027613139435070322,1.153069565316165,-0.14125622052752076,-0.5627936433119893,-0.796783563590749,-0.0037905668698943336,-31.795745286890746,-0.3036509158551623
,0.04868004660546402,-7.564928692596468,-0.21113333355101885,-0.14550495610345068,0.6112509686806725,-0.14894725284312615,-0.4359971051495806,0.827646406518323,0.07654294059260644,-0.3976555734056998,-0.618706584603579,0.15075867927751413,-10.640186470602645,-0.3491270709208224
,0.5491184082836108,-1.28857930316317,0.026918883121013502,-0.2890883839190574,0.7705337204247998,0.3180155492520065,-0.03544366469434071,-0.06371059156436648,0.07153132763195048,-0.004120158955174045,-0.07094507450432505,-0.10834359288171726,-3.3229217200096723,-0.2762209667698634
,-0.12615180007472265,0.07811343052543984,0.04010749873996611,-0.5395251691298165,0.12304436360216199,0.3143644510069245,-0.28040667702088207,-0.2652018579674738,0.12016811885057271,-0.22159992248515947,-0.9021578643125548,-0.026419306025759096,-18.09976637588192,-0.5988957216531782
,0.35790879301163014,1.5442882341762423,0.07052772538738016,-0.2824844162378964,-0.46224518211224414,0.7532002870032312,-0.39718716611090377,-0.126633966272659,-0.16834987512738644,-0.1601730320676523,-0.9439934679652363,-0.048676217466406886,-1.6389536989670894,-0.01960423925135242
,0.6776336453911473,-5.1374098783986115,-0.007343262281542234,-0.08831316177158038,-0.1037347918438071,0.6207670203102511,-0.28545406951072694,0.36964190513565887,-0.07739865619276017,0.13812252049026535,-0.6835309500129176,-0.16379947951270202,-4.785152405096477,0.3585988208422772
,0.02881132676576757,-1.3759939962358565,0.14854451896655688,-0.3923807880656037,0.011518099677483271,0.40208201336054133,0.022310114803152613,0.14662997683721118,0.1400306793161189,0.6697790541389484,-0.3362033091291895,-0.26535036106915394,20.098394548039646,0.27794696060520624
,-0.37589945678912856,-4.128295981760367,0.08966829205502505,-0.5030462301494731,0.05882047299387693,0.5151730114991838,0.12017524438072948,-0.3948141540188291,-0.26321118488898254,0.05128370861426601,-0.04222883736007109,0.19875933676512686,13.133258824986305,0.1356755465180946
,-0.16629943132157188,-3.6622254573200412,-0.21780120871427877,-0.4804760315832009,-0.3391962566365761,-0.30386582557054936,0.1358523292637553,-0.2657333931528269,-0.4306252358609532,-0.1759908625988311,-0.5289165354610544,0.007561345092187362,7.977053610743012,-0.015197107160536245
,0.52985591944701,-5.838371053366254,-0.1941335374101864,-0.09320570575493552,-0.17839154178853106,-0.29142113072937037,0.07985945223380111,-0.4683448779614017,-0.09573818910132398,0.2975370851359297,-0.7784579347890878,-0.1758895682033443,-5.586481029483344,-0.4387148954069496
,0.33763381143667665,-4.980221491596833,0.047376708500186986,-0.2962651779265719,-0.5299965987493251,-0.45305340512123965,0.2164035083683674,-0.5048733987341812,-0.40185799770523434,0.3396458288074417,-0.34133680891285245,0.12080146286023065,-17.809509268441918,-0.16848230668994918
,0.43961466896136375,-11.20872367874628,0.08118695238260498,-0.7586844387157177,-0.3786968070996538,-0.24707673349873302,-0.3443984151684273,-0.3630582196042119,-0.38293078511442397,0.22468980541821942,0.04076672311100711,-0.23420731134584422,-23.577994766397808,0.35029762118668245
,0.18193976220489702,-9.92689948498342,-0.19848743141680575,-0.6404189729529277,-0.5092006921327018,-0.7539154731562777,-0.4481325292733261,-0.22900374306632376,-0.42090396565796434,-0.14701283580319013,0.4125968192002622,-0.29403091029469874,-25.08309924791409,-0.2051071442124184
,-0.7146460303903674,-9.917563841296143,-0.5062986530705805,-1.1262646703993442,-0.7865495127677761,-0.790028886016089,-0.35353557899666715,0.14965578055185738,-0.372249304651111,-0.5370959842055881,-1.019210781736229,-0.36632831936506854,-37.3575638483219,-0.9693483070873571
,-1.5920128635967385,-16.558666203310302,-0.7986316001712651,-1.9528782089295378,-0.7958467907477208,-0.2605551728485174,-0.1317065143421011,-0.4509399896285438,-0.793740765015631,-0.8134197273281998,-2.331369335628441,-0.5385084330452737,-61.414678770667706,-1.4109887913658998
,-1.0379206976303113,-14.747982447714286,-0.6455483512942902,-1.7947390423973761,-0.42874372148705814,0.41907531251462954,0.45434192238857557,-0.4773239017288309,-0.569569265579683,-0.7639899699812019,-1.7351663854423178,-0.3550410005698371,-53.244282267554354,-0.7962142244304359
,-0.37788011995429865,-13.490527412674552,-0.48498696277961734,-1.5735632747902373,-0.613592090585827,0.47697447256451864,0.32982917780533716,-0.3847373249466755,-0.25522647559521855,-0.5508141745922019,-0.2290949509736072,-0.21053604931041264,-36.72077156834355,-0.20777148857953545
,-0.7364501231701036,-7.038253211408823,-0.2945116386808232,-1.2823183293549736,-0.6233348155354685,0.2986868632497415,0.07270802051405449,-0.1363638481713772,-0.19958320477914548,0.31471625767993094,-0.7201498150624991,0.15050645583894456,-30.061733991060088,-0.4060271766648507
,-0.6123002365082044,-5.682884207308154,0.04421336136253006,-1.4856028887102148,0.3297881008604793,0.19226648694663429,0.08209133694949955,-0.08409684616424042,-0.17134628052667084,0.5806607805007453,-0.6442138300329187,-0.13783700448313643,-12.2735011225888,-0.2666520707334029
,-0.7809312320950879,-3.3478881653792354,0.07697032429381266,-0.7660413019476086,-0.1468328530322801,0.3299432592079311,-0.08063060090626831,0.11640227510294925,-0.30729068603067045,0.2077698216347025,-0.16146581109572972,0.04702880459697044,-21.141253290129228,-0.2508838179768766
,-1.1266164955132165,4.003625758749284,0.12856197121130364,-0.21203868340646292,-0.3256620000508608,0.583148860242723,-0.2307025885837649,-0.12743708291389502,-0.5234101616824215,-0.13622227517268476,0.28063262562074737,0.017257051751982867,-26.10601868472565,-0.4517371657968799
,-0.9263143950552843,4.750262066833141,-0.16157009566479397,-0.018811768678484737,-0.4345383001752208,-0.1311200377631837,-0.03637392982055486,-0.052643789576771155,-0.36967433387176163,-0.07021316815582407,0.42667643239240455,-0.0776260402331531,-14.829056049471035,-0.27944379038569656
,-0.34530038275740593,-0.38984920202629797,-0.10748904853884268,0.08112678382851397,-0.3686077094628025,-0.4231699364850112,-0.16628720639756953,-0.21796867442668927,-0.36866538699696083,0.11231011823155028,0.54382139423039,-0.07075096575853097,-16.946305478042714,0.17672171240963455
,-0.14950070006772134,-4.381443587063386,-0.24526107040117287,-0.09197943246443502,0.4134423857273119,-0.47589626329938983,-0.1706039947065428,-0.18301198798474166,0.03345299213107299,-0.18937940084096128,0.27179240090116574,0.017947660206045796,-21.528266784434763,-0.1469206613507428
,0.6438121070143448,-2.488693180844759,0.11720249504598224,-0.033974983562512016,0.6110427580751709,-0.16209980396822116,-0.016095536383566915,0.23739645401906886,0.5095623017788995,-0.35542752660710386,-0.12355191184031024,0.05265122804411466,-25.535374118957243,-0.042942038630223986
,0.5393727181164364,-4.7885418222919425,0.057297924317096974,-0.2502296425983489,0.8961746786615694,-0.15659092013605944,0.23313773744983582,0.2153497574469304,0.19003702622222252,0.0953808108487247,-0.44389004008715743,-0.11250600582657685,-15.193968106577955,0.1265494688733866
,-0.2517334933943226,-3.9603175921494147,-0.1497710177577045,-0.3380713703305585,0.5097237097972293,0.1192596718913152,-0.013714251070977556,-0.45440874329227726,-0.4940094468218133,-0.08715449554059328,0.02215176284675268,-0.2588290667051368,-4.125692264742033,-0.20540110722213936
,-0.07987640749869761,-1.3687905151493946,-0.07699814624027589,-0.3529796267634853,0.12756977285027277,0.5357950979110875,-0.12610657737086564,-0.8439370313700842,-0.6230025516746217,0.1387217897363361,-0.6630092868756725,-0.05511751554217572,-10.606119853390247,-0.292560400778528
,0.21657463056532816,-3.7743471008535945,-0.15510552454517412,-0.21460785353608666,0.13568243173993055,-0.12081469616639008,-0.4564434601195995,-0.6534433265993145,-0.48939707833508,-0.35794644754838123,-0.6114176148120521,-0.1502837158027567,-16.404440279179596,-0.4020336753763588
,0.2908101864655927,-4.819313148852459,-0.18796676306276888,0.04780045105996549,-0.18094606676363387,-0.07991840089918009,-0.2717561188540618,-0.16209378001403865,-0.40884376824862895,-0.6001400711053343,0.1964106791898767,-0.09329556530605379,-14.487038366520272,-0.16052606221014715
,0.11341295469606463,-0.6469951898465071,-0.12160136705795124,0.15175486288518558,-0.2339023351830937,0.419258527927922,0.07912973041068946,0.015512981369384976,-0.3795074839528494,-0.35257900029779415,1.0899258457643899,-0.08888276101811109,9.423539909371152,0.26894610447035294
,-0.0164402472962938,-0.9636781554158319,-0.01778937715203279,-0.5228152857106172,-0.12419076631765144,-0.5359430209974814,-0.1521114505215594,-0.4313494233033045,-0.5909696717479838,-0.2817729657559218,0.756952578313047,0.013014700188228496,1.438277449439736,0.00745348440846821
,-0.0035879274162806435,-2.654877900613231,-0.059962170540158094,-0.7470530375073812,0.0914698516918955,-0.4792685084276861,-0.1253128135022092,-0.20315659491666702,-0.13655718404278946,-0.5392691706756914,0.5619190714951466,0.11280509689429166,-14.791391894492916,0.008399149028173654
,-0.5705809241756695,-2.190288785646047,0.09922497072597025,-0.8145720105793703,0.03277470064227745,0.47041156810992607,-0.031188777779740814,0.17347561385304122,-0.13463774452948313,-0.3510238055056624,0.34022851951359123,-0.044413323627100376,-9.783398771370019,0.3281026749496349
,-0.3827640770931989,-0.28615038808232146,0.19755659913500007,-0.856643184263907,0.011553830122003783,0.49969312765951623,-0.5802946828203972,-0.21453246974865914,-0.1733247853362758,-0.6122737686115134,-0.23089787902456252,-0.02591782250445303,-23.604080727300175,-0.33035268355669184
,0.3846100255241735,-0.7589120599208792,0.21834440989975878,-0.22142061573593494,-0.07092702842311306,0.05510238857999479,-0.510144624015331,-0.5022470258383849,-0.35828873121267146,-0.610219729908649,-0.20402811579122912,-0.03468417863078346,-20.628605375760667,-0.006169918118844645
,0.13848683039445173,-1.5124251788245462,0.4919884776722926,0.06513419186449981,0.29070907073856495,-0.0057384079017524054,-0.31426875699096735,-0.17611875310329955,-0.39296669692056624,0.043095526936200015,0.06573906375502504,0.14327824232419836,-20.183420270986225,0.1705133752759965
,0.0038021916961016697,2.5583161449884355,-0.010737478667197736,0.22261020468681697,0.46295147903989553,0.03149585393189038,-0.4937277771768019,-0.1670018962217474,-0.037273438332376174,0.09065325972263488,-0.45103478983499085,-0.10576040370529363,-21.393789849710526,-0.3281147245836221
,-0.018007477383011113,4.019704683272307,0.050365401081072715,0.3603456977809895,-0.03746501123320486,-0.46988003258459926,-0.8597133786011226,-0.15610630938963865,-0.4224676937699512,-0.236508657260031,-0.9530802140246515,-0.23852552245327713,-17.19388562237374,-0.6200655994176607
,-0.03108019046670448,7.105176054637101,0.36214725649379065,0.41718236461014585,0.31950832589414385,-0.26073934477095106,-0.4046592303152667,0.004349321903617538,-0.253296294569207,0.11969963826731798,-0.25963877851555195,-0.10218959518778162,-5.872659545011947,-0.22488444410794325
,-0.048349662291961304,0.7872513497610297,0.19993084808231745,0.2046117720674342,0.38701709919194244,-0.4327740748724768,-0.2485673680888881,0.36484851607799196,-0.07274203525319273,0.16490525497309022,0.6535035113119771,-0.14361153911971286,0.5470908895579095,0.1740385831137627
,-0.175298713479871,1.0193167135310774,-0.004096525819856795,0.058221355064238464,0.2854833459247883,-0.029548635770089624,-0.5278685278388415,0.3380711401422178,-0.4616306105093303,-0.008964231090314339,1.1085968826720833,-0.16199189792078553,1.8732210985199964,-0.21286650196788667
,0.34343101172920726,1.9417724788445296,-0.1374215039592647,0.2778998514426918,0.20320374761731336,0.39792383434463185,-0.24887243177762944,0.7383089740243746,-0.19495985835031265,-0.12999294684270216,0.8705394024005648,-0.3040641420850957,-1.9779356805549306,-0.30472646930953845
,0.20406713483098568,-1.8583650740166686,-0.22888060329490825,0.18834369868388895,-0.011973225749795575,0.05331475528784751,-0.0210222996887501,0.451377685861881,-0.077275165720853,-0.07961896374449354,0.6197041559452978,-0.22067396723281824,-11.503638908067563,-0.03771369899572857
,-0.1712157728425714,-1.989368614796699,0.008919727624092362,-0.10099107775470118,0.35674087171214924,-0.05759563016672346,0.03731349697658445,0.038373802972324914,-0.31679002717586385,-0.178089514174603,0.2734011257768642,-0.2840229651999634,-27.94803381446736,0.07840796399883708
,-0.9547163945799857,-1.7345581386487423,0.18619523682154832,-0.043453490155267914,0.7944611729720317,0.3239749640096111,0.2574994444073975,-0.14665421005266563,-0.1845334732964261,0.08174169643695882,-0.18061480998376442,-0.39450920311982796,-29.01225693412635,-0.28991141572015094
,-0.5838655017988195,-1.187007301436456,0.05584436653807786,0.21853992452501744,0.2874695241744639,0.5171639609165658,0.03212081569824783,0.25154227436584486,0.25823035421891166,-0.26871768145702,-0.06145381793619474,-0.13042610922519848,-33.09888909229277,-0.424633480861273
,-0.15889777436387076,-0.2660943725428695,-0.07946335960938779,-0.1466263755160855,-0.5428695246525673,-0.6011897987124517,-0.1861558239117799,-0.04211159985591301,0.13855362494961013,-0.19915343948049083,0.7365438178942146,-0.23873133479370034,-9.106714086947363,-0.027610847665590275
,-0.2679314496200929,-2.6750640912493884,-0.3184693959049246,-0.11567982054403698,-0.3596698052062517,-0.7838250655324996,-0.14682023986081413,-0.3085554147978336,-0.10011239613933162,0.4549837459407713,0.3887778479574613,-0.10363015533221848,-19.63094256554891,-0.15088026668589105
,-0.26448341252667645,-0.22700279197247739,-0.29879445940865196,-0.22148530499628058,0.2884959313939284,-0.44073947225925775,-0.3922662506206933,-0.6017904770625179,-0.10897459258910913,0.43045657224101413,0.12176771060520908,0.15745867440201208,-4.7792983000744185,-0.13187245924062374
,-0.18096441177880052,1.0097746784169537,-0.11338687431801003,-0.38687290121558965,-0.8180584912464395,-0.4422469255098118,-0.5474087182490237,-0.35087125541298414,0.050364715973168606,-0.31448529871733605,0.025475317422351724,0.11372431842637806,-21.299705407468938,-0.17134195143440104
,0.02597468634878748,2.181812768278948,0.08820090608830757,-0.39609548872001493,-0.7282560707848974,-0.4346746988997328,-0.6754157411526319,-0.21351772288136106,-0.22084443773883725,-0.14667769000065597,-0.26426650263643964,-0.015354403446433618,-16.795812088732188,-0.43414504388541286
,-0.12801167846288225,-3.0105389627670585,0.19799417421503404,0.1766593764093053,0.047809974312272276,0.13602397076482217,-0.16307110982077025,-0.42743957645852076,-0.11159444516768728,0.23842467724860003,-0.09006124697805029,0.13601117669267504,-14.756337414975299,0.13259813653911612
,-0.20976994584209013,-1.424979041689686,0.22952790244247714,-0.060501280561573764,-0.029016364719107995,0.9390055364384283,-0.06371936968197289,-0.48615717862294083,-0.18702200264749003,-0.23452256243417235,0.08017479774202142,0.40210945806004145,-15.523315266807233,0.4074210090180677
,-0.4211340174839248,0.9475090447703549,0.07088865829189471,-0.2945625909946973,-0.1799228492848305,0.25361034873082844,-0.10561759681880588,-0.451892624517221,-0.3182801655276672,-0.6594264826362212,1.104306341802552,0.32665529770705715,-16.790000173272276,0.2881291068640265
,-0.13593544644887187,3.921797679225483,0.02547408169103324,0.18968407169465143,-0.2830868070766474,-0.4344337853700836,0.016734416514638237,-0.33097399544285305,-0.2563389753057341,-0.04444886327391232,0.44916088696944656,0.28237891715069097,-18.634368813126194,-0.14492632151557985
,0.060747308933966467,0.2762404428874529,0.25608522031600384,-0.08528280943670932,0.2837953895581696,-0.680246886499052,-0.13755241903556994,-0.07726069656938148,-0.1801630046129553,0.3551353282620389,0.19061529538885705,0.10065596493394081,-0.3803496085741209,-0.1575632446135215
,0.30086940076652235,1.6305330210619227,0.18023976310663145,0.03526118500362351,0.8798254713715096,0.03161103632232638,0.0085526669593706,0.377874436621958,0.11222699454207491,0.1321544523562566,1.064579938013269,0.3388023626450216,3.4172815522124864,-0.15761027280630502
,0.1465421772514983,6.950728012779454,0.004240947333270534,-0.09541975365184369,0.3514908247569312,0.4226010579759397,0.4851881317243448,0.07594373609111581,-0.34778114892269507,0.5781945490565075,0.19216809101778579,0.16933164922602512,-12.558098826455058,0.27402077552719967
,0.24788933718687844,-0.8174266625847404,-0.45031598262952316,-0.6930604872058407,0.033638581019642934,0.8240181829925989,0.09628781302068752,-0.4888409777008151,-0.4652130172655793,0.4845816428961107,-0.3381453349647759,-0.0715575685011056,-29.049636344040444,0.29627788227533053
,0.6568807810213282,-7.322460280823352,-0.23170067421109192,-0.980396133600022,-0.17542160630755083,0.009406748396934518,-0.3331397742352583,-0.25850110300337004,0.14567590204084233,-0.06354795120106865,-0.30121990484476696,0.13041059185368112,-19.73449053461845,-0.062134156667532504
,0.425364641369685,-5.507744394833524,-0.0671209237169845,-0.5980060843238526,-0.08882132911732205,-0.39588144188108176,0.3389148670366503,0.1578131078544155,0.27841072748671475,-0.13915636863947414,0.4572266447397988,0.3336235378884618,-2.6420585944659583,0.26776259721922396
,-0.2712439058853555,-3.14428874145914,-0.08505013629230102,-0.3975534955064621,0.042449467771125675,-0.09509938880401553,-0.18349185235070348,0.3633146182566194,-0.10363978104037969,-0.3424096958458822,0.3885981219244316,0.6301625163839057,-15.043632058233534,0.25118336046594664
,-0.1925894713807804,-2.1625780329294546,-0.0067380005964393745,-0.24787130319531273,-0.034668232167602654,-0.45764605684466186,-0.7530605807849925,0.119917114521222,-0.3610931859849668,-0.3778514356318035,-0.1843402482703543,0.2652841072228781,-14.754102390324073,-0.28167573145592817
,-0.04749377209028862,-3.0174720431109883,-0.05485946287439971,-0.42598135377929225,-0.10155749573944117,0.032211615531278145,-0.3553772527136415,0.04351557959372931,-0.4018332360031005,-0.00597716531785558,-0.2763639451169405,-0.06704185129185364,-20.99885034940962,-0.5977832077049063
,0.04374140150206575,-1.7608267491018008,0.09023434853012552,-0.210845161580168,0.25664959802385656,0.8048180357409502,0.24111804403932718,0.5482851401341381,-0.17916238520474714,0.029867767741843954,0.4820283228509881,-0.020581474749565887,-8.94220908018168,0.035221185835867044
,0.29100536040061603,2.551199390351187,0.28008043606531036,0.4496931304914077,0.38565077708426265,0.42108106157956776,0.2156147962365748,0.16439354568443004,-0.06564841150072352,0.2948617867406939,1.0762459889633715,0.09490037676845463,-12.941825010425445,0.17447131439627936
,0.21077510824937878,4.129053986630179,0.21429107378086223,0.3338397834852481,-0.23884140900338627,0.016597603733530527,0.27869966988613404,-0.06745874231202444,-0.3549142580702473,0.054312443664020736,-0.21198656260333432,0.05538525636715976,-31.93447750383581,0.13959623616682262
,-0.09527609747776242,-3.3507664165893045,0.34810404927164895,0.2707446654591098,0.03277740533293281,0.47738617839878517,0.2844720202580986,0.13246427563060922,-0.2662313771178563,-0.06936444754410263,-0.5316638169328187,-0.10444052387244561,-30.63624048677319,-0.009083261632363927
,0.10029227347567454,-2.8345910262257825,0.03196741816178286,-0.15803255591910118,0.14727831895485277,0.3225070711886601,-0.023464043283688694,-0.03198684454658067,-0.35618041475749007,-0.16140571522805883,-0.3356346411580612,-0.08488225071741659,-29.57327690341946,0.5352489053429138
,-0.3268989118447813,3.6436806062137035,-0.04324139740342234,-0.22648259084125463,0.4869523751602955,0.30419355972356327,-0.17158395703423038,-0.06828047915347418,-0.41939901622786374,-0.17656624207117885,-0.01903778372745124,0.24750626539194484,-21.343867805344285,0.11650040878072643
,-0.5583041629992161,3.84718489505566,-0.1945396683139843,0.05257494104060805,0.34662222189529085,0.46713329510117113,0.18344221423910373,-0.0742384770564552,-0.2689377372691025,-0.405218921905308,-0.3633580448613251,0.08840979318085276,-29.14063424837473,-0.13455156643990596
,-0.12367878166382162,4.091417387188441,-0.14943843095605275,0.42760364372034315,-0.17699045920247714,-0.643441266597909,-0.7654321211604457,-0.16818689338677595,-0.21595080846116874,-0.5523173161707147,-0.5059985812410682,-0.039454628642431995,-22.70733531020485,-0.3798666792077329
,-0.3093168599035452,7.919933543843208,-0.17919493787238178,0.5262865965914403,-0.19652818240946784,-1.0578365439908761,-0.7775674756167904,0.21930982389307027,0.10491784062352569,-0.3775688502562414,0.4127966561458826,-0.1608720699550856,-27.08293162618636,-0.38988767399879976
,-0.2928902817452167,6.17235613726915,0.03970327070933683,0.29236721096732365,-0.43322100356060683,-0.28795773384121554,-0.1378148621149221,0.17240794488958272,-0.1030213330165111,-0.1121884712675002,0.4816847313723591,-0.39255575672976184,-19.418694812169544,-0.3730408065158004
,0.05775890697663813,3.153277736368901,0.1691887944668526,0.049658619915855184,-0.4647537649561147,0.2522738275224536,0.22039993304572564,0.26606363755741663,0.17285369609994067,-0.30606880731830033,0.11257633098080262,-0.1740514475940464,-39.492150875476774,0.10859743720122378
,0.21874812570566904,-0.8510875573470241,-0.19204300374294828,-0.020765433501749236,-0.36330035304608116,1.115502529810778,1.0909158526682479,-0.016837794407257335,-0.18947676104582215,-0.008857134374574742,-0.2104351650823843,-0.007131156529324633,-32.146349503293656,0.6888673408548095
,-0.17565035542938867,-3.7562329345920333,0.06195361891487891,-0.240157577080203,-0.03609738723832453,1.1892967134020067,0.6586930185973414,0.0836354109597607,-0.17719117053473601,0.030695612571915214,-0.6792818620034279,-0.17093438961321222,-13.691591031789978,0.2200694543916783
,-0.5759726643847628,2.6355001202890604,0.11548135644965393,0.014463195559375204,0.840994185775434,0.5850516564307446,1.157582338124323,0.25802852229696355,0.38059977645006365,-0.09746489253604951,-0.1088392909487987,-0.11466369430044694,11.940040435217181,0.16974910141842123
,-0.10852173908024833,4.225500332071218,0.13539810704638502,0.10563640906799163,0.5701489490180652,0.22528953496254972,0.8712709992457541,0.35130751028264734,0.8683652298013124,-0.27212448532289435,0.2005242774319644,-0.008533855939682268,9.628070180169974,0.11634916717589824
,0.043778028029322937,3.5709319022696633,-0.07391055627127924,0.2495929597077096,0.6921675452034508,0.15463128588257152,0.263168445646591,0.08976325215097457,0.6679545494515874,-0.1433195977703181,-0.19914366547792123,0.010693461337042819,4.190559917687827,-0.04005440249523942
,0.49622085261467314,2.028041908569416,-0.2727059072508694,0.03757977970073146,0.6679009145239334,0.4356929890886655,0.3003685110510943,0.021199844085393656,0.06917681310086177,0.1023633319545231,-0.1925246549991278,0.015078749553581043,9.917627440448097,0.193440666845045
,0.051759307603981515,3.8262983436585944,-0.00588008777304739,0.40051349588691465,0.06952690430968901,0.1136116886000354,-0.02066592685698547,-0.08278063076823494,-0.3370771510325766,0.19194628768951305,0.17579251319906136,0.19158782731904203,8.855015951855952,0.16589031602299728
,0.055827192733317564,9.401913067099313,0.34542729689154245,0.21592627386796498,0.13310384685812332,-0.0457942742448926,-0.44298877286684507,-0.03221223165406223,-0.21041185424365452,-0.16598573825956967,0.13732725164214382,0.12153414628920296,-10.542411785762228,0.2279479245615722
,-0.3598444406412444,8.43629711192504,-0.18243371915042145,0.17668532532468414,0.123401115374041,0.2596249198327551,-0.11002759481840384,-0.03475919021283185,0.12107538968948367,-0.21184194970677098,-0.20291708175126005,-0.11953538809482768,-6.276866977037588,-0.5020274648493614
,-0.3101363259321532,2.4729619585719003,-0.22942466089084063,0.058176414510420674,0.049741620673200135,0.7969770637666568,0.17499414564321356,0.12587424115592658,-0.01842989666273532,0.2030257946382939,-0.037274482112868594,-0.10284129336912826,7.17669644820345,-0.6549203476750768
,-0.4397859612131528,-0.49252305948608416,-0.09029258592019414,0.15140721314826197,0.5034789836371609,0.3193752759082042,-0.035656006532266284,0.21720115643953689,0.49160978263827404,0.3280206764557038,-0.5373790586163865,0.027349195190893797,-7.051989419907091,-0.37793524003159285
,-0.5596722900388392,-3.424315579466063,-0.13195768005214226,-0.14949831777648262,0.8230455534406632,0.08752040221125297,-0.514505356774879,-0.030348475941835353,0.5490001520949126,0.046039031160081324,-0.32546718967434923,-0.07505654248861794,-14.47582899018787,-0.30534355854897466
,-0.5840867099871297,-1.0699748233830293,-0.08356505705812331,-0.4561556202106026,0.6194467125967129,0.2830329808782088,-0.38161182447618586,-0.029787743294159782,-0.27320838958049526,0.16629652994341898,0.03532596937807503,-0.26137064028820367,0.12461676292651679,-0.3093350523676527
,-0.11680635327644942,-2.2536278763688045,-0.29505210394538484,-0.29904763096842085,0.06494935128328143,0.19702993454046036,-0.14298713017292078,0.49113259647619995,-0.3344643986666312,-0.06533563453931049,-0.45430194110717426,-0.14410450542207393,-11.516693523952776,0.17567835058282227
E1,-0.3985344184608504,-5.03489447685964,-0.36317408830691317,-0.23348903068279678,-0.2581537526751753,0.1312523558331819,-0.22715197260428713,-0.3628784070629617,-0.05873807273337432,-0.06621553819254358,0.09859001191542366,-0.2472917959512156,-15.402815434330694,-0.05883825604387183
,-0.46631741089887424,-5.71963022806794,-0.23066343715915671,-0.4586719009925255,-0.31855135907474186,-0.08431110851331361,-0.478798641833893,-0.5130489494518,-0.17291498196601368,-0.004968054125690877,-0.08908162257986021,-0.15938020280996262,1.8197954915539118,-0.38742736735946404
,-0.4154377605786008,-6.558795993697328,-0.39439884614488036,-0.8500578612174475,-0.13601498773294088,-0.43458636225684116,-0.5947033657544262,-0.5775556331306999,-0.32858846668100705,0.24250741165065595,-0.261121258725749,-0.08843906881846318,-3.4847294521525347,-0.372218074448002
,-0.18131062362341813,-5.0514170239417595,-0.37490291476308835,-0.504654920173718,-0.1308811835597382,0.06883611338356398,-0.49330699283621515,-0.2091890322847951,-0.3591337284410834,0.09482824128562536,0.3563551795355874,0.009999295991776154,-37.4284589443569,-0.20072171543940062
,0.49960101458848877,-5.782344260990334,0.04035166535075747,-0.2966281524801287,-0.25494092702918264,-0.10363265056229663,-0.4887591133592599,-0.14892961251685505,-0.4275436096304989,-0.07198289355476903,-0.1228671652147902,-0.13832567633462464,-36.76367089364059,-0.16344390023133099
,-0.4841222230803215,-4.142572961820776,0.2480120789498856,-0.15237109505578128,0.37177704924250077,0.3616775573028012,-0.26163931463617063,0.31834985174696234,-0.5356158634644953,-0.4160216869986343,-0.3636950837080153,0.11853823107896527,-22.12640777938504,-0.1527399416943807
,-0.9852490006007333,-3.860438162928325,0.1826421888161389,-0.23313690771182813,-0.064143521362432,0.676291142396674,-0.03802304987843322,-0.14252972021881874,-0.7237369161192204,-0.3456084001575938,0.10150237751788654,0.09309582113354328,-5.181645470890635,0.048175529455236156
,-0.1867494085847716,0.1863612508236113,0.05345887487999334,0.03961159290602023,-0.39945700354984226,-0.08585116013489844,-0.09524973885279472,-0.14546676684298146,-0.5546142461753614,0.34577285113569556,-0.3954439105075181,0.11473236332558193,-15.955261586055004,0.2632154452899978
,0.5580823162604461,0.8971002650007721,-0.2923698646196316,-0.2999968610030341,-0.19692254563518935,0.11907765199920675,-0.0415814105023806,0.30334162201055487,-0.09421971943234472,0.604126945544317,-0.44277420260263256,0.13397217400685785,-23.48808098235888,0.40663579370740827
,0.07875879731962723,-2.70830401097085,-0.3230240207317176,-0.39023265879939173,-0.26986614791152985,0.16001228054428712,-0.4934654661477979,-0.17248779003290912,-0.07114465123800023,0.1119776704046949,0.3125841171754242,0.3435519337575719,-16.57394549202025,-0.278379414358671
,0.030051289073159303,-3.105332804987662,-0.12841589911250845,-0.5725584477399304,-0.6116023186420135,-0.21707902404178678,-0.31578747292719334,-0.3835859637975492,-0.2912074994300894,-0.1632248530687088,0.23193476206180888,0.24086714481280286,-21.47902688529336,-0.4131370561308538
,0.17139208366513883,-6.437531596229096,0.06402087913765502,-0.9411086188802121,-0.1693591710570265,0.3130985542292788,-0.3129365361379835,-0.14887397843378394,-0.5028653132159256,-0.021836286039857558,0.021903809690642467,-0.07136562813618129,-32.07161712221701,0.11908696616609692
,-0.07768529505769578,-2.120881407982426,0.0913223625981162,-0.5330043843773513,0.7395430127686717,0.38036935362893315,-0.05298339634956498,0.10048912978254393,-0.4772946027579625,0.23104954266131894,0.7155904462498431,0.02096460078714756,-25.11791674016259,-0.05916619267290298
,-0.8418179863252888,-2.9169637456804476,-0.10367021842919341,-0.05680961309010442,-0.00313668958963156,-0.25896901124525445,-0.42496287219469064,-0.03127655892446957,-0.5786208325885762,-0.04179234099804133,-0.2192425038427654,0.29142060067128484,-26.646130331718854,-0.7084409867028875
,-0.6613113135898447,-5.062996072993268,-0.2530771273106008,0.00726079806354204,-0.3952135539881769,-0.17249927631025438,-0.42501706110581583,0.11665067320018738,-0.34067001290707666,-0.24929841008954112,-0.4684003334953672,0.17200647064513522,-27.343141439377877,-0.4009727121347046
,0.3948785458580384,-4.378461850048285,-0.25293182138552806,0.2676399793053838,-0.29606914947823526,0.4233001092016368,-0.19464382197647634,0.239805899875026,-0.09520859485752255,-0.22712704324654975,-0.39412585279658685,0.21204474330194645,-12.619938095113945,0.02626754627946651
,0.02475902127557959,-2.0801482835095415,-0.08725086422504044,-0.1858348157353129,-0.05808396585282332,0.6757804063179181,-0.09304194649730749,-0.03450508477089195,-0.26845310699929703,-0.6960839492951769,-0.14398690264342096,0.0447363194520295,-4.599544606300248,0.1583282693543613
,-0.5812691001371758,-5.278928984243083,-0.22623711852547798,-1.080329004700572,-0.317955462793861,-0.1016707968560612,-0.48028381990928315,-0.0952555589723388,-0.22937320343915318,-0.3162520131305082,-0.01976045613622137,-0.09425872136681333,-23.16005580118142,0.055869723098391694
,-0.6885379879303783,-0.9525592997384775,0.009251040877796749,-0.6154570717977808,-0.05940761560465769,0.11285275682323558,-0.030893101141469526,-0.23267096753089847,-0.4501408190159442,-0.2670551859618201,0.3111732794647911,-0.3981977079255191,-29.197063985969642,0.2253055285456615
,-0.5982226951355898,-2.6415138288158038,0.26960801119430616,-0.10166169535320842,-0.4360827026236669,0.6243612017206996,0.10077801015622304,-0.28007613723476765,-0.654183603160621,-0.19145745161512823,0.5172219112193086,-0.12419570457357008,-11.046224356098346,-0.07803424906367985
,-0.3611873518196105,-9.490039377568166,0.11139567324495751,-0.3186090581060318,-0.24128709771454923,0.45292466780825724,-0.11977909450505672,0.09904520873194059,-0.5635654820954883,-0.04765784738025208,0.07941227089185203,0.28647140231329593,-22.005094904749058,-0.4082192798359121
,-0.2142781784485732,-7.945852797439199,-0.31489465151397683,-0.12915905173055844,0.2560005357667013,0.2222876018400773,-0.03728516408823768,-0.0928737943230076,-0.2956931901068135,0.08064240395631028,0.08621090545617605,0.18370027919036538,-9.066285079306262,-0.13714200806480142
,-0.35264992820543506,-3.5169308402798363,-0.4723632846488204,-0.1808029915012023,-0.14855124181037496,0.8189866608438237,-0.37104072861286064,0.015936890361555416,0.15334976895598904,0.8712656352351429,-0.534994826001062,-0.11232634034728821,-9.479237313857512,-0.15893404873433242
,-0.48879451875005103,-6.327109246348781,-0.33609001874165917,-0.3858941426863307,-0.33309833717714626,0.35642842939433944,-0.3562657976735636,-0.06216403307463045,0.2334081460475049,0.03152243319578691,-0.5808525962807365,-0.27159857748277705,-10.251751140835086,-0.300694201241758
,-0.04378839056987293,-6.395969957911365,-0.3509202202816361,-0.39387407775726063,-0.4813155547640398,-0.15331978284056325,-0.311317639445633,-0.0358118239696378,-0.3415555369433666,-0.5301972543139333,-1.2157782803502915,-0.5773181261217282,-14.78741877405139,-0.5478860529342554
,-0.05573546567400376,-4.661169603413782,-0.15877317397185278,-0.8077451671717836,-0.17666002521366458,0.1263200993040071,-0.3187378240417072,-0.035773462486851454,-0.38544561537407235,-0.3838602450260745,-0.8748562701683746,-0.5016274405960847,-29.943583134564,-0.24893162697105645
,0.08243639853787045,-2.4637084138753087,0.002467192846701382,-0.26643082164657594,0.4626474229869951,0.3813177020653927,0.12641842401475079,0.7285630235063741,-0.13940756811790533,-0.162008019478367,0.13522917258950468,-0.15124390140044064,-31.343538038518997,-0.15558876890336754
,0.13393800891032662,-8.193532253391849,-0.24255655576781907,-0.1917790154936551,0.01715422695733108,-0.16681893145050578,0.34604198237776096,0.8353599451481929,0.33698042998107525,0.2222677383178757,0.24202811085253523,-0.14533293062131789,-7.862866171998871,-0.1701007146029797
,0.014878839994793714,-3.4676738859159575,-0.23258490581046012,-0.06710538555406802,0.07137907954370482,0.012899154332034195,0.8434487101960313,0.3731446757073173,-0.07143742699212133,0.22922951316951465,0.8000308159842324,-0.14371400199292017,22.72174583510704,-0.03945012839471947
,-0.21086462821736954,-4.2331810047593255,-0.05902922320913394,-0.4276226067960288,0.0718325060533421,-0.2506414966490647,0.6502017008715313,-0.0338320728634312,-0.28485556155219816,-0.16650115581105793,-0.0584424269683545,-0.16029553862910093,19.213699768589528,-0.022743243148137617
,-0.19656013899294114,-7.922599349013972,0.23018111302698835,-0.5008027099236848,-0.5908791401182357,-0.33035622733148184,0.41362883338738127,-0.20882396950795099,-0.30626829580753967,0.05144983552758555,-0.09572599409856948,-0.2614429598431608,1.2964921555498885,-0.09066200386167172
,-0.37643382060397024,-0.5036699533295224,0.17182782544176775,0.25448294888143136,-0.6572501821754985,0.4220527951146052,0.3265060427304702,0.05980733323711932,-0.07947293578403566,0.5604778477140274,0.41448571514861055,0.1372887140398604,2.2220542154688854,-0.014212611738869542
,-0.1466186793083506,2.187101946149986,0.17194928688908862,0.550299241040356,-0.6010969016509041,0.16276150472240036,0.21531763268431467,0.4098134317230147,0.008752328120232942,0.4548220349340313,0.5178647750566309,-0.02932340107243542,-7.0033230770667325,-0.06653836656521886
,0.13108456737219226,3.1836004564504767,-0.04547639664101623,0.2978836098918062,-0.7548522137384324,-0.11338322611998046,-0.1557352890206114,0.11967854417621149,-0.20797698935365233,0.1591778299149674,0.3985045781633203,-0.09454736700072496,-26.322513547739327,0.010029393986228784
,0.26885154601375066,4.326651116549979,0.04027523560477365,0.1175500255309497,-0.11480641621079117,-0.03853461035333662,-0.37640725462364166,0.2892028592006085,0.09330579853770798,-0.17920935470613636,0.20010913594035087,-0.02125986173598359,1.469822897964385,0.3394789449761539
,0.5457576629368054,8.821064835831672,0.27553983484037897,-0.08153141063017025,0.403148957678461,-0.13350893568641806,0.09500346392875769,-0.05688151138135575,-0.22031090360555963,-0.1340091569261676,0.4215166351861633,0.0458589150839819,36.34572710515409,-0.0033298094118840087
,0.4402800338658066,-2.118493183802509,0.09933921017023228,0.03161537093389019,-0.3367451536453486,0.07873182683529129,-0.1970236865483388,-0.19710820440789814,-0.19389500200946547,-0.18859330630271168,0.13529381785289762,-0.2026722416341639,-6.4036872755275445,0.06056253097596549
,-0.34586643667984995,-6.1735713364854705,-0.2317640470065169,-0.30118796505910317,-0.30558213075738355,-0.020478335534108067,-0.45957844235299355,0.06899567846106873,0.07380785280020262,-0.07538557664334335,-0.842961779779892,-0.4575269449993703,-35.48402335189586,-0.2813944560607234
,-0.2775922366403365,-4.796713771314248,-0.2937275230198972,-0.37179171615287543,-0.3345706803284581,-0.32832165002177555,-0.4628703699037959,0.455415428579944,0.1782280069512583,-0.09500017512209977,-0.7925334418240746,-0.13049041139287648,-19.59437463610681,-0.6214844026196323
,-0.0006289101908325669,-8.63429051332322,-0.2113974673378871,-0.13590500892739174,-0.6252253272900459,-0.17620052648585838,0.21938998535866827,-0.10332786329976146,-0.0399376170708429,0.03068402731327876,-0.09857026155575511,-0.15245605417326988,-21.16330564139249,-0.37961001279773954
,0.3585992710035919,-4.9148761279730175,0.039210286647355264,0.13619883312146774,-0.657022219432864,-0.3105582030764276,0.1684631687000661,-0.33640541483609426,-0.409579050733984,-0.357346302905376,-0.7166241839689582,-0.040739460087449234,-23.2581489139196,-0.13302355845554634
,0.39347111969347376,0.9733800716859955,0.051249394285820135,0.2203620920267799,-0.35180161169853,0.04309742589528598,-0.20635978590620835,-0.315843020471437,-0.3933808856255222,-0.17652774775492056,-0.575045915979474,0.19400235556725137,-17.794687634254288,0.11336763858104588
,0.34063580012455125,0.8081095008757074,-0.12509839579800275,-0.2618375414008685,0.1449343738851154,0.42294216157968384,0.24725583676772506,-0.3923234078035073,-0.19458710848920613,0.34529164967188214,-0.7261730092355704,0.031724039889458835,-13.168341788247263,0.4121362169171747
,0.45869324359908276,-0.08786866662025054,-0.21296455031093242,-0.2885586959236478,0.35093397331021325,0.002220926158145642,-0.2800685115942559,-0.47590147974333896,-0.37910688295815154,-0.11860081094808102,-0.2626543447904237,-0.3120406718702239,-4.462634724678167,-0.1772285470183233
,-0.0077167515748467475,4.550730266026226,0.0307064777734337,-0.1552352830389683,-0.35820148861468254,-0.4430687909630763,-0.43009058856736976,-0.1901191384441934,-0.28838346055664027,-0.34520169830923414,-0.4751140444977379,-0.2982412988765921,-30.63822462634686,-0.3250286567441777
,-0.4174717387648865,1.5434124119094084,-0.06918764396416538,0.17665158949640833,-0.5616228432389884,-0.1828139014924289,-0.3743539450741902,-0.27774175951595237,-0.44744919700275515,-0.13520768892609447,-0.6922709701240799,-0.16899711172565746,-36.66939632720259,-0.1098309331879719
,-0.6076934526916787,0.8594634220331171,-0.3111636206103473,-0.1644164258574246,-0.4273282478371593,0.12197218566210609,-0.11585467510789438,0.06189918729783301,-0.3029741452765073,0.161838619631297,-0.3304091387674604,-0.08167632173345575,-25.463350118653032,0.277422024140243
,-0.2916892737868927,0.023001317585084297,-0.25783563366923534,-0.02814368786975667,0.13114036289230774,-0.25133979735340006,0.03696148894825727,0.46601381882687903,-0.20278383048977353,0.005960154879716327,0.0026050693601926546,0.20799026174221316,-24.50234151092224,0.1275158573961249
,-0.2529771447187645,-5.029193642849239,-0.10129827584623104,-0.24657797015325023,-0.05331275062845077,0.013027349872451481,-0.07051710511465534,0.22557805089135902,-0.2212676606363596,0.1374109944565152,-0.19500464140230167,-0.03502815130237323,-24.81599966715103,0.040438651166903816
,-0.6234980123329268,-3.607243715685632,-0.2712177025613885,0.04438805975271612,-0.007678428616564754,0.702120612434073,0.05826009443872554,0.12167165905124853,-0.31163271852263863,-0.48724293846542654,-0.2753459655655968,-0.013318647550163406,-20.456298626133684,-0.0613125332130657
,-0.3373715168477719,-4.024517444860022,-0.24742492527855098,0.09701723239249996,0.11239570680971595,0.5590537730244455,-0.46531495120824795,-0.3235485575337409,-0.12480282994482485,-0.7129857665781358,0.43619640141542515,0.06853253049178008,-29.522299959636015,-0.09826924014292945
,0.30752953560448204,-4.875339278683889,-0.2832391935645956,-0.15121897701928605,-0.6227360639169465,0.1587719502834717,-0.44045803177117987,-0.23444149712965148,-0.03840187196752733,-0.28899704398024817,0.5403969122088151,-0.06830813509085187,-21.432201769953956,-0.2554753005550525
,-0.07213070735157133,1.2611332764915362,-0.3206017464089826,0.05499839522454342,-0.3690354444767143,-0.04943213797364913,0.0183470983703586,-0.44036230031871243,-0.16737048563102058,0.38892411343413397,0.6424624986439799,-0.08310149949275533,-17.30867425333706,-0.1670465831007838
,-0.18631270409991593,3.6062321024374056,-0.3793048858724814,0.23961879392601393,-0.5003321876454898,-0.09541511565580127,0.6396693456022429,-0.6652450105758653,-0.5478871599406713,0.2636662924136753,0.18933009624889785,-0.21907238210130053,-32.31155635380923,-0.3208612920063082
,0.058609109280260564,-1.1936818791739157,-0.09172615774668164,0.31626867080655724,-0.2076280623887565,0.34910032502369603,0.30804032281859445,-0.09927788210608536,-0.1673880015564612,0.4258845934265122,0.633653653659177,-0.143343875983238,-18.969353076992252,-0.3198795128310686
,-0.12460858545972409,-1.8568642197846503,-0.0843504345273221,0.3018562935375821,0.610911610299614,0.43737050932904636,-0.09113978718090772,-0.011918384010635214,-0.09794296658828003,0.6800062023123854,0.42353087005940643,-0.03989592095338382,-11.739321979589668,0.011501776555810613
,-0.19845829518263758,0.8202112684757059,-0.1207294616227873,0.014169257226496978,0.3540129487999906,-0.5930627242868529,0.12779106627942435,-0.007087345520715927,-0.053622288094189376,0.2124614427863737,0.4548273484296319,0.13515835809083326,-8.287592578254577,0.18075140908739706
,-0.06678778029096201,2.53826730969876,-0.4493467895036201,-0.20372199636657565,-0.07376096079891133,-0.39742574487862675,-0.12520769885718633,0.02628378902816904,0.2852445193254187,-0.0268474436715606,0.467877293292161,0.14366408928706975,-4.2738674076711245,0.2748297287743859
,-0.3158521155888613,1.1639634763664908,-0.21548509416869255,0.15304444888625418,-0.4921952586167981,-0.16723104909606082,-0.08760629715097672,0.16893151379736324,0.3863583815461168,-0.3849608214394503,-0.29411148791352737,0.1258064261316616,-29.780740132329846,0.301076460354556
,0.06529599128207644,3.8286987100189043,0.30151786670620534,0.29295987030466225,-0.16146184601191474,-0.24336938015635348,-0.009205562753113936,0.005614527289615105,-0.01570713441102913,-0.10082808783686352,-0.6428729070423619,0.31137674499331336,-24.254775000637494,0.02790214938571133
,0.27934253003802534,2.4015544799733766,-0.08327374395763905,-0.20199703159887322,-0.036232527448938324,0.07029415193588319,-0.383164557399189,-0.06624259178317354,-0.44409181376535717,0.2697381985176213,-0.3082616556637173,0.22464687310373171,-6.523379436797773,-0.4759854287336944
,0.27234193871779816,-2.807228807883881,-0.44516534580024947,-0.2944287188705869,-0.19499614326312165,0.11672424750853287,-0.5056065826935859,-0.23263277767568577,-0.5683104738010559,-0.17666684141333133,0.03542540309157613,0.07782714969816984,-5.901898933910137,-0.34934879494536014
,-0.011873163299236936,-4.379750516598534,-0.2715267160587123,-0.1693568288238647,-0.05841711379201482,0.3771733595098814,-0.3690029482681891,0.18076437785119592,-0.1414959047613588,-0.15931759013782015,0.07948414846987592,-0.02961111901263306,-9.673370468285183,-0.06248594290611454
,-0.10556993466870278,-2.046985978251211,-0.10154362552440155,0.31185920493059893,-0.14854159685741952,0.4097014028408747,0.16386968360461993,0.3825202515639861,0.037354351348320686,-0.1655416170459654,-0.05150235671558365,-0.3056380163562166,-12.91016298710647,-0.272743111604059
,0.15141822776656086,1.4234671117178024,-0.08855310071809616,0.538875254058954,-0.16935119060330128,0.8066302656488835,0.7348105967649916,-0.0637408161441341,-0.22206262035061045,-0.05750665297220175,0.30316324798476674,-0.3524265227919554,-11.901533553427502,-0.09679851233001663
,0.14699294247972347,-1.2302329843834663,0.025738046690140362,-0.3027754973681945,-0.18519117459001028,-0.1470241871612159,0.37179802737693485,-0.23676551150601766,-0.4975140887624851,-0.20286224388030666,0.3311660930968564,-0.37486268787652677,-14.221276229158708,-0.42447520862720683
,0.19329112029959958,-0.23646129561373763,-0.2062974121264675,-0.2264806367078287,0.056217419622105205,-0.08366709811079143,0.17025227357445397,-0.04997514662006925,-0.08160195206624372,0.10723367333077873,-0.13220202151308835,-0.250605036354922,-9.94797696641837,-0.18481380602959202
,0.492507962003899,1.1835838928377087,-0.39577531892465956,-0.06379802428401403,-0.17126074984298542,0.9664347000448869,-0.036161819292108134,-0.6140856985052017,-0.41694771988093643,-0.16946734001860167,0.14122257639954314,0.14891975066218127,-14.75391927358897,0.07428178312311373
,0.4108061407940176,1.16075216628321,-0.14236613574004076,0.07421171993551491,-0.14302004317923903,1.1573581497454848,-0.2360373698215523,-0.45249669524543296,-0.51434200356832,-0.40168869620639064,0.42867069068030883,0.21821497322202793,-16.29744017470586,0.24604685914395866
,-0.16674021429319583,3.830048627859514,0.08204580342038761,0.6089730309076292,0.1696288092993054,0.8744348859364467,-0.03558868305645164,0.2672239030081442,-0.14315914085722464,0.24352520193652785,0.7854011696623221,0.022757553297766984,4.309727343736606,0.1760031659017129
,-0.8011989704320768,3.88928162693375,-0.22601825306029877,0.6758277245949474,0.08021192595485697,0.1421488419386315,-0.2607980349866099,-0.8753269918780084,-0.19130493747046345,-0.02140776162266728,0.7373909797257868,-0.2149123993736003,2.4788194578089353,0.24037737406865275
,-0.06531422100690606,0.26066618759452814,-0.26952318504388356,0.165169998261002,-0.14716082833292032,-0.2981408951635232,-0.1904781537352542,-2.2281252192359555,0.1390255856286756,-0.09638047349177888,0.34261433878518643,-0.9786333627496483,-14.882689917047063,0.140201972817163
,0.22747055345626,2.0764885126517005,-0.35338787982919534,-0.33282738788506394,-0.054847653612464804,-0.4567926769554854,-0.7992758326938936,-1.8819267132673902,0.17441022751477447,0.06527182749553877,-0.09446500283568728,-0.8385470008795092,-18.174435653923652,0.1450262525998586
,-0.35920334471791926,2.6288318224444103,-0.13518089019583043,0.2598103185940327,0.17030330563043658,0.3622715316613733,-0.5648574076848986,-0.34387504153718357,0.23566181554564097,0.5656752905916925,-0.3281521117672662,-0.24098634461480964,-20.698556112557938,0.5287339349669173
,0.27837576679809145,-1.1041321655969942,0.2556315482675072,0.5888908729875492,0.28980020725429284,1.5977633956292616,-0.00399260034813703,-0.04126895843068141,0.29589020461983523,0.9176171025365454,0.02531336833477024,0.053982900096881815,-1.5851732276133015,0.4086298102385019
,1.5189421809896884,0.5349416779725609,0.14643204095106013,0.4767835697947588,-0.05394954966592948,0.14694021323004647,-0.3243007975820047,0.010162887102156582,-0.1929842986741295,0.03459947291887683,-0.2863175416124815,-0.2092816508908645,16.81169400978862,0.0042726061043530635
,0.5100452758930312,2.1402053878486678,-0.03234641076003072,-0.38123402475124324,-0.15885214175956644,-0.48664834839862964,-0.4842921570661266,0.032891316488174525,-0.2823619678823104,-0.23397400547993227,-1.6877528479209867,-0.08729220862919589,4.554686148751844,-0.3106112319488838
,0.06538153184436223,0.6634403452395936,0.17190935303595686,-0.6518964262343013,0.14064168532925647,0.16433444389261054,0.12531470967141004,0.06004815566123938,-0.2387781980896105,-0.3311880436805836,-1.4837336154812064,0.2485655491224464,-11.374029962489493,-0.22116247087941418
,-0.3018364230154357,2.1792982779212533,-0.04944683115454693,0.0063731705386975614,-0.20842309633149228,0.36842083290431754,-0.09479510964883589,-0.15659184772553886,-0.5861814633185676,-0.43180678315312127,-0.05878896580157665,-0.1064920267565216,-7.828515234989761,-0.15826917036297822
,-0.3288247874023572,-1.1622164232525172,-0.12854492021550465,0.1415099969814419,-0.18797170404331157,0.4785403835451107,-0.00843764774197327,-0.24052793345672466,-0.5862347201193108,-0.34898852065476743,-0.26327123168097677,-0.22745622614869554,-11.585658687859048,-0.2867992447027497
,-0.18881874231497567,-4.408257189054616,-0.10218777256673531,-0.10965140236571119,0.31005151166513834,0.6144820201921974,0.66687539782474,0.10368343076217129,-0.08439156842542653,-0.41972791060124665,0.5852411314223838,0.03129701411209501,-32.05580725595679,-0.09844703136020383
,-0.3537802462154623,-0.12520942593069093,0.009956001665079527,-0.21315016998227523,0.024152207325458266,0.8295133975375345,0.38014871922895527,-0.5638053879135461,0.1317413676743439,-0.35779026478011555,0.7379241478348062,0.003616813986325437,-30.289937792637694,0.055503766186869787
,-0.054199053587678146,-2.1764303937964313,-0.2494056251379993,-0.5075354639975098,-0.21228290251440943,1.6892875265612584,0.09543999757351254,-0.4283357461440078,-0.17463784594483636,0.03754361306230896,1.002772602914494,-0.12656524083899748,-15.976368927100186,-0.07978882787315433
,0.2664597993882747,-4.135710539193598,-0.15986308320683676,-0.40062453139253457,-0.3859570409024688,0.9499302631682661,-0.155601823827472,-0.13262376659657918,-0.2562200111116638,-0.12194378267759132,0.8894198906417805,-0.13320045021133925,-12.269360345975807,0.43533148832378643
,-0.31280701529331695,-1.7926961058356263,-0.07742817474419691,-0.133078087825674,-0.018348844608669753,0.8813755208098673,0.3169177867005712,-0.2727501614365496,-0.2598443166904725,0.044646263136360054,0.009774328697390306,0.13517192953338975,-1.844850834673479,0.5249582629961494
,-0.702550795014569,-4.03306116625739,-0.08228984797845529,-0.5250979775134441,0.3202735199231909,1.3251595846583435,0.38304834658111286,-0.47318035584925494,-0.20808246292403146,0.1385459512085895,-0.12712179520834269,0.11362032617131629,-25.27282678874367,0.5046404086051776
E2,-0.401825021496481,-2.2039517380330773,-0.2005470644701584,-0.32202747524611863,0.012898796041656972,0.201950088019856,-0.2605638727913242,0.3082410424835074,0.13464390505602186,0.3558960584192406,-0.04143797645191664,-0.17262175784451605,-32.623264913969166,-0.04424266237023583
,-0.18474164368743226,1.2117337948559321,-0.3394206303666877,-0.4485058807444398,-0.1281560022100163,0.01796796589560948,-0.3842808746903842,0.3331192791019587,0.12418076400901332,0.5071754185307803,0.20126765306172767,-0.1429822229381021,-12.716517519312468,0.06461081072159995
,0.1975511139830976,0.9370765119287007,-0.25809501059660467,-0.32846650289450396,-0.33935830361220315,0.36427684434907076,-0.3368532763050435,0.251319591906579,-0.1406741569380855,0.054329306041578436,0.6959969462733194,-0.11600243880880161,-20.688982406169984,-0.07578499697156493
,-0.035651337513185666,-0.7961965264603966,-0.2424766112121741,-0.7422854541806296,-0.8619935420408592,0.34689211592548364,-0.14795810559323996,-0.1460034856624281,-0.1740142678266233,-0.3938812447399112,0.7410602729253757,-0.07491935196384782,-24.178465126993824,-0.024121601002009146
,0.025780800835265894,-5.537860456269631,0.03834726383808183,-0.5326225439706956,-0.436721374959088,0.3190462003624597,-0.0710943820940674,-0.6319498250882296,0.08388795478168655,-0.09487415876185978,-0.05555714222417595,0.05083432721310647,-19.04212803889174,-0.22407306989195544
,-0.35284173116095063,-4.659520772651301,-0.04851617330144075,-0.4435535589006996,0.27649667449742343,0.4602408009090106,-0.14907947798106,-0.372081307862703,0.10043388369086408,0.1911032113681632,-0.41110002212736996,0.05969198496654823,-25.38659417195089,-0.2799063580024794
,-1.2328003012564195,-5.897694818184415,-0.24444409043902623,-0.8071709600408044,-0.4376806102124474,0.8946626817480944,-0.38515711809157677,-0.04952029928660921,0.029968194133795627,0.029495631730532372,-0.29462398722991234,-0.09548981038423662,-37.29955377906542,-0.41919686117444
,-1.1686104990841661,-6.480955124101616,-0.4159011611134764,-0.6781432845418195,-0.6357750838121053,0.536486393174333,-0.4926830828248039,0.02633838158233579,-0.24354917988683158,-0.39929222525539726,-0.47115184325893195,-0.3190390185823708,-28.203643588405413,-0.5840047892296425
,-0.5919781073328635,-5.225191991459632,-0.597200178750936,-0.7628343554237924,-0.1703871774511093,0.4119593057179169,-0.4941970197287828,0.4348218075953886,-0.22377808871439114,-0.13515472478536003,-0.5817331019135241,-0.2974988272387408,-16.121502773802803,-0.4097006997087823
,-0.023338171136602123,-4.957427632797676,-0.45938932329135296,-0.5253876835846754,0.5154495133326531,-0.006583580749304629,-0.2485990962746284,0.03032706566861621,0.019462613537635003,-0.24719930592860492,0.3001640454251474,-0.21944414254553685,-11.49653098138564,0.019325602816335274
,0.2190505256473836,-6.027319426216757,-0.5702458205171547,-0.6115266674626928,0.38754144037232235,0.2823134407478231,0.1371783910900865,0.12008812725771746,0.06948675738097869,-0.23198485444705735,-0.2534587332883851,-0.3735723180449795,-24.65084064705158,-0.05286595292112185
,-0.25701342651721937,-7.827516420470034,-0.39896028066609285,-0.42612622382972626,-0.15810148702510124,0.46085746690728546,0.40922708049106354,-0.2259080286493863,-0.13884730355593136,0.0011307301597665057,-0.8639224468984135,-0.3800358984733202,-36.13632332816348,-0.511648592641594
,-0.2467523824616019,-8.508375389542042,0.07525649489950004,-0.5028401491726544,-0.6622599447473186,-0.3086083517372581,-0.31246925239551954,-0.5072192492692028,-0.12462357550186216,-0.2954337267775535,-0.8712027798279226,0.08248195000823416,-30.46161460882632,-0.5840112730443187
,0.2134219453367569,-14.683182949515245,-0.45975625752185745,-1.1646088109079684,-0.4834944745802264,-0.1650522587823552,-0.18975884112051838,0.18340168363226472,0.0381081009498135,-0.19192746552964363,-0.9270966601382967,-0.1838796304400963,-23.379040073102683,-0.050933206703834465
,0.5090750504143189,-12.869691336565898,-0.5011085520059909,-1.155432158145649,-0.026194899752974257,-0.023830370346258865,-0.008593554799876314,0.45714185728149714,-0.11223624544840458,-0.18764102403852626,-0.5424597219518316,-0.17392694052042074,-11.291978106906786,-0.10048952006224163
,1.1681878661473744,-3.538339346458596,-0.22821934444518582,-0.491068832995039,0.37581065170950717,-0.008084699513387328,-0.1804453207759812,0.20578417697515958,-0.00015982927099923686,0.3160402972043174,0.2829610968074172,0.3101368846883037,-20.807023663174306,0.05424326264947371
,1.0605516174629805,1.94791712659251,0.15234259346102427,-0.1752257104008264,-0.11905531108055405,-0.1843707422002385,-0.4004391781245707,-0.19862915698606184,-0.3920614331330634,0.524164237693247,0.24014247403843225,0.15201051894818737,-9.605625571289552,0.05105847775227951
,0.6175967685947128,4.091816858241255,0.1029959445424936,0.2192501773935613,-0.10676010489240532,0.2111148366636639,-0.5203839836811903,0.16040419092880095,-0.2977306865043845,0.15606534692568239,1.0717925306875289,-0.011523370020080947,7.921122815760717,0.251117649452085
,0.742435292681483,1.4516271962802019,-0.015088529784085779,-0.31300041323273475,-0.3019094792777975,-0.434412696132563,-0.9917757261875333,0.10392549854835537,-0.0341343905010687,-0.11901532347680828,-0.3159947283085773,-0.10483454902272497,0.756942707426078,-0.18001162684161232
,0.29461278987524153,-9.458329621146092,-0.3653893386204352,-0.9782540436337869,-0.6550179172623027,-1.142370027465356,-0.8367753210430949,-0.1362577264959411,0.0260990689006692,-0.13453161934066904,-1.0739583972092663,0.1856648619861481,-15.553621315044081,-0.4602220262922226
,-0.08180624928165801,-14.204854314399538,-0.28285526896693236,-1.1841836452958499,-0.7429257358876163,-1.0699308160538725,-0.8436330061999043,0.5023273691032035,-0.3021197817108536,-0.40042033012118355,-0.4477535774425289,0.3140398578521829,-31.583053346681076,-0.3350398903630293
,-0.204547201322868,-9.668161314099335,-0.06988392559302099,-0.8593632024836504,0.17043605549790644,0.5847525693957355,-0.4426601442859047,-0.25877274420467705,-0.49799189414577383,0.009426861768683252,1.1886618102672857,0.14574808723685928,-24.62360929624273,0.09315823020223359
,0.21467068381953783,-6.188358527055195,0.08754486231321472,-0.7675430854236857,-0.12616128215338,0.48333432695467643,-0.3912919930025821,-0.3497676902891944,-0.5382423196306028,0.30156057768172706,0.4781954710819793,-0.18192511084003882,-2.028265869300423,0.21691094994575982
,0.33444111491462253,-5.194883783824152,0.2871086014797069,-1.0343847064059737,0.06604474334411851,-0.10012750374103023,0.022754206415150902,0.17121216007962886,-0.4027310107322114,0.09774170160651398,0.03456756581220145,-0.09785114746045832,5.4559592551720915,0.30366056904304245
,0.1250411153029818,0.07935632585830099,-0.038046916407994645,-0.5086706173203712,0.03381393838488211,-0.2986208547476026,0.009631919939350775,0.2162567089088312,-0.23050533194883338,-0.327999588408385,0.10255539104158165,0.10310496214269008,-26.771576025636037,-0.16992633920865893
,0.20438633745160298,-1.8563387089388848,-0.08904933830713967,0.139371123870538,-0.38287603774398454,0.14115783084907402,-0.05017654056400517,-0.23581135732544123,-0.12577150779993285,-0.647639462118711,0.47745335027781044,-0.05751614491496267,-30.85740486135062,-0.049131990704394016
,0.18318971722777133,-5.658503310659647,-0.21553415136570314,-0.25000269710453604,-0.5365155329279951,0.004181789873045405,-0.0859045983848726,0.042946711772742174,0.1283441173631801,-0.5361008328754135,0.6022203434129505,-0.04906306088858425,-23.889854786949066,0.07715928728776268
,0.17759035748131172,-1.0050920891215318,-0.10741793633467958,-0.31861373406786336,-0.35368946363486764,0.11528456131339261,0.3949438803635052,-0.1912551096658888,0.10995489190443335,-0.06510455242674254,0.057190789854911155,0.06690022074522615,-6.656544741361178,-0.21274247132387017
,-0.1281655022624494,-1.687609028046442,0.0853263329872423,-0.0021028439053080274,-0.18556178343812357,0.2657730020389037,-0.05376303922749574,-0.26116588938505536,0.09477692991326175,0.09992627780600617,-0.05139060156898891,-0.06280180627327173,5.058729055729794,-0.17299158945821239
,0.24350464115049564,-3.0405455804639563,0.16494557225968248,-0.02089624471157504,-0.2561094477291987,0.0037957698813260925,-0.05507129914289752,-0.04746730992057353,0.08455878890483827,-0.02902726630712473,-0.2865690551421107,-0.04205086486019839,5.754139056053806,0.1719851852785952
,-0.22650922091353784,-3.1106440696628312,-0.10284684054681995,-0.6040320670334226,0.017461477769717147,-0.040003062768137566,0.4738730357989732,0.18098927375006327,-0.004786219212824633,-0.20288497275627365,-0.07034429712109404,0.1303554998589172,12.456502493369879,0.2408373962853854
,-0.26880820950272083,-4.513540240232466,-0.2681011784789463,-0.45285953094644005,0.1233996380792565,-0.2403858470477008,0.2229177302963531,0.47741532460412117,-0.34530301439101263,-0.18873949595646822,0.9076471480156406,-0.18749609987277396,4.435968982239115,0.4189375780895973
,-0.39253681440705335,-4.628663993164915,-0.30218748355159786,-0.3447386441700697,-0.7487321098853622,-0.00837795799365853,0.08105544177381699,-0.021587241593543274,-0.28782719077615676,-0.1825220070126897,0.06455740225144997,-0.22649827889847315,-10.665293242509456,0.12615858131335184
,-0.32897944219630104,-6.106503686348405,-0.33294037538836857,-0.5093828725423758,-0.7455083189536635,-0.5085640588228957,-0.04274150018838951,-0.3604051850168658,-0.1697704358641086,-0.5726821610650568,-0.9788451640514304,-0.251774719534807,-12.46342733277989,0.15779086294150937
,-0.3226610992748592,-8.591233638892998,-0.07140692125051043,-0.37557652853954365,-0.2692975587461443,-0.3399686172376113,0.10831523658101969,-0.0891536864337606,-0.3129101776127241,-0.4515750742170819,-0.48460780843011825,-0.30683175854787276,-6.965760792676357,0.3852799182830017
,-0.5068840862561226,-10.164608722867076,-0.13125794539650487,-0.37745174808788284,0.03053981951868057,0.8048428387154745,0.29057710914185153,0.23995261503154122,-0.429272510753592,-0.20318771444135889,-0.17427209481480088,-0.16939077934194807,0.3891937611530848,0.10119624416946818
,0.1358124074150873,-8.646492861327532,-0.1656793502662948,-0.4163897809668838,-0.38935804722516826,0.11598748175256707,0.17872196704135945,-0.08647887246088545,-0.362692895180038,-0.3053515107911052,0.08835078926059803,0.19299576797455698,21.02913715727605,0.35188230992270975
,0.08646638263362749,-4.873021233410577,-0.05152797914697744,-0.7685221466685872,-0.3020134193307732,-0.29115505379762485,-0.17894264421977496,-0.360527531147516,-0.6805186389510459,-0.4354290834771089,-0.15892377065710808,0.24700754012278708,4.637724338624271,0.2753856707363979
,-0.09812110243691395,-1.1817210555523994,-0.1854284203352083,-0.8756592734595643,-0.4997964106164855,-0.5643725892019645,0.05344153439790976,-0.1643133525323691,-0.6382072867774755,-0.2724050746533138,-0.5179762864947901,0.2333586301288495,-9.66337300176244,0.21093235875733454
,-0.2334928994320618,-6.625848298138212,-0.2676054620133089,-1.1114926992629297,-0.9564412228713026,-0.35323222568888546,0.08318474775586415,-0.3682085141979829,-0.3759229729039949,-0.3101100286421876,-0.9343007170997448,0.18044264337205862,-33.71498376564179,-0.17942662397563486
,-0.8510178197496373,-12.083489589096098,-0.18666662365859116,-1.807136659259084,-0.910684654469697,-0.226123227810776,-0.05712276387361973,-0.21992158513261983,-0.25523107300425757,-0.16669927686476468,-1.1096306573749206,-0.3767695661240556,-49.209954697942386,-0.7602104071455708
,-0.9025163501247001,-6.827677481531295,-0.02652159989994839,-2.487270307573991,-0.8228666463863089,-0.528570538730432,-0.4206257320485498,-0.1503113282734579,-0.12809727530047205,-0.29491475418053,-1.3587832543231373,-0.3776720365893884,-51.07214085818792,-0.7482895101406368
,-0.019219692503763586,-3.8069189835633326,-0.1164470836331382,-2.0541043959904863,-0.6842184305205464,-0.4456328969088701,-0.3975743214382655,-0.4493455809790527,-0.24408552241323597,-0.21730819702122184,-0.7245179367615229,-0.35525699978191017,-7.66858954992751,-0.5865913183807908
,-0.08053873248136804,-6.555322258746949,-0.13189410005825064,-0.7734051576329549,-0.3418372715801056,-0.0703891728571799,-0.0702586783087852,-0.1582171035899644,-0.19130137889611598,0.40500014764164977,-0.1294037760544479,-0.27596965917537153,-5.860396822108092,-0.432703855737377
,-0.5197159816163873,-6.091051904660778,-0.09436119758112674,-0.6737827899257144,-0.09336205247742324,-0.031003405992236423,-0.05626123933540499,-0.19188722609619957,-0.2987917724589294,-0.3332488272376586,0.04279532468935818,-0.2052398840599334,-12.309291064932422,-0.3618017549569144
,-0.5598657040731918,-7.54941413193972,-0.1843125574385109,-0.3922898747382168,0.2600927346448531,0.6371018159550362,-0.1889142854125942,0.07789004897909939,-0.39879371741319714,-0.5907879124326164,-0.07085214557368276,-0.25426429758627256,-43.20473188738523,-0.44481904065449357
