event,eeg.af3,eeg.f7,eeg.f3,eeg.fc5,eeg.t7,eeg.p7,eeg.o1,eeg.o2,eeg.p8,eeg.t8,eeg.fc6,eeg.f4,eeg.f8,eeg.af4
,-0.159362784018552,0.8123531902455502,0.3588292281657775,-0.3099918300560347,-0.06072140838337195,-0.009983417627413008,0.32865220993558963,-0.06793282428713948,-0.20108646793850074,-0.32317743428492646,-0.017247854873260814,-0.19969887984269202,-2.819482258909034,-0.06674980766242482
,-0.15189703078291564,0.14868254633540504,-0.1746273834283332,-0.4939709284030106,0.2152577712865189,-0.07145822957253438,0.2969928540652002,-0.6679082692887458,-0.1967985895932339,0.15945691981802856,0.8030570793067918,0.12486233291055761,-2.817651501100761,0.053306334064599344
,0.4018099695968003,-2.186185643388938,-0.13332343954679443,-0.09665516173534969,0.37599625612886556,0.500527891889887,-0.06676828426088409,-0.5710131223057776,0.11603211538401428,0.3896682829953543,0.6301812584457872,0.07318052350403172,-3.774820838196654,0.9827635528276487
,-0.06619126339208989,-3.1215663176644335,0.354470244130573,-0.5461412378116607,-0.2610707385489224,0.23516679336082646,0.0704455721790875,-0.4581877712731332,-0.05454393180244061,0.14774745637263637,-0.16817280124420553,-0.19424568684413007,-3.349374689687634,0.4277066947471888
,-0.4000237008042103,-0.7576366398609811,0.03119127143206918,-0.24743693193107136,-0.8272346662951267,-0.020078521891104942,-0.10391406549868365,-0.38907796822066243,-0.2420567564474043,0.005098201333077267,-0.6783068690195452,-0.034925714043817835,-1.307084312626744,0.6187760269683243
,0.3352000852064203,-3.8789900176611387,-0.08435354673562596,-0.10113133272216378,-0.3509037585754769,0.5448741427420536,-0.22839633662363135,0.48799271562025603,0.12301539673931922,-0.17103630780603044,-0.088045848627191,-0.11907209085373364,1.3170387364379763,0.8315972689772076
,0.056779193480214624,-3.721371752201977,0.02383321131183493,-0.35911882275136336,-0.6334759388286921,0.4244806266443309,-0.3590289470348881,0.7383126430708032,-0.006588704302750897,0.49852800858439766,0.5111385217239819,-0.23486187601289735,0.3871044083465668,-0.027558950196116812
,-0.11316209115894932,-4.88663610501777,0.24151204089061654,0.18335036726677562,-0.8550383607783761,0.18673796019901714,-0.23017060867410638,0.4089920720922547,-0.20769936737156286,0.33589562288460867,0.06099270881469198,-0.3028372842926755,-2.3506356990384205,-0.36186894924875873
,-0.3958864101880384,-1.9787089967724496,-0.3208005817688263,-0.11998500007420382,0.05125686927385234,0.605310735582961,0.13354597090105902,0.15799843937378955,-0.07815368777186271,-0.21241300695140325,-0.15852233691628045,-0.6645642221905405,-0.7509611490199585,0.01121952415039923
,-0.8947388266315188,2.296982290365797,-0.5124580022215582,-0.6007906823246689,0.2723370863935239,0.6709462444985524,0.15373843960947473,-0.11891308492715853,-0.14680927095418,-0.022352431559707054,-0.14457164679681528,-0.8403660054711433,-1.3609872840887733,0.12184417324610128
,0.12663490181316792,4.582960432494721,-0.2195555850863249,0.04807657357679895,0.5059117141781448,0.3742017163724722,-0.21106842684925614,0.18606674731572637,-0.252893575727547,0.07629864969798054,-1.9930936693558234,-0.40400492329776927,-3.0087796828054962,1.0686898937227542
,0.7382468170081594,4.195991367582037,0.2625139600550233,0.027287480507909797,0.4361119494548318,0.0824245914845669,-0.14104457743767027,0.6954700220561766,0.06722346531139316,-0.294818749228479,-1.596403943063015,-0.19314317176681414,-1.8366144933053123,0.8951768266887399
,0.7154979837581216,-1.807482187061871,0.23128148813985167,-0.27471545850387835,0.02676097439752763,0.18733528502222493,0.620029611060046,0.2790294520225348,0.49367385239653616,-0.03722578462960388,0.6623192250738826,-0.1031106110267847,-0.5692937622139677,1.1097666476286008
,0.4703670414171016,-3.644742917490873,0.26532984926413683,-0.3126275950162278,0.01736440256225432,0.009413864853663592,0.6474300409585744,0.4441180809440791,-0.04722993752555586,-0.41207737561750957,1.0279282495040611,0.01548137548102942,-1.4849420143187402,1.2370041401633896
,1.0005415359160008,-1.2565696697215174,0.23642660357859427,-0.14822541790041155,-0.46435416759453163,-0.2553784092053817,0.1033993206645781,0.12678033680927242,-0.22060692319422767,-0.1996131853251881,0.12536193371408286,-0.11244999392469096,-4.138659472883835,0.29083124101777896
,1.1238809322560352,-0.2799708117644067,0.4692154530011279,-0.20540803673400326,-0.3672007021598766,-0.183855049191173,-0.07911765279221969,0.4305142117969632,0.08986067532459889,0.45166994426378104,0.19948762482115912,-0.18783718489456258,-2.5180296219646627,0.8110765462733693
,0.5814227454364254,3.9191394710372274,0.513382798796376,-0.06030416434133942,0.11694790834990222,-0.30082501181695387,-0.05807999364373296,0.5698231329916235,0.644947415387285,0.5761861838358088,0.8184213991362417,0.05677486712274376,-3.248992680494367,1.0895595810259011
,0.7701611973170602,4.986652514120506,0.16890244658805142,0.05157158961951523,0.020812039788072008,0.20588827152936706,0.13659505498881197,-0.03828628802444489,0.21527873563107972,0.17209059518338435,1.1706078659011905,0.08866288830831999,-4.24069483782492,0.6495087753576472
,0.9641575227797189,-0.07768972182694274,0.2671390313408102,-0.007601040924632735,0.21436018701387655,1.4045937465086498,0.08585822831355529,-0.19072240983823696,-0.27956965353596536,0.015066202652191616,1.0711548521178276,0.18381474100822667,-2.076333512189447,1.2072307039352483
,0.7709501570724301,-2.9004597682388633,0.1626948367338014,-0.12854944383575037,-0.30531995287050984,1.0451049476691474,0.694176388569591,0.04770603390508367,-0.02681775387986311,0.3560616583669741,-0.8349168751217066,0.2265613020832287,-0.2447071984131054,1.57705763564946
,1.300940448800921,1.5043655071766588,0.1652124862558662,0.04611098741570654,-0.052421956636577435,0.5090368567715694,0.7376752352684486,0.09257930653156472,-0.2579170947275104,-0.07062789745853394,-1.8565286629095663,0.48813206435650663,-1.233785960801672,2.0331239299791215
,1.1256278972840852,-0.323784975783641,0.22972271059443583,-0.037994135711399445,-0.43411303313711835,0.1305499418697885,0.169680204084527,-0.054280625598232005,-0.4849940503946476,0.21559602111431125,-0.6876675127787873,0.17714710027573904,-0.8254661290822717,0.7724481312599604
,0.6455097904881282,-4.666536436920274,0.20830916170223446,-0.15475265785215636,-0.7141976184336739,-0.09589339362390642,-0.05272410355119663,-0.7125592786033239,-0.36917242723383153,0.6941667467489825,-0.0460827512158016,-0.0987389901474798,0.29310694575594676,0.3852706134032881
,-0.024940596217078483,-7.682420508446351,0.17135137355561322,-0.6388292018691953,-1.0511439076655151,-0.47382053056776074,-0.6089491091433897,-0.9446612328713627,-0.37504401324667375,-0.44710160482925626,0.2256305182402627,0.014036055795093306,1.7792173596452907,0.07626718324658106
,-0.9278923117527405,-9.789605065077911,0.26658526884910005,-1.0100067831947193,-0.9352658113728876,-0.6202238536970908,-0.43895230759333703,-0.6049883553867329,-0.7504360207390053,-1.1482130066186422,-0.7810307595432034,-0.2970315905474147,-0.3208096214519048,-0.24198646881244523
,-0.6798761500965954,-7.255272124184502,-0.26937349439081104,-0.9062464963863919,-0.5093241964827224,-0.1979518387458707,-0.010913992024500852,0.00012619236504380794,0.1255225114677933,-0.5985762597489287,-0.6732044289907352,-0.30944331497398353,-2.6940548389484067,-0.12698667321609736
,-0.5575617841790429,-6.109062983104401,-0.443534700104062,-0.9991208415227679,-0.6367562198326598,-0.27263504540303624,-0.6092348810010824,-0.5922534388763542,-0.2237488917428549,-0.244617184811175,-0.9102380428511825,-0.3030686928383924,1.0493376290462648,-0.01648982171804932
,-0.2229609137974088,-7.92028612702792,-0.0773011364441544,-0.9964019280747297,-0.8827296929746765,-0.40796507521669634,-0.7610724362512088,-1.1761341163793073,-1.0009115391049674,-0.7661393149897715,-0.8818230135656571,-0.05357772850579857,3.542635494170075,0.37730600546980775
,0.6335089678149839,-8.100335827363152,0.025679792827779387,-0.49257014539981536,-0.3297838706581604,-0.05989831868526881,-0.5177990109803425,-0.3534064257783291,-0.41654470995013493,-0.28708613503981445,-0.4121784680212444,0.4597097520309825,3.8634177152438087,1.650642119749491
,0.5884454554318941,-8.602471842054067,-0.049269028986415296,-0.5878654131989441,-0.1357912614901451,0.80393912940105,-0.2266892708827738,-0.10288385987361338,0.16985360556090967,-0.013481456085500065,0.2460420142427903,0.1191580508384639,4.090192337367541,1.6083411193251362
,-0.24621882862315786,-5.899578259727012,0.288909197651293,0.1512044625819939,0.21006189563916552,0.7456971824101358,-0.12238136525295476,0.15950620037824964,0.2480353978801517,0.4284082907951423,0.5361021350638712,0.00027311115646918915,2.194552498489703,0.8846377845722225
,-0.0780438825528377,-3.7841440038792875,0.23205512907415007,0.2555072333917122,0.14236697769516207,0.21848381935726952,-0.1614424262059589,0.15556738426299382,0.25240790002812713,0.5699593861880382,-0.09429294621115408,0.030248877911756136,0.7800851376508021,0.8083610006439443
,0.46862914907873887,-6.409433358594819,0.2626173867723738,-0.13565308228263112,-0.4185290950559625,-0.010961199422277284,-0.3777269386446718,0.2556750913282961,0.2738300824483321,0.6098286833734449,0.026251232442260387,-0.0923490083671757,-0.6154822219377074,0.304831222428306
,0.2454961358679532,-4.835265975564325,0.40801518505902284,-0.3099213430434728,-0.3941451986545453,-0.12200456839184491,-0.10018339574540042,0.9151041709002553,-0.175685835924233,0.7316741436498314,0.635413343196241,-0.29255296103370426,1.0292327552517206,0.05733518738297801
,-0.14796659920506086,-2.197319934041101,0.19290013922093674,-0.41214991114196065,0.0007000179054165029,0.04415331087837515,0.018138210726821754,0.49213335650941553,-0.057987644681593085,0.8185424830139924,0.9002939138681008,0.17620668206303536,-0.31394556242990956,0.5682887636120989
,-0.2426090295131802,-6.117626606406044,0.016541594930108122,-0.9719797511615487,0.7452692792335751,0.08276920300978746,-0.22647228500169644,-0.020245961235988128,0.20222766824332328,0.6275160106410829,0.5322260908921916,0.11204965424325339,-1.4622447114993213,0.7055441350243882
,-0.7422266595125347,-5.353062287329661,0.17005168203077822,-0.5899597705034664,-0.445922644434765,-0.4311541105909508,-0.27822405647660087,0.14638063152397549,-0.03487847126888817,-0.3831400320157359,0.06613041291535919,0.10168064333809292,1.3614410376394923,0.5410541971338129
,0.08299509849204655,-5.946898704083409,0.5242261313454599,-0.6543327369492246,-0.620776099284009,-0.3466803103571492,-0.37756488023274043,-0.10510565170815739,-0.07135703734747852,-0.7600083017944509,0.21039592361346468,-0.06880030484688729,0.6571188850000262,0.9685017418548877
,0.5101379559935747,-3.0175050810835704,-0.07229082332348594,-0.5697143172020167,0.21993634463910444,0.08005194824083249,0.04765270035818806,0.1930532256670603,0.5164708355774639,-0.5256183874329686,0.2718774662969925,-0.19752791693024216,-2.010167440769963,0.43944066437071977
,0.2427600331438735,0.3586779976748476,-0.28345854998304953,-0.48639812101452556,0.2747452022431591,0.0913819751198195,-0.06940447834127501,0.07311312792710435,0.21372478063845057,-0.36107919744835754,-0.07054910475096854,-0.2597583328349819,-0.3437908444874473,0.7215128243591442
,-0.14130968373705166,-4.762374277728517,-0.3711580969317819,-0.11194778347819523,-0.19989005516521494,-0.2468118187419075,-0.20246595194256536,-0.31774464988862233,-0.14679584900505407,0.1400655959114849,0.37177407937510315,-0.11016960301983678,2.1400448560988465,0.5936413602717068
,-0.10156777397992515,-8.661708509072007,-0.09806423627067548,-0.1440938408667871,-0.10960139120607072,-0.024483410014995863,0.09878022108303776,-0.27420774393018627,0.4274517050202773,0.5261605599398927,1.0020444489227545,0.2737764744247687,2.27467749432353,0.6540308762700248
,0.45631715368731113,-5.652182602935614,-0.10506408286913183,0.3328059297419587,-0.29345627859283446,0.26141114500715484,0.2123240103628865,0.2927895112189663,0.11662320652193882,0.4590954349204059,0.5543717501767917,0.1901832691503882,1.035486139422774,1.1293150664308866
,-0.2954352680266083,-7.152289120094718,-0.08243814465331376,-0.04896423273685012,-0.47379155042291765,0.22092909739987382,-0.3740189509021558,0.13195822464745793,0.04215194488245225,-0.2249312583281592,0.24004233347999687,-0.13056560385196853,1.0712000528639714,0.8192914525608151
,-0.3272931749082983,-8.187444790131055,-0.019531534916318597,-0.07647607709616813,-0.3651228997278441,-0.3558696778509064,-0.26313155038595154,-0.23101104069814815,-0.19572894820415998,-0.2902830041053701,-0.5158537807515491,-0.14329684519140742,2.5886781519730486,0.9951132784342499
,-0.35714667317243765,-5.96474007850316,-0.37853550744375697,0.12766231111445653,-0.17759502917770692,-0.30801607305810624,-0.15587165850562204,-0.15179906922982017,-0.691218397747148,-0.3360404256501394,-0.30211647660637175,-0.25304235190911456,2.4592154350092787,1.0027888017040862
,-0.294338372646899,-6.440894179525769,-0.2847873656501212,-0.5153345347958415,0.1260649683695197,-0.4891996290276619,-0.4748441596263144,-0.24750642357353708,-0.7968620368854398,-0.6519333729801721,-1.1683823675286384,-0.44345093575975525,2.7317357169915804,0.052401639032867306
,-0.21431567827234146,-3.4938867063268306,-0.21818982848739368,-0.5863290442595741,-0.2779329099324764,-0.174488246303017,-0.1530408422498154,0.15339019350557517,-0.3827219538005418,-0.5435805985294901,-0.8286067952699037,-0.2738390835694904,3.455849606109607,0.4463495253086197
,-0.09589918365821956,-3.621953561329482,0.23916509652034468,-0.6324447420841817,-0.8913898683293366,1.0276656572932257,-0.5056112782367693,-0.181683495548744,-0.915819363968309,-0.30890326277784086,0.17054772264913018,0.18376122644154866,-0.05018137013229734,1.065986163209303
,0.1884979339358244,-4.9947443849335755,0.11066753098773588,-0.8582630931291142,-0.43686907714023865,0.8054635079258988,-0.6480501776471872,-0.15092477149416414,-0.8819016444737828,0.062184709270675334,0.6535777874729157,0.196731388183478,-0.054543932863123035,1.3569568720071474
,0.815331061647981,-3.251450419052188,0.35363915382635386,-0.11931563052455386,0.07184979645360477,0.17105759901608603,-0.4987992509223327,0.2656817217718971,-0.12981795116521047,0.1731807718402564,0.702490887241073,0.29194661245203096,-2.357628907945351,0.5477319553891125
,0.06003118789184221,-4.331010196122926,0.006756047344754051,-0.40370260021817356,0.07773944440848118,-0.16950505922502937,-0.35422900754509457,0.07434736543868105,0.3745531112028969,0.09336239316443498,0.5023988763197892,0.4261580453338931,-3.5204759208666867,0.4543581669048372
,-0.362388518720177,-6.851258941337054,-0.01816917246460868,-0.4458930776924123,-0.09606903291526209,-0.03484798719001746,-0.6565026368891382,0.07789879081538394,0.28209540300810665,-0.09336846443443707,0.05779541746406622,0.16232310300931385,-1.1302372942240428,0.44463192825566045
,0.1791780139857623,-6.516149277694163,0.22503347645209698,-0.2818824726012855,-0.16958991433651724,0.13903779733948096,-0.34614232401499617,1.0003597441386738,-0.33050141037083103,-0.39264012926861563,1.1639749442134237,0.27848987830177696,-2.356078785277436,1.7838877531325334
,-0.48701447019792676,-3.556436662621887,-0.030637882883310267,0.09728869961196,-0.21244878583825152,-0.572498856845921,-0.36422529921110774,0.23940909156109474,-0.6472182015707403,-0.6241061391417766,1.2103381915175733,0.024858321273832272,0.7473921698566816,0.5261890700224111
,-0.8219369804094498,-1.0460646628519987,0.15831900848311922,0.055636584135777135,-0.1976919390569383,-0.35626264333289664,-0.561577775994293,-0.1736441615539654,-0.0571604503983694,0.17688909943413214,0.7171342374579972,0.017067751234093057,0.38622480166015993,0.06995186839471272
,-0.3371415149164982,-6.169449363617096,0.22481712865669273,-0.348463421334929,-0.04567921164999228,0.3135806799992381,-0.2654277923985525,0.26184887522727635,0.2640565094177702,0.031055623306206724,0.8187561238711678,0.00634564398026392,1.9196402827505494,0.7858250480772576
,-0.02497115526061196,-8.741817952574005,0.16923509689578398,-0.7021618025895731,-0.28625379689185576,0.603404710568559,0.30551693962553395,0.1711153595566871,-0.13738226553028557,-0.42493758489688166,-0.3443324381688057,0.021508093978216118,1.6360468942969906,1.297461403364514
,-0.2132118046010219,-8.32544281261042,0.24467741013343255,-0.6930300156702383,-0.6289425556244604,0.9437561922061624,0.046794391541596134,-0.32683949334187923,-0.5317227467574857,-0.8013226191782187,-0.8946312991936664,0.108831314892912,2.078321003931955,0.5328402973244343
,-0.6831171772992334,-6.1492076452910736,0.1933489248137095,-0.395531211612703,-0.2744157318124303,-0.18081324148360128,-0.10033871146329383,-0.27668574367941556,-0.09812589069192837,-0.5494740523844123,0.295152019519091,0.013028618394310345,1.1344836259570024,1.1009832755643254
,-0.1804175128484524,-7.218359637199396,0.313826982604087,-0.4131363536129259,0.34015378491924214,-0.5173077510061679,0.044730144525851875,0.3039447734617304,0.3089858686524142,-0.01904020145231581,0.16812956163152618,-0.053083574525888515,-0.9789570278225548,0.5388941094189462
,0.2244180395130326,-4.899327508586394,-0.03352608846712337,-0.87870976260685,-0.34595085366746986,-0.6419234746434924,0.25900662371099303,0.025919728973078274,0.3117710621277799,-0.22834043137398166,0.0775510326099099,-0.17975928889451093,0.7224320025187047,1.006853659628933
,0.6266573215542693,-5.370689313915578,-0.2010755982423357,-0.9168859176155848,-0.04745636068180863,0.07736258140685322,-1.3011640750076394,0.35695338254344483,-0.06089585300642588,0.06281800633201157,0.474357925660206,-0.02568721248070864,1.6425332059644149,1.2847953369141039
,0.11418391963944205,-4.9941292156529595,-0.0022957314037996925,-0.3074510684083337,0.2382211982484642,0.5212202389864712,-1.600552399394885,0.8951534691955179,-0.01870495581436635,0.4267949872805023,0.4801964768327973,-0.08321434408505765,-0.0997286246539057,1.1051690125199805
,0.26544020169906285,-5.440056378853006,0.4303777208471138,0.10205129213229511,0.0688632141571528,-0.00014279416967219135,-0.3284381438965431,0.26269271411348083,-0.028580682372551697,0.5213156186416363,0.15465581373009854,-0.028289532434779104,2.301545698644324,1.4241864369457902
,0.3554523061308247,-4.818669059551583,0.5147112975386097,0.23117522126565482,-0.42750490098464716,0.2013651080863214,0.537979500789579,-0.30423535140179686,-0.29254619443791785,0.3147349718818818,0.017840885453307486,0.4409943291405171,1.7057316575730421,0.9499925044166376
,-0.2534802251797637,-3.824018382658241,0.08794244957154965,0.44948697932496745,-0.1588176657711577,0.012240804233374092,0.07357002581751239,-0.11924818522854568,0.13665763857769397,0.69199906547554,0.3649111692828111,0.02948449989385671,-2.8983745192673447,0.7183489506990769
,-0.29699158778181367,-5.284142060282587,0.019214639447107586,-0.2516720076727163,-0.17594359194229425,-0.14751359523469684,-0.036192393552864396,0.0632084836723752,-0.19641483689319514,0.14286449006215884,-0.19279849999288962,-0.18123666973040856,-0.9291254150549724,0.4197134363427257
,0.7245593960455375,-1.4610595080345663,0.030285918017496114,-0.24951435422766935,-0.008859789602265902,0.25157761666390943,-0.9164574741134093,0.17049781483569984,-0.09747860775455879,0.2786653138690842,-0.1533788161591549,-0.04852772758052167,0.22864690725595938,0.823164587750698
,0.6954837204681077,0.3573577014224917,0.381982735263829,0.32802442581711994,0.18788024266909154,0.011121786441662632,-1.127665281761966,-0.1687421071551686,0.21858847212608254,0.22681816756087247,0.2582052848339,0.15401902480562216,3.7634669107979737,1.3133011869405269
,-0.24335495761246664,0.16122839216752244,0.565179635485515,0.14496005473740495,-0.09966578155269759,-0.5032241676836307,-0.24562545316664583,-0.25827273169471854,-0.08731066568205818,-0.08361834195601728,0.1217916369776543,-0.1420099355994483,4.6484878070492615,1.2801495982730444
,-0.2793041039013408,-3.236149344279327,0.4400672501381511,0.28799511556555846,0.500128158575234,-0.08248197480893046,0.03336812383367257,-0.21322234363426767,-0.23669351527063753,0.25486125637407214,-0.08648568241053649,-0.20329993615284922,2.373550183325895,0.7814627866474357
,-0.0946447415071681,-1.2416076105232012,0.5442447803125416,-0.08805736679746184,0.5439482190613492,0.04845188407959639,-0.5084965531108671,0.09978891675725196,0.08463119646821615,0.4196784740405158,0.19805439662072477,-0.21582834079857763,1.7789082496520667,0.8475008519001855
,0.05026946184981032,-2.1245140610251685,0.47139960908748485,-0.07428306646525175,-0.005972067167294662,0.11200538644178204,-0.5398434666122532,-0.009270153059046857,0.6492354241024729,0.397931287742482,0.09156801939461129,-0.14952129568716027,1.9023157381341576,0.5185681466808625
,0.5190199533257905,-1.2151431723873836,0.30376645765959576,0.4241425325009684,-0.16526626174771644,0.8246884931164554,-0.06084144990536187,0.6491529608436787,0.4145640363372281,0.38271250896536296,0.6717871131049907,0.14133713991191235,0.42787210330455044,0.7894843703115917
,0.18639366479094763,1.4165862496888892,0.13002636783228122,0.038907354912440725,-0.10860292327498226,0.4799878693983507,-0.20815951076071973,0.1347890333951853,0.3864245465634872,0.23555506772135681,0.7790797765419226,0.5595151546476902,-0.7631327229193924,0.8922499283114643
,0.2721335258812331,-1.5749733434439226,0.14519073266652682,-0.5316038068558915,-0.06692959198176802,-0.19296867256599992,-0.3072544654586611,0.15223071838927435,0.5446087588282075,-0.06083775328398141,0.4853367452720227,0.43397651858616115,-0.6924673811988418,0.8508126527944955
,-0.19157620522359556,-3.140236185481195,0.5564475581772828,-0.36325446921950205,0.3018623325780361,-0.19238425034956874,-0.5561628219157861,0.675228669735235,0.4262493708273838,0.001375535867624437,0.7394873709801604,0.5238453832379061,-0.19097687757562878,0.7254369103988558
,0.27127395598486564,-5.7468535852520555,0.40799832888672954,-0.054524134382422346,-0.4050845213370123,0.38264020760556594,-0.06617612349294429,-0.43854310036045774,-0.4358804644949644,0.0140990206281148,0.18197901256544521,0.47090999573108205,1.469552719973285,1.3981200093304909
,0.39910818327600334,-7.246303059712409,0.24528819812544744,-0.2720967627603058,-0.4331877330371149,-0.06687447523556181,0.07775737075048207,-0.6329923491523116,-0.9655084692907782,0.14336110567340457,0.13208020229002793,0.1518087135569854,1.1703444521105435,1.193080989229707
,0.6287776442614582,-3.2539420053638493,0.17449993194431743,-0.4539643200501512,0.005297672418712695,0.09685821260623503,0.15805291059635607,-0.16531625327578722,-0.407660276380293,-0.08229809016022313,-0.4950389014372367,0.02091618033178141,1.9705008225407592,1.1112877291128394
,0.02005026615938286,-0.902400612174247,0.038573847467463715,-0.3334730144165393,-0.23170786379722202,-0.030869381327629643,0.3389193559328328,-0.05158780470807084,-0.20787916299772244,-0.46579273461108933,-0.3006487267263519,-0.07670499217147082,2.7661938364046206,1.0063241043168132
,-0.009170471075783053,-0.2528784523625142,0.23685043921845728,-0.10895408660643809,-0.10068568908892946,0.1785556371496618,0.34422616240284715,0.054474783447703304,-0.13352987677741246,0.15044302504158066,0.08041997641713163,-0.005709355018959331,1.2834275000185356,1.574829058117299
,0.1433068589460059,0.3739927166871437,0.21457070042990145,0.03485265793317483,-0.16861842964576385,-0.2767764962318695,0.6805600244337727,-0.3224790244076359,0.07557636863821748,0.9185734846942724,0.3721570437231657,0.28296830379257454,3.7416690302018174,1.7574601338921307
,0.4065161847104501,0.6730170062626295,0.18285076858895274,-0.19415561615854235,-0.14374108188468793,-0.37238659205746666,0.6281551719376715,-0.02080829109558272,-0.17098389296385585,0.44638861652517364,0.36337237583128584,0.35805451316042625,4.049185314911253,0.8957524741888269
,-0.2052559580028647,-0.856761995434785,0.2749901157784901,-0.025001250270034806,-0.16192346951456651,-0.3348852273818022,0.5415456755298911,0.09875169106977952,-0.10570416254097169,0.0795111185908668,0.23364639839327117,-0.054537606964649085,-1.606731891104543,0.7953540726394833
,-0.383442352394033,-6.149133606175086,0.4309197817964248,0.08390111154971,-0.6318222202259053,-0.3560775430226725,-1.2452965810348662,-0.26005364124484254,0.21346574643277896,0.17619907458607123,0.7254646922048261,-0.051594151784231886,-0.7691931967982465,0.8992284961757935
,0.4291323210973822,-5.342825215176203,0.6172465410732683,0.30411734499243165,-0.611725550577616,-0.6685069379308357,-1.3687748103501787,0.14030956558420674,0.7700261503742476,-0.021099706333428968,0.7410595042634605,0.4579397965405126,3.6154471842739335,1.1516856361625003
,1.1237971441288634,0.9173810371822334,0.40982142366819574,0.18997828003895462,-0.2924620728736203,-0.3933191351280758,-0.4382167278400214,0.3346447542181928,0.6578110742971627,0.7018900374474525,1.0631546808801073,0.6831710776840896,1.7196113984560166,1.3573780889034575
,0.45213222766962896,2.239523263717915,0.17540363671635942,0.1465478669849368,0.10354958416964968,-0.3708256841368106,-0.26420228975417515,0.000910569715973985,0.44006651028820926,0.31246512559764006,1.3360859427979368,0.304252289917868,-2.6603810161854753,0.7572352398093205
,0.484791660755808,2.0661021527480408,0.3337925518758404,0.006127371006402119,-0.10932983516301,0.125298570162976,0.29068771359545104,-0.10758050178980806,0.0022420994781434107,-0.19034518234667022,0.7691044920165835,0.24448747821215772,-2.8961133384804465,1.2663146780044077
,-0.07798879228637987,-3.1742465725905444,-0.6222766650505539,-0.17356243853001702,0.20031067018366952,-0.04955821269690162,-0.28842716093330845,0.2544056232207995,-0.019783399579038394,-0.29783343918030264,0.6709484588622726,0.1720847426788723,-0.9398059312273875,1.3274984729910901
,-0.09496044357482882,-6.777381114460837,-0.8381972514066032,-0.3245309093807773,0.07924529105170365,0.16236515269154972,-0.49129176852651035,-0.1009644336778579,-0.011699589139738604,-0.4830794899908999,-0.018371650045478444,0.0018571058116198913,1.6989886693325698,0.881893790546223
,1.0101332473847635,-5.541118710411996,-0.04924907070878319,-0.08555685016587121,-0.2659482185033273,0.6046339905761124,-0.036203506505732994,-0.12724444307088897,0.04648094279817474,-0.43376823706494605,0.05352481731157766,0.11368880907917342,2.369600977118028,1.432254626496452
,1.1717042409395424,-2.1298828133342496,0.11193272006736776,-0.35802540114452824,0.24884474022503064,1.2925317964480323,0.06646004423836761,0.3933139045776816,0.18240153603688694,-0.07065445011148923,0.6628810812092167,0.31857488380467036,0.7722871161317403,0.9924638086211506
,0.9302704259937858,-1.477960844835648,0.26210420953366165,-0.10528279741206523,0.06554612831089994,0.18389057037147408,-0.20636767191167255,0.4170394283901689,0.4110955442631722,0.29368318036452196,1.008268903040496,0.19553998558357574,1.0817178058545343,1.0513235144521642
,-0.06740809777576838,0.2484795987504304,0.013193857598249337,0.0047871902638603765,0.12632341950042217,-0.3135227657885063,-0.3436874889428861,0.535003374307041,0.7780256962127281,-0.01654564641390518,0.8911569101983677,0.23364264217604444,2.0479153126016527,1.2118031464952967
,0.37683843056970256,-4.483257084623061,0.22771473740385453,-0.04197402768304604,0.06879959992744195,0.03977312029797555,-0.050983322362008546,0.2805201558508459,0.04776954269495595,-0.7019037602709318,0.5558185438884433,0.1943390462673117,0.6912175889319955,0.7768723844690492
,0.7253111770180853,-5.138269982104488,0.31070070491578444,0.08697951319045855,0.37643354264420525,0.4132104031393685,0.5049498818057678,0.21078308170650187,-0.09871665199662485,-0.4895926334481394,0.8792213095468251,0.2024060868154568,0.3209600799582057,0.7357651360676615
,0.4211983991273623,-1.597766630814386,0.014386760968257287,0.06810578272379857,0.4947387939658657,0.6133261363812758,0.8551401744227587,0.21754352794919202,0.4925012802607387,0.7844681250729232,0.6712960121869654,0.11538835281478006,0.299891358277284,0.521358204819084
,0.41512208009390894,-1.6641427459754938,0.3560400397535856,-0.04932602522575444,0.4063047391350468,0.872719247917528,0.4889443911645833,-0.0020265431852069748,-0.10681713920517848,0.26210379089979735,0.24287625122389783,0.22049696509215566,0.6335334240625187,0.6722200500944903
,0.3475523569885238,0.9691688186937631,0.5882432273671246,-0.0585020162545804,0.22279198881132314,0.2229005881058095,0.1349489390084755,0.12896168995719237,-0.25557651587431196,0.5206874270955058,0.4192163005373795,-0.07178083554021998,0.14666416755411515,0.9060787561370621
,0.0836207646528433,2.3045301402619196,0.39778698171859406,0.3496671741344054,-0.06107163052530141,-0.3045108716414076,-0.016051485144889906,-0.2997812910607303,-0.09267212158769653,0.3977799271754425,0.25525743035177406,0.07774491643718975,2.311620104940414,0.29673857683925653
,-0.2403373184932414,-2.987585597091399,0.005973034581816564,0.5103482901803654,0.3298390535739649,0.14373662354155434,0.062315871233296655,-0.10109962704328229,-0.2911650674966328,0.12881354332587633,0.6218685081821159,0.34304484176805744,0.8771262470390017,0.6799810257359639
,-0.14058032397002757,-5.473197396601093,-0.3008094248247859,0.2788201669531345,-0.16182416887915307,0.180543873932401,0.03723702027838599,-0.5060302265572642,-0.6462272883298804,-0.012798976551208057,0.4478084079105881,0.10798485629669033,-1.630745410468107,0.31849128216894795
,-0.6338716045029289,-4.382293352252661,0.29486223544698104,-0.15863906615022158,-0.0005845667093082956,-0.0479785975873437,-0.04352324063024094,-0.567027238185239,-0.44704980047962434,-0.060856193816174915,0.956188325593942,-0.06200970317871987,-1.1713763303595952,0.21796890511486583
,-0.6840453430275715,-2.423057094130275,0.5951983220293151,-0.4055008954997888,-0.3067198392953161,-0.20145550718405256,-0.12304552484967507,-0.6316917777749428,-0.4672106625729829,-0.24176347042415963,0.34783433887370385,-0.18138543145154554,-0.7255190072160043,0.7648296815551641
,-0.3047111389584273,-2.415871056971376,0.0387258121578121,-0.27879678752551557,-0.4122078876476308,-0.12153190984932946,0.22385191150123504,-0.6543865007216202,-0.7495354277255247,-0.5531629114040064,-0.12875675747144713,-0.17730612659384762,-1.9508882180139675,1.1437943397675394
,0.6797819748001313,-5.59324959968072,-0.04274887339439367,-0.185015944272843,-0.2952254284684144,-0.018701953195379945,-0.31989106909601595,0.15487043594741867,-0.46313479088260745,-0.3047847671415683,0.03988170073195857,-0.08241228148903237,-0.2632940648339877,0.6261365487284192
,1.047807363975832,-4.7104223373675795,0.10762291904871703,-0.02490274666684824,-0.14762243234902864,0.3432503070929713,-0.1928454470164391,0.784980829679768,0.44333768317076366,-0.6150657212772748,-0.021595892228889427,-0.2730263630028173,-2.0773647763516183,0.5421805449059427
,1.2338925344924319,-2.693658275958404,0.17430867769295938,0.10708847163221091,0.17835575373262955,0.5924277021285308,-0.18071483184344003,0.7220810745924968,-0.03394109373265966,-0.29477187970860785,0.22520185771048623,-0.20681212590011874,-1.2611365591411976,1.0144699395696353
,0.3735888771437245,-0.5013568258239427,0.0663690605358614,0.4231942044033398,0.04904738396693952,-0.16059531252507595,-0.3637375113541583,0.5726192926585784,-0.09598497235015187,0.6040423422864072,0.7689855570037244,-0.033315929392009815,-0.0005875154055099382,0.7586922299605692
,0.08187486508909701,4.776233333635768,-0.06793716361675746,0.03090833325823312,0.00519918150088757,0.2371503950260573,-0.059987687548390255,0.24417824620293202,0.09250418644438287,1.043713360649583,0.6312978961703662,0.18628779409800078,-0.6810492857508645,1.3743237501174588
,0.04364784548392198,0.6645633593556904,0.09814432954618063,0.30187231868675235,0.4772688169421911,0.4679129796288416,0.03891111465831748,0.7177901114001229,0.3467396273278479,0.5616881103135206,0.13456454141313653,0.295577265630912,-1.1102009017161312,0.9097371723730133
,-0.44472118908134994,-0.6586564533801381,0.06239149846141759,0.7527289880429751,-0.09479449511967207,0.32360577223591985,-0.002015476584185606,0.24319679775999967,0.44927447877542037,0.3338917053967122,0.040767859100730844,0.1323866473877445,-2.1643659092341716,0.25585828989720766
,-0.10420708665539431,2.5378785325630235,0.13805251192057608,0.17470687969929982,-0.4795446333590252,-0.42564824916435934,0.2673063655770469,0.17108159363059317,0.07415996996931849,-0.006929394204598528,0.1329527433390169,0.03691294272362284,0.12173542234603449,0.718797731091763
,-0.07488989204934779,2.38135857436586,0.05102863248319628,-0.48736236420801815,-0.5653642750582243,-0.6354177784285271,-0.014020994093275282,0.1974396916457446,-0.12945667624515442,-0.154164833062813,0.26537922841285677,-0.06126234058436105,1.075832181133966,0.8856742217106999
,-0.09713897857717191,-1.6688061012214577,0.0363485291835182,-0.6524215670868403,-0.03093168668253226,-0.11413912077911142,-0.30422161322680763,0.21477212928879,-0.19747339146250367,-0.3596463919799024,0.7935939202557087,0.2577762054364576,-0.9468258224941989,1.2375135501057715
,0.21684015279854763,-2.8897265461159183,-0.17362592076952038,-0.4429148821202596,0.36671776581444243,0.3336115598772823,-0.5200371177450668,-0.345860373278145,-0.11640665564096919,0.1752907971890986,1.0697568849592796,0.09493234159077611,-0.387286723099198,1.3080364048927466
,0.812462575616425,-0.8484494252335101,0.0031501544186995816,0.031653473780269906,-0.3086225677251628,-0.10363020603863139,-0.18034333274561534,-0.21761960257158156,-0.1464294158630381,0.006120085451557704,0.6442242470101416,-0.11962529632607383,0.6512376540500084,0.13841784653739203
,0.15011486438403637,-3.916450068942344,0.573281440166749,0.10644844986740956,-0.5642938507929777,-0.17891588119918353,0.2635900552259703,-0.5307893802795888,-0.19979174289656468,-0.2926589936077237,-0.029020460816067784,0.15837560867663647,-0.1828969404195275,-0.15554271607461573
,0.20736689734229496,-3.4016107735308396,0.24940388411136857,0.292175295080446,-0.07831845378374504,0.25973242254063,0.5130869207072389,-0.20782243778685297,-0.00747795596296806,-0.17380862821107146,0.33105068094452444,0.0804984550129947,0.931315482524679,0.8974535340071903
,-0.17444407435090453,-3.3965597811239614,0.15048266538109403,0.07303316409357577,0.6117237487457878,0.1819722899396082,0.026970555314629333,0.2984639963818331,-0.07141123857533965,0.012316387470959499,0.047615238771063766,0.20053099245741574,-0.2544710282343143,0.6000446037475494
,-0.2603826712080813,0.3343516361880383,0.2617987763494237,0.05140642162520478,-0.1853270405217209,0.06834711151075112,-0.2596722887155704,0.32278840711795515,-0.025954604123237458,-0.18616508685726466,-0.3105261613018665,0.24525749059108565,0.4624041422888163,0.2103717068364655
,0.26350603126915156,4.505568241806532,0.408793445167361,0.10060178903634028,-0.4954972563542842,-0.045855832308463455,-0.1976493711056177,-0.0627954153157954,0.505061774012403,-0.3797612012548765,-0.39730808112009425,0.13704770875891253,1.448210461670392,0.526748778451177
,0.5319227749383033,1.6622636241209532,0.31308508948249786,0.013597735797790568,-0.15585088214401016,0.1844020958718515,-0.23571490682599863,-0.20785815374488936,0.45579755669899646,-0.21206235375082005,-1.5595341879423974,-0.1045520598726071,0.9286009104764367,0.5704907741542986
,-0.01372269017984602,-0.06378829557619482,0.27098802650460985,0.3722207019592666,0.1047162025039131,-0.16912996346367287,-0.43182600326228704,-0.44351933822749695,0.33409126988491933,-0.05404578753438447,-1.5105961660267146,-0.07768450589513289,-1.3449284776228223,0.14152012602735445
,-0.7030443417678012,-2.563944209011221,-0.04036661981668886,0.2166672345424722,-0.4912251570866,-0.5942207381983066,-0.4831856481785466,-0.3135679244830839,-0.5975781578148699,-0.23031547365959154,-1.354483206696659,-0.29346298107990354,-1.0751999302836617,0.24604053618097138
,-0.4066125084669058,0.5397781636384013,-1.197299773135999,-0.37513609482364557,-0.2602980647226716,-0.30333827213442777,-0.024054203302571343,-0.103781122705657,-0.553240706867579,0.11360510528968339,-0.18391618084368305,-0.26573157022888805,-1.2255954738085044,1.0884975812776505
,-0.19597165882106202,0.5845622999990874,-1.1440219140840262,-0.19922487162015748,0.5321019861559065,-0.06250548537141609,0.24063341144915368,0.1849528099168646,-0.22646959146132514,0.4947399433346069,1.3467999572939018,0.10225469774270038,-2.9500279342561258,0.970023320560624
,-0.3756089730103838,-1.7000031106696643,0.2169468704483627,0.20386586353544794,0.7699869172475654,0.46398698842941116,0.3577531929171472,0.469244250922156,-0.06487383282067005,0.088062831268747,0.4726958682285103,0.2755831946301206,0.11249031504707076,-0.6561964438510055
,0.3623942675738106,0.8534319049387916,0.33617998146304046,0.39196446761748743,0.5663598057258201,0.9021421372558771,0.002566271919049611,0.36741194257283116,0.6756154865513778,-0.4322067803915194,0.7188704793327655,0.25938801372857345,1.5872067593553005,-2.8632762782753725
,0.6537622479730475,2.152917646524419,0.01245909110639956,0.173671396949048,0.47483310326472944,0.4495517796419585,0.3978065013677517,0.04921947980076143,-0.02205127290946798,0.22464449957880483,1.1287690505129642,-0.09803925776012401,0.36031296237064864,-2.477929201912597
,-0.37214186998427395,5.005328229115565,-0.2256526422763058,0.0022075341186095355,0.3294190752969666,0.018934114185151018,0.553926448145752,-0.14887764791493718,-0.07604344585241758,0.5286587331081387,-0.7210206464254224,-0.3677605291476716,0.12294231302311816,-1.7551497374903808
,-0.4202050668244452,-0.10810054183556152,-0.24103222810435465,-0.047160627843747735,-0.14058473652417516,-0.229878972166426,0.02708575657761928,0.3071170950304993,0.38993263137909334,0.8383265418229721,-0.8853032078878293,-0.4604391104545311,0.5649437259318806,-1.6315363379776806
R,0.6018927830718183,-1.4500128790114515,-0.10719169437321106,-0.5277335204521566,-0.17646600036781201,0.19341661022315768,0.07686479794472219,0.3077576699061461,-0.22788403008359398,0.6300792904745984,0.11520081996016793,-0.2691975711784283,1.3254192986610172,0.3153595455692032
,-0.15398780646127075,-2.2629506380836735,0.1769188736086697,-0.39187679915996854,0.18801625237160757,0.02642891201641858,0.007850893165094698,0.14950202719910866,-0.24040249534580646,0.23296388715949434,-0.2774384241695058,-0.14215313671510946,2.496740748628171,0.5578566842939852
,-0.3488844759530729,-5.211778959781422,0.383719853569725,-0.3587616738113972,-0.026181807205458874,-0.28929106792281495,-0.24914557258367953,0.09265744093185625,-0.24431080498791155,-0.09369630677428853,-0.5600987958116446,0.015321010282941016,3.466934623633929,1.125278126246693
,-0.11995557771959256,-2.8452912605008738,-0.010695842118625837,-0.45568027393007193,-0.14650543710373917,-0.5789027006890862,0.0514599536952505,-0.4212680854399423,-0.3840785231770905,0.23047067017164594,0.04336430465697842,-0.18221000677305838,2.6153304593279243,0.828807421474161
,-0.051151744454996324,3.556802520983185,0.1618184923364633,0.017296538860000408,0.16941415199747217,-0.7594026868844396,0.1644987582345999,-0.44387464358675055,-0.11729001561255378,0.5776522148467529,-0.12082334054341275,-0.23984180965814447,2.602611734507774,0.08668852197336406
,0.2977455870294779,2.1591662528518576,0.5315793699401243,0.14061375533700768,-0.15235146423901466,-0.42292326263172597,-0.001383477061342715,-0.4657748616903758,0.11942613056868613,0.256330030383753,-0.8045344787387411,0.05625886468427184,2.493716843111127,0.3265478930261547
,0.2683962134367954,-2.1546046298283636,0.5491698601377215,-0.21128322269196423,-0.46554615024487866,-0.2327269127774063,0.023372242921752093,-0.16351838353974069,-0.4859891546144747,-0.6718532101848431,-0.5128654427069338,0.11606772311679353,2.098107111826278,-1.210627413259082
,-0.1527725446307792,-5.3636761989289035,-0.05778101561536905,-0.6061430801830615,-0.526892078059143,-0.0302787581267445,-0.11310909160772803,-0.1703459947735045,-0.36865059624314883,-0.4125177156135759,0.25703209610899336,-0.0069215539012481425,1.9408768735042639,-2.413765338226967
,-0.5542072824722847,-6.741184478301273,-0.11683176237230822,-0.5760330569888785,-0.45901353215358937,0.35992673354438404,0.046643965375928,0.07132999674922327,0.15915365217103666,0.3342427856045284,0.63943478535257,0.022427299292462947,3.708974845162135,-1.1858815940626704
,-0.07296371725000414,-5.803831075073225,-0.07590297064445771,-0.8035105948669585,-0.4077345535865466,0.4456508516340651,0.5437096725803207,0.16370380352926572,0.04817632030976214,0.806390062013538,0.35256349304735246,-0.10250200596337657,3.2806678275317345,0.9048738168714161
,0.3660232081406335,-6.152451402159829,0.046368424644451414,-0.3838555862552167,-0.1939534450415453,0.5348931585988219,0.49586948730603864,-0.13843879009691257,0.04439413792602477,0.3914512566490682,0.3489813708164979,0.11727690099148588,3.5538529795085476,1.1014992471141114
,0.011842003754599428,-1.7526689758615115,-0.008248757455495631,-0.19013310107142312,0.15480114264782935,-0.23208305841125676,-0.2829027950041665,-0.1936599683410766,-0.06070543675045523,-0.2666558936050062,-0.06523077420273753,-0.061583791859219,1.044534350135184,0.26598060151099134
,-0.6063532064697992,0.13951942758836175,-0.07277937526418607,-0.7291988886831603,-0.33412592197828056,-0.6674830244696035,-0.6546998256710466,0.6110236225585254,0.29163552761184436,0.306448813489588,-0.6814307918567447,-0.37294902495861687,0.25460033072058746,-0.24606132959787544
,0.09197861531320287,-4.041789208198269,0.0009102018797460555,-0.6926544093364843,-0.4499015684350623,-0.6659381442371095,-0.20700649923556982,0.70070910998192,0.5116413188119318,0.6568309094697503,-0.4585557740086788,-0.35981885556279486,1.402852056584203,0.45819972118889873
,0.41484552632901694,-5.962673095732869,-0.06172480550988308,-0.7173122072546689,-0.045120442395862465,-0.4631712948466858,-0.05235550212447068,0.5593542577329285,1.0466546105656496,0.6241118024851903,0.36327780413018484,-0.2186035002366202,-0.6976869601941549,0.675324791561335
,0.057786423999692145,-2.9665423422584514,-0.07864713838799485,-0.3705892196348231,-0.0874805654060703,-0.528679413840214,-0.4396367979448447,0.5111511043547854,0.8158056809944206,0.6098764845011119,0.5803470112531642,-0.2815610237476929,1.0904547962917968,0.8430920967638877
,-0.6604162889218314,-1.641375304328985,0.008351736882156027,-0.392043524691688,-0.12036413110472684,-0.5580615268621522,-0.40685029906070413,0.26072325237275984,0.11684866274058424,0.28316564850411763,0.5177941543512206,-0.5924754295041831,0.6530215627713728,-1.033010365024133
,-0.13778283825435472,1.2013005954678657,-0.18631761318232923,-1.962234172014101,-0.3236276362161925,-0.9952570335222389,-0.17578061801480374,0.01846980041329129,-0.12156700731726294,-0.08806763873526575,-1.2390247018941885,-0.8345397648700044,-0.5862927493998518,-2.3312918422087354
,1.5455031295154107,2.754639120224789,-0.05822621571280926,-2.0684033151944106,-0.35391474691176583,-0.7396593617221896,-0.18600648146814858,-0.045284462239880245,-0.12778628140739068,-0.17617976016167775,-1.9277365825523407,-0.2753360026159724,1.081325051215015,-2.0488812243982686
,0.8752156552246725,1.8991499728265833,0.03909451000435836,-0.8617375086156215,0.06162152458242804,0.014527991227103425,-0.1334328721424199,0.2566428961372705,0.4205823295447068,0.4803717959007162,-0.636316443747264,0.33964502881408337,1.0265670874982489,-2.374864517567679
,-0.04660500289764412,1.2683456153476163,0.028281753273737265,-0.36593601667304576,0.30805895326027793,-0.2193005070518432,-0.46356970042547424,-0.3058107858869741,0.06543640785019095,0.9923006251254137,0.7330858489775859,0.40637760821144053,0.3564290868440664,-2.0437369929139275
,0.32429575245113046,0.6105910172508902,0.27844737905526107,0.3852397791579088,0.1252118604704737,-0.03034985531376392,-0.580357726598932,-0.39617303388403996,0.14494065325575042,-0.0331994478526881,0.9174468499755768,0.22603398692684123,1.615743224876441,-0.42151275836790025
,-0.2781657135707779,-6.399869548001525,-0.1687903181269169,-1.1097792681449434,-0.22990805584144555,-0.08042918892554063,-0.91703451867182,-1.2180659132165728,-0.32096047782480197,-0.1470641355562305,-0.4111216315449967,-0.18202350491930955,4.31027632444871,0.0219054394886926
,-0.8228025755811265,-9.02048517950224,-0.5669585687649049,-1.9240984117158573,-0.37882466596403797,0.12291330955683012,-0.5004788026446562,-1.4864210078109246,-0.7417738401601845,-0.565288736498567,-1.381539803400752,-0.605564300041428,5.478392145575128,-0.7240667367002154
,-0.8915022860685702,-5.45420857707731,-0.1933487566796265,-1.5730089810949321,0.6537538904958238,-0.08995306223883184,0.36809019961343953,-0.6798646738835417,-0.4980443192656945,-0.3768356115516404,-0.7390045467655342,-0.3763501552582942,2.9610385230099037,-0.3157215910619677
,-0.3663031716843008,-6.464509736480315,0.007671904758417623,-0.5715747221001813,0.31757356734443304,0.40719441098785925,-0.3902655298786847,0.08557722694888656,-0.1666315454252667,0.4273676481366061,-0.15228021815622023,-0.25381862816077283,1.821465332874147,-0.5409522690125989
,-0.3964843275848595,-4.803399293492556,-0.2368002425356638,-0.36143843756484784,0.1507149814731543,0.22402543896474036,-0.2715943765031916,-0.13082662438497922,0.03500635546939563,0.2513347633477145,-0.4353619499505034,-0.23178520133638938,2.649729270995401,-1.185537093157418
,0.09614078900829914,-3.815108285497706,0.08944787554440688,-0.4283028328085768,0.3905142963028237,-0.11425423512748913,0.2718101854323753,-0.20295490410579192,-0.34862761305360845,0.22947759064750708,-1.3508866658133492,-0.0010859538034976946,2.7095396850149225,-0.372878896154049
,0.2097084518617524,-1.2214612145583545,0.24253398927540154,-0.7012301874086384,0.38901119199503,-0.24841147533717647,-0.4855214157768422,-0.3902773270794386,-0.051024436321014034,0.7779028647061952,-1.3036352061330876,-0.22425817102025294,2.598933637951528,-0.9999733112203558
,-0.5273851175827764,-0.12784121416132388,-0.09662177083302029,-0.3343800017471533,0.7709563715005668,-0.33013130389591777,-0.5131196594670301,0.11549568246761709,0.4861670358776322,0.18548331831797285,-1.0145146212026448,-0.12461049358382689,2.6014492449770015,-1.406371292788895
,-0.484265382122659,-2.653265778839778,0.24564134806308024,0.3709671743962534,-0.010014582086845802,0.2336910847208861,-0.049749047667417313,0.649016557084275,0.7569842411549667,-0.07296629133444596,-0.9481428519079877,-0.16232185429359883,1.5604929432649637,-0.48886988883585597
,-0.5441860738652841,-3.718814315508385,0.32191719113089423,0.2677909196491334,0.04730341875670374,0.24368856575304762,0.6406973676676645,0.0389796750844686,-0.18917802137099077,0.1107469856900105,-0.4571520807472093,-0.37138165955887603,2.4686187023698443,-0.3096629566451791
,-0.11497706608860647,-4.943911410051494,0.40025071645349597,-0.024579911689527306,0.10794700937855733,-0.06560969445480015,0.7102171133610561,0.11317587924553227,-0.26195621189710544,0.1311844574648045,-0.25067288112706343,-0.17429241916697794,1.7550076539728252,-0.9461482089342567
,-0.34016036489962254,-3.643267828790769,0.08250430506067127,-0.1949021785829655,-0.37522293553660757,-0.370969934280527,0.37881380864849584,0.03494944875632926,0.0166597419698484,0.4911566547168277,0.837744286795392,-0.18100477716268001,0.7783185671608912,-0.4870900779799019
,-0.2179817512410556,0.8826344418079038,0.31643076816343446,-0.25870964276207503,-0.5992875467004042,-0.1640285436035708,-0.19653578971978602,0.35703692596587305,-0.059279130252574086,0.8347971862413,0.9207061609600883,-0.055265033065243455,-0.09547156717006361,-0.49739778695803377
,0.30682250548454687,-4.484435456446455,0.40482872095676337,-0.4708108481178271,-0.03405308127058033,0.028497469831704862,-0.17578007926469041,0.25768476340860985,-0.0927246197369074,0.6878514793318244,-0.46489137475639086,0.29540475314009934,0.7727622894676144,-0.6746699586213742
,-0.35357727885434864,-5.580809775463751,0.44111387030573723,-0.7980180218336362,0.0014102444266515877,0.13533414549480494,-0.20056887671548992,0.011098270564112993,-0.323700617466384,0.15953850618126889,-0.654055563303374,0.014582160685611106,2.20383085810061,0.2733124369193519
,-0.05775944057084499,-4.3737732933601565,0.16672931578680564,-0.2782539141413505,-0.22746262279011134,0.013711686643446321,0.10461759683032627,-0.07144157710460111,-0.22641251912261018,-0.32099277506262724,-0.4720403440861496,0.049137832894799956,1.2198986021267955,-0.851037070722445
,-0.43962886854921385,-0.28410750459948103,-0.1986569819696117,-0.7934454404031375,-0.24830395581899833,-0.3089217838483643,-0.38265729500760876,-0.6956596449246,-0.2503962007095178,-0.1597832844813695,-0.393630910280648,-0.34499204176504156,2.816724772348197,-0.7073307518626709
,-0.6128678629844669,-0.3125955040346937,-0.012637420321941407,-0.6634896162164504,-0.1983047118687408,-0.4684569237777161,-0.24380631793636248,-0.5530809703481969,-0.0520191042277587,0.05741701952586339,-0.0713093094553583,-0.5048992398659174,1.9016289212665238,-0.23432793445660552
,-0.5285376364406595,-1.5636140754364403,-0.041042563217235414,-0.19159882906356665,-0.1384765133430028,-0.4292673216660131,-0.6380845735254713,0.13104555273525523,-0.10551669287350944,0.05113935109673327,0.40553373013013577,-0.25888338692757407,0.4222557373399688,-0.11162337404630543
,-0.04361681018393273,-2.477622906284843,0.05467753779002369,0.5259415668164887,-0.06015008199544907,0.20033253149008512,-0.25441774125839894,0.20649337160481923,0.345246173802959,0.376461770776241,0.05739702227438531,0.3979299223406241,1.8461349719109643,0.7546170894499292
,0.07151067701697632,-1.51720978768692,0.26529530377400723,0.24414514783289865,0.1634025181132867,0.1289286487968704,0.31205435624380984,0.2060200232200064,0.7600787982475312,0.2733161431641983,-0.2672848984774469,0.18585689045049994,1.1037513407209132,0.5950007536098336
,0.11028095358753826,-3.530152063511956,0.4362360565489985,-0.25380459276826156,0.04789803968342593,-0.10845909350690687,0.06622201074036925,0.1499969896914385,0.1434969659542162,0.09628499600275416,0.07625233817752426,0.13399668990928038,0.30896535955557225,-0.3410954407437427
,-0.12562478682111383,-1.1239641329129182,-0.06256091716658868,-0.46992140693095275,-0.1458173616687954,-0.33918266699465194,-0.13072497186709003,0.3815983486496249,-0.2389852141952454,0.5289155196552592,1.2375243644465286,-0.2975485823844025,1.3796493849816733,-0.7104334376692011
,0.0924950035616605,1.1607328859902781,-0.008931625089667864,-0.2764761393607862,0.16560624642707564,0.12552104354693336,0.06654984813032201,0.5780346300483372,-0.0872709506821669,0.056002769371272174,0.811766397050075,-0.20349307401970218,1.1999168437932082,-0.08173289468766187
,0.17278874080497975,-2.7902159264611823,-0.19586577328000948,-0.3323976161563057,0.1742181920668891,-0.22907325396066794,-0.6114093319805616,0.9224276336825471,-0.017824190862269846,-0.24564652712044083,-0.31105422793605314,0.07024935100186455,3.208560057491618,0.14953532406018827
,-0.0909183788004318,-6.014347929116943,0.2581264582821127,-0.35276220055203,-0.3355844061358464,0.0348126014075246,-0.35879924712476824,0.27901730530669266,0.4256747191947904,0.14981685923123064,-0.03995013759885376,-0.0029932763649378694,2.8576486816856796,-0.18102479396643914
,-0.39946581015598076,-2.419357620583545,0.1390665857180845,0.03157397046942413,-0.24188321212032665,0.7031694712782347,0.35943179403363673,-0.25299932819696075,-0.19207566210790702,0.8216699572776359,-0.06439149580215633,0.042878341271316615,2.7926070466584862,-0.03264544662450342
,-0.17775318264796114,-3.368863404005713,-0.1061497893742101,0.9018343729947753,-0.43507887981641713,0.40046072729906196,0.42180948845793886,-0.3986437240923751,-0.4228235646186763,0.10913142454880409,-0.4022181172676965,-0.021881338612664083,1.7778657096171353,-0.41939156297106955
,0.17304420246800434,-4.56804224829034,-0.11245781250968928,0.564551078731551,-0.41940760999656085,-0.022205703165257107,0.6254225588422333,0.05634130142802356,-1.3083902016518988e-05,0.04751308109797025,-0.14583928704772253,0.11631306662690395,-1.550876871107864,-0.04631390293342365
,0.09588143498904028,-3.308994693980111,0.015387367351399265,0.09193549122562737,-0.12480179587094556,-0.2471938914669033,0.1210878405447856,0.2635582661852654,0.8129042763054148,0.9460325346724636,0.4670877213929279,-0.08713972248547491,0.03320744498522223,-0.09702256953076159
,0.35121004836699005,-1.1794096121760367,0.10166210517910278,0.09335310405825276,-0.05093675895419229,-0.1381835486071452,-0.0027158195471000267,0.9102157385502904,0.8177564466012853,0.7522932355761316,0.39554406804825315,0.09431542789613864,1.6282076213379835,0.9524711247539633
,0.4986693676777665,0.9124150026045313,0.03299440603370826,0.10902000230818297,0.4323137600168378,-0.14134779764996389,0.011606720236588217,0.9452736262680175,0.6399057351448713,0.5732717824692088,0.44140691515828573,0.3660940125530921,2.1280982561617168,2.0279923838022387
,-0.11646383674555406,0.12993860809175192,0.2548546328063285,0.2660266908758639,0.4415383433829967,-0.30198324487815337,0.003404896725135981,0.17585623941300824,0.15948942038977798,0.9536016445329839,0.16849856556012538,0.061026705360404665,1.6872007748400661,0.8742042686136055
,-0.6679300035531707,-2.272314299886382,0.4844591257079928,-0.5340556753365392,0.04335706227947785,-0.20906277609653212,-0.38393910216243304,-0.47026348553914776,-0.19755918374664608,0.45727024608527433,0.2909996021962976,0.06422809186602345,1.3432562600708575,0.13051906136324207
,-0.29602075588006305,-3.3318248112155153,0.3255292705994567,-0.4057486089915231,0.07248797029507853,0.28789542767018295,0.09401381536493861,0.16267718877302206,0.15244622985252151,0.1410107809883549,-0.08613354356055487,0.11781019962277918,-0.5513682653152313,0.8907897092308472
,-0.8182782920823065,0.34008870668627106,0.25001417964589073,0.26813438080637897,-0.3432481207536291,0.2017704240708553,0.31786416337061746,-0.05838417499371686,0.23002964011356863,0.2803181568412173,0.5472342934818775,0.29224377678766145,-0.7744006783545221,1.7908483576139986
,-0.3662691151759227,-2.3330718435022284,0.3962499498221106,0.8853720034085577,0.0072813144203399795,0.11190118419707211,0.5019481829033916,-0.2600450427557174,-0.25578297742588646,-0.017477009267781222,0.33180440948071044,0.14027172290680398,-0.1618482158385144,0.9148241811948602
,-0.6626906399579824,-3.5132829387568796,-0.29878046017661547,-0.03733472082752707,-0.2721077762128639,0.21624897791230524,0.10758361950847617,0.06480482184890998,-0.21405857955864976,0.22865552863360514,0.055520542833850696,-0.06652821933363416,-0.9993283620033928,0.3621239133764083
,-0.11802930368924855,-3.4105671221693394,-0.22207295301971058,-0.18763353494241533,-0.3981516794794666,0.031218296450297018,-0.37222256530719267,0.49068076197703114,0.04628337767015023,0.7915769966141276,0.39944349515253336,0.15952064661800103,-1.855632631607319,1.4225751318057833
,0.6675988996651253,1.082060256394647,0.006881004818016783,-0.1526055358515883,-0.057591413721956634,0.24763719905208073,-0.27959406024477185,-0.18525080875196676,-0.2046183870221177,0.6880087377354427,0.6903525922823073,0.25204172413843334,-0.9209373730119256,0.908571731494909
,0.8721813638135284,5.349599709548179,0.10750223273313143,0.05372707946352548,0.05462925600810543,0.13384070189803696,-0.02607845181643718,0.06924529775562924,-0.16617422962134476,0.49450016377661526,0.069686160009083,0.20867382194655854,-1.0910568927892645,0.11230087903967104
,0.5098596112253337,7.369582023662257,0.020405281788158418,-0.3496391928958175,-0.3150374282989203,0.000920400720110441,-0.6070911627487589,-0.38014602020391763,-0.5008438974159122,-0.31008369485680637,0.3112856745222564,0.14081364548001468,-2.1927548864546114,0.9006625162679079
,-0.21583426260620958,2.571193298852295,0.18557430728704633,-0.08980252919794739,-0.28802322411927356,-0.07639457344233944,-0.5970654307381558,-0.42524897572424214,-0.8427661414279797,-0.5347436711847112,0.3202513335240475,0.26288415928087044,-1.539967035412816,1.11644813530158
,-0.03328898821599749,0.26031899163112565,0.3488197959933173,0.14670922807920841,-0.30729873361278903,-0.46965036285621886,-0.4115462915810277,0.5163898493466962,-0.2279362443101324,0.1303998154426362,0.1475740174844226,0.074721606104423,-0.5016158181723008,1.0787630468736655
,-0.25137511893814335,-1.9865044419885145,0.3238002942519408,0.153061983804235,-0.301823343069707,-0.7754765766616634,-0.24395880988599336,-0.08962172421458589,0.1549584077012383,0.4428284397691797,0.12030460662641049,-0.18642654431943242,-0.7570228551899523,1.1260195274926974
,-0.35820976657706843,1.3558854008550463,0.32206922561346185,-0.3866235033754267,0.03214599131930061,-0.3090901415745381,0.39936360842141594,-0.3707079378732672,-0.13857368575053167,0.4491071887255442,-0.15992098938488808,-0.05984552405193492,-2.0954980813242425,0.30929118150337287
,-0.2912469303912602,1.311869061578113,0.5280808496607042,0.21660621752351641,0.1711849605002893,0.3799561439364874,-0.122399824398386,-0.4124720961951512,0.12490356108739649,0.33501761282175824,-0.0221146122750463,0.07460657472833436,-2.1526679502045796,0.18180652799594002
,0.6205551913081595,5.088738455264173,0.2289072293954928,0.8955772693528411,0.04462996159688773,-0.13133528820667043,-0.04728900787560661,-0.39618736366120044,0.46170941206875876,0.7911422732285225,0.6751118267842534,-0.03213038628891581,1.4841398810207096,0.41730576164245886
,0.32273127147073627,-0.05519176427557044,-0.18247194367020594,0.016539985542726815,0.25377283108778975,-0.3180791543495913,0.17506062149917448,0.08575234633371677,0.4458123136441818,0.33965603937585376,1.3027332509050835,-0.05497048618392234,1.0788012511315144,0.417969277563057
,0.22747468495297274,0.2919615713778083,-0.044329149724320796,-0.1988569306256959,0.0834288252566309,-0.3461339739152628,0.18217373781750634,0.19694197697102622,-0.014902725242453193,0.25252019998404734,1.2044746684759688,0.3047929412480903,1.225912752646974,0.5122469944215852
,0.3475544558838645,2.389148329750487,0.10716959946230002,0.0895133583493572,-0.15249054227256806,0.12394439120127108,-0.03648639955110433,0.10992718542937206,0.05280319417610019,0.717720439908569,0.7668378272691925,0.08952457857935342,-0.5539322049220099,0.8253401552868314
,0.6998774096597447,2.7181008851341706,0.4043940860482952,0.002043003035537391,-0.24972038587531922,0.3515958629166763,0.08849132437179136,-0.37607208434475775,-0.17031266288443297,0.4133253124176498,0.29182513174923574,-0.011288315901047542,-0.947065563498569,0.9019859283187348
,0.8624960352648087,3.089559628206126,-0.003779579753066904,-0.1297222283029674,-0.006815889157676594,0.22585012477946512,-0.0045299947822314115,-0.24832607673758605,-0.3973514162143362,-0.24886295989802826,-0.5171331941072856,0.23645982900093837,-1.6826582041035358,0.36209102964240025
,0.426877008987466,-0.013045276192570399,0.128107967686069,-0.09472535229047455,0.873049840631232,0.6329195762947898,0.021133716006222176,-0.14097357044461079,-0.504539359553119,0.18222075681732425,-0.3636687714409705,0.20291854285782604,-0.23815634934937038,0.5575220420237682
,0.10765855038911458,2.7628620157209838,0.35973655454019043,-0.03415998765686903,0.6620794342664519,0.4883511092332617,0.049619819116491874,-0.14595672876848328,-0.6291322434931745,0.6300613014121321,-0.3202830789298377,0.07239987491701319,0.8183541160379839,0.579328986961635
,-0.09339037987840183,4.68944670281096,0.20281300375263317,0.04090409939998421,0.3104370347839328,0.24866351948134113,-0.263696067434246,-0.003924744291690149,-0.6099486337328149,0.16854674110267137,0.1669646865950321,-0.027440202753588043,0.11722885950670588,0.14018871934143384
,-0.3126111781157271,0.6610286129121894,0.07423820679237657,0.2899993751552969,-0.04616786822651211,-0.10792960641136312,-0.3686274486671946,0.18750492763543894,-0.7752623679642349,0.07094370666895247,0.5684691035668387,-0.019483181852991853,-0.024204955898665333,0.4262221356973212
,-0.28608415614804744,1.5878393999415177,0.25419684556912875,0.38734150918639293,-0.02128624639495444,0.06947833398736938,-0.1745428361826194,0.11960277440230727,-0.3585295470820028,-0.0017932862434130962,-0.025226397029987767,0.0342822212361137,-1.8422256903249503,0.7145272416827061
,-0.5563566394108245,3.743675028220339,0.41384632399932325,0.24363922030595328,-0.13582337931702182,0.04890282367716265,0.17720839820701434,-0.3932165131184534,-0.3207415960507314,0.0009298465509457343,-0.2585755060563799,-0.07495748114720584,-3.5186399161206903,0.600650682115351
,0.09820867757765862,1.669635490547061,0.28401866452191715,-0.149824193943115,-0.09386163892284902,0.16036952472006705,0.21204822732588927,-0.643264926195633,-0.27491334934936046,0.475902868573789,0.8559656558609096,0.07643938720215894,1.1534911594289847,0.8123292542171512
,0.08871855973868212,-3.412975209416072,0.3149388168846093,-0.03468580746309423,0.5109816687123679,-0.059055943477751505,0.16638493342409905,-0.4818847912006051,-0.10322982949623181,0.1288007544192336,-0.00204922046596902,0.3874640926545057,2.189752266497393,0.3042446657133752
,0.32158406136758255,-1.6241542056442686,0.2494791438744935,0.49169599255071667,0.36107252012384017,-0.4744853111106769,-0.3706784433349954,-0.09577546730618029,-0.003166836471941194,0.31099065221150934,-0.3859349802810473,-0.0992075068131731,-0.2824465262592946,0.04741254900419701
,0.15251951776871253,-2.8962622873215973,0.386601802436787,0.20285427496822497,0.6612985836553293,-0.162772707256248,-0.18431558242942955,-0.017458241605237054,0.1049573626754313,0.38549714316323447,0.03406922619942183,-0.051696514292369954,-1.8277959801847987,0.17910463241919056
,-0.0029641905326833326,-2.1780674704417806,0.3854919219825644,0.1678779630602572,0.5741198828389428,0.585326879200616,0.07547537491309944,0.3181077873153855,0.4360071303694579,0.3133597205627224,-0.12080933730067664,0.2384052875008387,-0.9219418484289729,0.4414047601036866
,-0.04033170723448272,-2.3628190576743258,0.043981376392392524,0.32384831479424214,0.11693552556912484,0.2580785684775068,0.31698635615062903,0.5709812335344324,0.5978003916754285,0.48510968548318023,0.2679448368357542,0.34660256493704084,1.2303885621787527,0.5304311518703391
,0.6667622146060608,-3.1451337675185598,0.23353272933417252,0.09869028175645217,0.10012055357229747,-0.26429213255811584,-0.025566876319577193,0.7658113605828822,0.4355019785795856,-0.098178357597193,0.7512934325690098,0.2567723323607179,2.026511258220556,1.1878712628512358
,0.04202128557152493,-0.5048895839248464,0.11074521000071183,0.23743493447252365,0.26641755160240155,-0.6320130958659289,-0.5609967954372259,0.5702626768278898,0.34694496497735505,-0.13936338871103043,0.6427879968221959,0.33235533371710146,1.2123032295132359,0.3933392320873312
,-0.17260539976117004,-1.9134512793608514,-0.008976011544612455,-0.12815611872184435,-0.2914971196467018,-0.309371942564409,-0.5045421139227776,0.3117785322414759,0.2109851436008921,-0.16066168475799125,-0.11976221909992978,0.18288671581846644,-1.0720969911050602,0.10602368768335879
,-0.12727090626661922,-2.0882017828035395,0.1290803690586869,-0.17671589673900798,0.12520239201811934,0.862924574018116,-0.2074436189831704,0.5764290502336276,1.0461042440865465,0.3539090935285044,0.40918752074511444,0.12311332879755617,1.1521509395856964,0.4528380645698835
,-0.05664667503858435,-2.388210096456391,-0.03561575133409101,0.40389256439189714,-0.2675857971712525,1.086624357950055,0.07268731440046355,0.5982226492711626,0.7046807120620026,1.6064852242949303,0.2531266191756166,-0.12465036876344553,0.7683616827041488,0.5761000016337358
,-0.6984629899461459,-2.7440068656014764,0.18607484870446164,0.341459395764312,-0.14435608878458075,0.5379610457655357,0.3332349756047646,-0.23677944507411142,-0.015186287705712339,0.8750700951955126,0.23545385517842082,-0.18306039172011873,-0.8131753417292452,0.5121590938357399
,-0.7371297894937989,-1.119466102356231,0.13073098993143417,0.3189289842346183,0.4984986277472419,0.567432748680724,-0.05287784024769281,-0.6148345810260502,-0.1739916710233103,0.3114712890350392,0.5335006904005465,0.32655702045716756,-2.0229196277302233,0.5167037331011258
,-0.521887693846613,0.06451428514708908,0.06263282149745873,0.3289668234016849,0.8795519529261655,0.42368989600806867,0.04312843416907759,0.04002732584897931,0.3939369515829595,0.32004634059119286,0.32832042670508144,0.45356918702650617,-0.1655040701867599,0.8378482750124441
,0.2437388917065067,0.37551505574117366,0.3685497889221407,0.1410904084605364,0.18323260914864473,0.3552146139646899,-0.2064147229236419,0.17955493187960622,0.1531334866595511,0.3219083306898609,0.16488835574637517,0.11747745013535607,2.6524283944305993,1.0863063872372634
,0.0980679267239658,1.6332755167933357,0.4189096529129792,0.024244683264000914,-0.40968649001738827,0.17353154200748414,-0.3498098630107302,-0.20174444620347265,0.09800703872646704,0.7497027603294448,0.3633011563893292,0.14356513609494134,1.8631670215230915,0.4583330064372888
,-0.10772364419253909,0.19373849276867966,0.43193722624574077,-0.009580171883314439,-0.44618377771575124,0.1610669401432459,0.37377351838064304,0.11758153236620021,-0.009022129060924292,0.9050435400412262,0.4958334951483646,0.2472736835029317,-2.273012666274417,0.49728337961126534
,-0.5313065696201663,0.8205976729250561,0.3136568968880286,0.5749418030559407,0.127088134395421,-0.13879148959030388,0.013626874421427113,0.6024088385744909,0.03659812256839702,0.5755456251593136,0.21876466923938503,0.42487603885847136,-0.3964110761392614,0.26676865302518077
,0.08626808925865631,0.13617830179990917,0.5054625257234207,1.123214382902327,0.25326999559139185,0.13013197227080187,-0.23744431803010774,1.2134812962591215,0.5838810284945213,0.684275334025029,-0.037190477166280676,0.21926020720108222,-0.9949941124667059,1.2351089333684442
,-0.31948704716908044,-1.0973333392860236,0.30232894083317363,0.5902482277981502,-0.08787668777659872,0.17256339967337417,-0.3561986401266047,0.8088952654879064,0.4563323902529155,0.9719176912045097,0.5436507265890935,0.16598369961655832,-1.7333244983524059,0.36115367624534916
,-0.21932875985999706,0.3017467952209402,-0.03270610785880791,0.07077428291625572,0.3660895189053769,0.3927084810852892,-0.12913277188164568,0.9920029722552952,0.27587113168660743,0.9924880097453289,0.6027608734947095,0.20342128548477575,-0.31966886165346875,0.3182572035914377
,0.6347991535230932,-2.145420003566574,0.0501492255091238,-0.10719664107147277,-0.701386647127646,0.2776628977569576,0.22524858002191608,1.1427267699319537,0.3603759993483938,0.8043153611622829,0.9550307092100304,-0.20491169376692517,-0.9958680070652202,0.49676758051073694
,0.2343573373603303,-1.1692430798370197,0.15572767714768262,0.18622244505541966,-0.9955027345317935,0.031181067945744264,0.09070624387061607,0.23509249974574167,0.2918623555434185,0.7165642641847193,0.7052279539359748,-0.15419597580056524,0.4800457570882903,-0.06955239025775829
,-0.2063048327586121,1.7889669956797154,0.16385408191406395,0.02250544714315835,-0.5151641124457841,-0.17835288746981243,-0.3536164047991502,-0.04544733729266593,0.6016906324021309,0.3415384435472919,0.505630049385235,-0.027444477712786495,-0.2978162341347171,0.16392692270860076
,0.6203619981403043,1.4040977330145736,0.5329425536803075,0.4390065631733723,0.02654154772587295,0.18542726310624022,-0.5138496408707919,0.22996223401772517,-0.027336858483013395,-0.20589363617493697,0.841959003277676,0.035321304382057876,1.0468749957300478,0.7665051101991477
,0.4153275107713186,-0.5985738971142268,0.2672363770065422,0.6363829388550869,-0.1290437229061419,0.9564513901391729,0.24877938583732973,-0.14089046291093668,-0.45772128122733063,-0.0033821966054232502,0.39984411779313267,-0.08478349025549356,-0.28912146723692733,0.9533213399257574
,-0.2008113030097162,-2.169918483877829,0.33985260736413786,0.03879192120138567,-0.12131196406626879,0.9522499070382329,0.14543534982963155,0.4196420612863571,-0.07039472984750532,0.5444732468686514,1.0930154384043802,-0.17820019627798647,-0.9871380347438693,1.1273588846589002
,0.2987981187114172,-3.2536018128107203,0.23178834833934917,0.23003441103352676,0.21155669238025004,0.09500871136583902,0.1829847426934018,0.7269771339767886,-0.35346750578196784,0.42850467247735374,0.5627964152723263,-0.12335130742941824,-0.24613453742689756,0.4921870704561529
,0.044115043785569935,-2.809522390957272,0.014432920761432252,0.6253147297682475,-0.035215376337645175,-0.0588127320488381,0.4589039437777899,0.2524066205640946,-0.05515839323437412,0.28347764925866986,0.8799773082693702,-0.09692522123129428,0.015928035537422124,0.2979562197505927
,0.31381145284319584,-0.8155302904231371,0.08683243189678155,0.1328533289332227,-0.18986624955659825,-0.23184235087420127,-0.035734940799954026,-0.037272472362147896,0.05773946849230264,0.5169195927239187,0.9828218433682829,-0.01405268475083432,-0.9346917112841747,0.7868499676801691
,0.5288305168642945,0.7230569548181375,0.08189968498065092,0.03369715581798919,0.07268186885140117,-0.4204426708934119,-0.551631598727511,-0.024162680890067754,0.12037299395064643,0.7495769942728746,0.8781483781129916,0.06390623632488575,-0.37468606786537195,0.2547470197086867
,0.3029010757759487,-0.8663016606177678,0.256841332723432,0.20514150662009104,0.1894927510301374,0.26413642802348847,-0.07052866907481746,-0.06669710225553296,0.5273307337375072,0.6565904328935058,0.48751398571688026,0.05454075651616748,-2.3293889244851265,0.07968473971977738
,-0.33802120034749467,0.3866355748730134,0.1408222451615443,-0.215185445866865,0.30434460973185373,0.33161204825394625,0.3813619540318145,-0.11457249398887522,-0.049853727705578395,1.018959915351881,0.25445512295151584,0.2770389585583652,-0.3057159239805334,0.6401282466922216
,-0.44595751167900893,1.6463297697215045,0.06678006743010534,0.1265269129144414,0.15657789906878408,0.4978719598546046,-0.025231735400589764,-0.4804975800538931,-0.4504721762790577,0.7938145361366175,0.068814891798743,0.642184194820061,-0.08327921210878889,1.1787132176910247
,-0.31495498036714026,2.3895015941904725,0.10127449786179993,0.5052852404996183,0.14231629015066646,0.5344419099188747,0.13835953194449369,-0.3026538947364334,-0.025353985856836205,0.19958008556489554,0.6335761735828828,0.45348774293233,-1.9030094742117054,0.7739970441484263
,-0.6721607166804783,6.236616302307871,0.105536658958788,-0.03627297651223904,0.047620522844235895,-0.04531100623426773,-0.3615627366778675,0.008236564626986496,0.041230965578834565,0.20860292350649404,0.18754076532582,0.4028585981446295,0.8729548013978182,0.2992675539568498
,-0.25888479261698405,3.4249568530182435,0.25560319380828517,-0.15186301901749857,0.05336338122157323,0.07313033470575898,-0.734169522985642,0.9656626377818246,0.18191865683582767,0.37003154676164113,0.22290262330009725,0.019330401992400846,0.8710190501676572,0.21959834309558987
,0.2459147340659842,-0.034376939571787196,0.5781179102449198,-0.17039536584712028,0.612920789126764,0.7337933951099042,-0.43429378886793557,-0.17194947967192847,0.4373981524539166,0.6358368540327645,0.46461524621952643,-0.15885399019050295,-1.7038392036908612,0.5521040769534771
,0.20336772829283015,-0.4128869727560732,0.198030838054792,0.1407461080679279,0.061061767895519196,0.8827001840490692,0.17335861431437802,-0.11866566573935435,-0.06388986762186491,0.22194247136825448,0.26139583391594423,0.03917330747530898,-2.0872183713577015,0.9302935826440185
,0.49912581050239385,-0.9108033400228582,-0.21549883324449176,-0.016941711662947185,-0.039981245641014365,-0.2432048359046565,-0.3800044620717949,0.3439273709821054,0.3030134247515082,-0.24508288442284007,-0.16345455759830138,0.04907551275135653,-4.517903625182991,0.31056277338351246
,-0.3107561574835902,0.0830446720835062,-0.07978251923476166,0.03599774310645252,-0.024896350812782443,-0.6948133193298606,-0.7163061134875561,0.34118165095238534,0.26466228799306524,-0.1401318622592689,-0.14012057255304788,-0.021582589063373958,-2.0855893032172825,0.3587379486944905
,-0.2579180500062509,-2.0627392148459327,0.1651262640237549,-0.047055901911339695,0.13089797781552379,-0.27310938669928886,-0.3807762382270554,0.16598941525684002,-0.1493738247059242,-0.07041666245094413,0.7884275384978006,0.10098596873377419,0.9565515122685028,0.5950068702508725
,-0.124855667567312,-4.583165994009124,0.15263975179245517,-0.08281451820747575,0.21581646048168526,0.13966029115260453,-0.21968536450799084,0.7240716747072798,0.2125025442427075,0.3087127081399647,0.9521959264775983,-0.0975098971308159,0.3156728954304658,0.5724319060665942
,-0.4248173681441606,-2.6553903404306736,0.10991112411323536,-0.12601388737366667,-0.19167197128359573,0.576999514722653,0.16225753419261696,0.12322178039740496,0.24125755163041676,-0.008459092044876063,0.5589141078776112,-0.24913977138041854,-3.097199407944237,1.1455419780383291
,-0.5324792266648639,-1.7495712173101603,0.23291120713252078,-0.31673550618438884,-0.2927790158283668,0.1287481492168085,-0.142460270388903,-0.11195682578976116,-0.031404038579199885,-0.26308171114652107,0.671648155792102,-0.09918582264230609,-2.143460678372663,1.6551528861567235
,0.5617820376733477,-2.3019548129949015,0.34705283761728106,0.22017551886587883,0.21133799971259987,0.1257049613938139,-0.47324839838148336,0.12305237099110265,0.49264328131694013,-0.02108842822141571,0.6453870052666801,-0.14749899447268267,-1.277822891943797,0.975193514815277
,0.4594271843545396,-3.522351264390993,0.3286460197410409,0.12664076928363835,0.4109824577602989,-0.03011622101788414,-0.4127530110471048,-0.09394303608782542,0.24365702885568707,-0.04064831674662028,0.8731312237099612,-0.050348019712006274,-1.7130055507159696,0.1979395277010827
,-0.19278266175683073,-2.026082244242096,0.13122959239534254,0.13887260007958374,0.3865792818049253,-0.5000604898326972,-0.5478941685647502,0.02791647618131554,-0.13252756167667232,0.0877055486986361,0.2709074101433598,-0.05205063661649173,0.11165267150601407,-0.37144001842258106
,-0.46549477720777055,0.5383979532541464,0.028457611366200494,0.25146526392080226,0.6322333206762689,-0.21777859800733226,-0.41116147335044445,0.025693767638953386,0.08344553881753314,0.48061792620006955,0.7863147264017252,0.12259658921010276,0.3178842359193419,-0.160537658708629
,0.12163043123887918,-1.0674872477865385,-0.1930208249308796,0.18636481763905544,0.35486594892307427,0.2999510493709779,-0.36263022948768786,-0.20559950428803586,0.29381662692140215,0.6582730502209073,0.7927708874132333,0.19753621114995934,0.5735697480474808,0.012388323455675691
,-0.08336565636718032,0.8378613035455683,0.35608685226796605,0.06111673869974923,0.43849412511180974,0.7056590965685282,0.0304928100436804,-0.16389031073341218,0.25589472765873605,0.6380965421085578,0.08279748801215754,0.3120408493823178,-1.2066402425844578,0.14024305890256888
,-0.32204957500482295,0.4094633758943548,0.6205323294044047,0.07204681368353397,0.7877351239257915,0.9112746912069934,0.020711610959908113,0.152982879403163,0.79851906050238,0.6025090990319517,-0.17450458262108734,0.027228595478987105,-2.7039193138039086,0.5096247996042462
,-0.012422801802026217,0.8258103899465851,0.7994285976398836,-0.12778666758542875,-0.16894005980736768,0.3636754156090954,0.023804368263090268,0.6623367234432547,0.4773536187624072,0.4788390936610047,0.4054855743448788,0.01850128084925278,-5.7863922883265095,0.8555064368352693
,0.2970523985458273,3.9386817703623214,0.4342145173324139,-0.09150447450809475,-0.13174561581792388,0.12399208153227405,-0.16900413062226943,0.9307131215295195,0.24440663159165893,0.6004334902536973,1.5727233446469264,0.20157225181368682,-6.026449625624849,1.2255327678464103
,-0.07429619274881924,6.054248118663758,0.2617205910455823,0.009904875857559788,0.48390207835758764,-0.06580653833756973,-0.22732870279768494,1.6278823006847365,0.6739578496231505,0.4074583275409775,0.2665026359544243,0.2023971527579756,-2.9400513387622835,1.4840951416260457
,0.40625086932607596,7.861144661055934,0.5364790396258102,0.20334403313855923,-0.18491435822625665,-0.23862803795182957,-0.13222519430851382,1.0603629086082322,0.4413991360326901,-0.061822331215155804,-0.5638610079895092,0.0042750123353041194,-4.181161820972212,1.3277900963657039
,0.23501498661238948,7.532241529403248,0.21150206307703054,-0.11552291932134837,-0.3843827356035779,-0.183082203887367,0.17780231133916782,0.08015046110846881,0.2412634589114256,-0.01841146233176775,-0.002031877495979768,0.030295009274068193,-3.4846623098389586,0.8894020931585452
,0.8227685377230491,4.286357049749282,0.23018653968427144,-0.33879190983921514,-0.06827909398400818,-0.4232521844303158,0.2475249538233907,-0.10624479210042272,0.2103090031585093,0.4167292285498265,1.4770778782702456,0.02495271224944051,-4.26159885124906,0.38950582260453465
,0.8768374694766763,3.006836996871301,0.33000312807346827,0.00955989952643084,0.3371195043953368,-0.5633414586742929,-0.024007586737255983,0.055578838993118815,0.2981972280241096,-0.021125262327275327,1.3326578398819464,-0.07582793294021199,-4.11117479506648,0.04540116226581966
,0.7548578084637462,0.3255768816039943,0.06786836517390508,-0.08445445052525678,0.3926112453823021,-0.4597451714507457,0.06811809655715748,-0.004800472896366958,-0.09871610047187464,0.19852582741484692,0.32154651040947624,0.047098101776910206,-4.279486535800097,0.09967355469757838
,-0.05575201870705417,-4.554395405676137,-0.128828531089994,-0.5193919495300833,0.10888747097223353,0.962527780340237,0.2943294790549609,-0.1422942883483302,-0.0024066478335524003,0.3470351324172776,-0.6517470418332272,0.23749371186634816,-2.566266400209532,0.4559246315960511
,-0.18355956192196657,-2.8117885197287524,0.1848352088154158,-0.5582676045306062,0.43638988155869485,1.1962304129665071,-0.14267011340321442,0.20984001869142982,0.19976035443365747,-0.046658827034505565,-0.20616374955749653,0.22730084077071944,-1.024874575724035,0.45490451810098
,-0.1981767203516575,-0.9808123993752258,0.6855402553634267,-0.3270755102972009,0.766752195172502,0.7341316025732684,-0.226123758385192,0.24452127820758546,0.3434076490925269,0.5517224619093624,0.5039200421116494,-0.0918638474634136,1.2595975587810762,0.8021762553132713
,0.12744394981943905,0.5741403303971314,0.15956912122935626,-0.11098709351207335,0.57228334533763,0.9190612674988994,-0.12326994646626094,-0.30223551412739647,-0.1284608368090868,0.7041770566983448,0.4722593205234509,0.055329818692591334,-1.0015670651883657,1.1231249597032884
,0.3621397334102671,2.108536882321398,-0.11488178112431435,0.17673441026665096,0.4521696275601316,0.40273570480070325,0.13119226045752969,-0.18511155450128522,-0.02398506369231846,0.4766950144258027,0.48748327296675087,-0.9281596258805909,-0.6321864564556318,0.6030849977619613
,-0.11729014631318205,0.10579527333991737,-0.6096451726937966,0.12719494097588818,0.4842499829813266,0.008131616418668029,0.17353256904618214,0.36804447748554764,0.18369276203283727,0.15116393352669497,0.7316769987899593,-2.0312058714036305,0.5361482111894992,0.36498032837753935
,-0.09701431671077751,0.13627183974875962,-0.5038817384376049,0.6509777749658838,0.0005185132759648776,-0.1549850472379559,0.08424903645070965,0.5237198546733489,0.07641978767366704,-0.18106939865106947,0.13537146713076725,-1.8826161558138288,-0.015476415462217143,0.5844034950507969
,0.20950768778846257,2.7943770592261776,0.42557238578855405,0.07668111005213771,-0.0025193973755824593,0.199791060392991,0.07715020365670316,0.4963785051106219,-0.11357257478650626,-0.15187923890172125,0.3014735350904669,-0.6611296941557188,1.9743217899773238,0.4195719073298782
,0.8196895998517929,-0.10081484008141224,0.610413023609659,-0.036828582777172554,0.18529954623919775,-0.09202589408469562,-0.25656984567775587,0.9828219698060973,0.10744766693117974,0.238763692199577,0.49105881998255796,-0.7183017221582864,1.6204226919632747,0.6107508532017938
,1.10121782131326,0.38864343231225623,0.1108820833280997,0.19560301679003606,0.11357763298297126,0.45637744969727473,0.1313726185137264,0.4229870908518902,0.5049422240219141,0.358846599818469,0.44073489631319746,-0.802819468148738,-2.4012190243917066,1.1872320611209293
,0.5703385624531323,1.6637166271985209,-0.12242089487433494,0.26231471514735416,0.24030715263731306,-0.11072175967554981,0.37048968406703703,0.054457744516051544,0.4743525881333205,0.3116230990654206,1.1343895841507143,-0.560358899371458,-0.38636175186699667,0.7908148633164239
,0.37307998180529883,1.0898375187858114,0.12575768800467652,0.03631871819879365,0.1996934093433454,-0.10872808361580628,0.018637249373763563,-0.16099139649389457,-0.06572721322951289,0.5039080646895665,0.9730014325698393,-0.38588836567587553,-0.2773352735943875,0.2581140587022017
,0.3083666689086496,-1.6849448761726318,0.6623298301516743,-0.4964935186286937,-0.2431200435610422,-0.23606026155143361,0.0700731882494571,-0.30191217424442024,-0.32706239104569035,0.2448715519727862,0.2708380726722073,-0.11325670007246116,-0.0810497846482404,0.1479358783134611
,0.09795853565461932,-3.389067584398769,0.44093573974953965,-0.44676180281342454,-0.10368660225188699,-0.3294853664965963,0.015402697210245342,-0.04264347906115571,0.2585818770095158,0.8604095772145244,-0.03792717766075937,0.20720391829771573,0.15301625942024938,0.959681679682643
,0.18223833438358747,-2.874997047947775,0.25589174585261143,-0.23890610906810325,-0.16675009499517351,-0.578756669883677,-0.16952952590011494,0.3783567898599496,0.282869942808117,0.10790036661417354,-0.2620927150113239,0.01703068977613348,-0.7851027112453333,0.43385399259831153
D,0.22393278054651386,-2.9612993323439185,0.3353065452848029,-0.4668413369863662,-0.2387358244588499,-0.7526975680228074,-0.3630225841517078,0.6851436923357295,-0.03340272356944335,-0.3382934892661587,0.08510921484354801,-0.1501184518475075,-0.17842255729261158,0.2875415288957465
,-0.17089425805383568,-2.8589399896910206,0.34479606283761066,-0.16291389300872341,0.03773622973853464,-0.268821925274709,0.17996288361201307,0.1718501661144299,0.3493272375770558,0.21283194229028451,0.07906822902686454,-0.06515444677215629,-0.17565972235588,0.32385724486709755
,-0.06502227520531721,3.5512004425781165,0.5007812154934523,-0.17352807100493925,0.6984065748993961,0.04192455618750892,0.2520576182205652,-0.2946894216826368,0.11468318475299406,0.6338375324547056,-0.16039815683557393,0.1579145343965091,-0.9875614813425326,0.04709812496070616
,0.1377515733139615,4.342265048010091,0.25297577751563405,-0.5329674856265548,0.8490742899494893,0.40634625850910483,0.12149287702840193,-0.7089502198821428,-0.15027666154276406,0.36911650527573053,0.05594399205534337,0.17541817290611567,-0.783426302633143,0.7565028691337226
,0.28800419264372723,2.433283992980555,0.10447831851952775,-0.016417289837721026,0.659474847361139,-0.05257240369938262,-0.07003039942715746,-0.32994369417625385,0.24722021824223578,0.44632002358659817,0.22249805042683138,0.008941876700821973,-2.184975991263841,0.9869407878751082
,-0.12606612781652504,3.3735115620817493,0.2403438718380065,0.47368515250050997,0.49624480565406853,0.039656022989560974,0.23172168945739285,0.38547984161702975,0.5776134113114199,0.47922805942006713,0.13047089439289467,-0.06971701647678166,-3.3110249442139823,0.2964783913949998
,-0.24972228810626868,-1.6073280615676757,0.11237112626170535,0.1669358913812383,-0.12736280700697786,0.43952491343749606,0.25966847338101784,0.1367857595139777,0.4664612421729205,0.4955658753863307,-0.35327802245009116,-0.2669005124412947,-3.2046041929239633,0.024267848846792235
,-0.03676976508466981,-6.469216689224462,0.22370986815110214,-0.30835030942873215,-0.3287260518166078,0.5263336392209454,-0.005613445376646971,0.13068983225693082,-0.020754818463069234,0.06875008372022982,-0.823081591045908,-0.24081463529214706,0.17075436121397283,0.5604844380653796
,-0.6858714104682085,-5.528565089591724,0.3236193157835657,-0.2575402452294962,-0.45811590431135674,-0.23746017936218702,-0.5529967403699652,-0.16430379670244122,-0.2778992269689366,-0.14666189809539049,-0.7022258765550133,0.06079631507536543,1.7800544328105852,0.34988117262333684
,-0.43351023716558007,-2.894800452195962,0.15534293626160645,-0.13932197377062674,-0.537119773282276,-0.6367360994192345,-0.3122332307885427,0.3778186947445629,0.13317674456440873,0.1370739969055443,-0.3133017278630964,0.3003835230381041,0.7035453003305259,0.2804722108036046
,-0.3807922131173467,1.104784675200796,0.17890913483930376,-0.0532065798598778,-0.4698596888846725,-0.3846302752540861,0.03919635936512543,-0.04752443052585208,0.3507530912504354,-0.011189424459291825,-0.38632146614573243,-0.12516664256324495,0.6905938613550388,1.2047408132568638
,-0.4739058991801319,2.430512340129561,-0.18477282597989317,0.06670462979024097,-0.1257728738696837,-0.021731897122463862,0.4184859404419517,0.7291953007665318,0.29451796038371025,-0.022189862210605434,0.3803212798585443,-0.618731680096771,-2.2352896703115794,1.6594528887511089
,-0.08357628484489021,2.152959567136692,-0.7926571755128099,0.05775999678261555,0.17629955299959466,-0.2333582550592616,0.088152737940447,0.2553656630129059,-0.12593431324610851,0.05206389596162361,0.5618136808373605,-0.9416137461693423,-4.207713365633866,0.6998924515011542
,0.5207730580460117,4.034343896077604,-0.2784604744419769,-0.5545831441079694,-0.5209368339330578,-0.1342476401296606,-0.25106371464887073,0.10901979441889578,-0.4287758734402863,0.1854052397558896,0.40478873307391117,-0.5386967245733608,-5.314084176053596,0.10973343376769668
,0.9616811285882102,6.192810771113163,0.48747002402543915,-0.7625332606814021,-0.7048335431165085,-0.5636401364855512,0.2509470265874733,-0.2440881768179374,-0.4690136136985518,0.16068669928686413,0.22437001208361806,-0.5397848792033985,-2.804280381233081,-0.15983431173004384
,0.8188297820335638,6.742171364962605,0.13821221801196784,0.03822039324955287,-0.17471186068199795,-0.363155725600794,0.2781825107848713,-0.3043941654955424,0.09626167457741669,0.2948056847896835,0.44008148349308857,-0.27801466555213555,-3.353508612247651,0.24711437853205775
,0.5853199538929819,1.150956292842316,-0.0567478148384085,0.30829211738450346,0.3536322764941237,-0.20601809508454347,-0.3763214350389439,0.22239495327912245,0.30871752543288844,-0.012816281168317104,0.49595982790687687,-0.0900878153481855,-2.383544850121262,1.2691111366839414
,0.04564067999581582,-3.7907066815422987,-0.26687355108813954,-0.22821912650733156,0.6432687385990591,-0.33438188284168757,-0.44457339217035113,0.47845066030371175,0.4233662171792556,0.15461573647421217,0.43513763149860557,-0.2688513992078843,-1.9296283475592881,0.3179069037861148
,-0.8532385332404402,-7.089785647044512,-0.35984203730650155,0.055758962974316525,0.2090393352205001,-0.4121349555838162,-0.4198869012034099,-0.18694088833459332,-0.05843973146544858,0.874772645340626,-0.12934803015829274,-0.4863635792578535,-0.7086691978063914,-0.5299966640205996
,-0.9105759884893825,-5.400320277098864,-0.7190693333838305,-0.005293752017409867,0.18682956519318822,-0.18226710072867522,-0.45072280061014086,-0.39203322998100537,0.3692143462855534,0.35546030064796574,-0.2418669704542812,-0.8808433219563148,2.549492000705677,-0.3952061390190936
,-0.3976875190062646,-4.506097302303342,-0.7549825767867461,-0.38687220860539007,0.3302008248613013,0.5861572228820529,-0.09553869797047061,-0.6880615697123995,-0.2037801295048373,0.28142791652452215,-0.3732924982976888,-0.8632602018772558,1.8457670385646265,0.02021139713294084
,-0.4534268553514313,-2.5064450095478596,-0.8163222331500962,-0.5393613072852738,0.24444231539611408,0.788983104359866,0.03446317025564886,0.10237729797479332,-0.179841893854137,-0.12257361222425177,-0.7260503442592406,-0.8477472744761821,2.161208704065549,0.16311804555002787
,-0.31946085588281803,2.71987058794112,-0.35897152587582276,-0.29414419045633733,-0.18403688122425088,0.7346478653611096,0.11742699230846358,0.2600811463331069,0.38677199536300794,-0.2690686389814891,0.05568552831125626,-0.4882665408154714,2.4578750610440254,0.3104641772547026
,0.3251020930948641,1.4352118751975482,-0.14071075426918267,-0.4921257714759635,-0.4018844884374936,0.019382984919468476,0.4539069873668072,-0.296941624916568,0.3883868585728001,0.1774313457714558,-0.11184552468586376,-0.20010970370771106,0.7204266482736665,-0.23948629467196106
,-0.16580998581284886,-3.5072494077597494,-0.16100260365816374,-0.5218839752941997,-0.48721313744692807,-0.24079820579698702,-0.11397705358777858,-0.2682633524462357,0.4997696068174938,0.43396072041543976,0.8981785583573983,0.02255212660502994,-2.787350646461918,0.0728930088279903
,-0.9363073707351125,-9.739940230940784,0.12046980492995112,-1.0886013133450203,-0.1275446417568708,-0.6427929454287594,-0.42017810805729106,0.11843452054545961,0.2415076845112623,-0.3778230452776509,1.1799862246906767,-0.2885629858812124,1.2367365917524695,-0.042999286240563005
,-0.6200968099685789,-12.567497366290594,-0.14936296856379008,-1.5309522728632787,-0.537301793563508,-0.7887174958726,-0.07506970241582414,-0.09399192038360556,-0.290735662592046,-0.23266109935614548,0.4951803060387579,-0.22591202661735363,3.333057492379052,-0.19271337426351998
,-0.6631426166830092,-8.988868133881219,-0.4202849730646976,-1.2430746284569456,-0.5381464328433974,-0.636549996685273,0.09617695691095039,0.10345032183545186,-0.1026588479197095,0.21042863008734058,-0.16503022260490163,-0.07386264915275795,3.460731524052528,0.6153064531656347
,-0.07801322915201718,-6.842215685231989,0.05054200972281706,-0.4439425897778422,-0.2932829009514731,0.05059986946028769,-0.1020722894642307,1.3279936641557333,-0.34351186519269933,-0.0035177316250022774,-0.12139597447925828,0.10508599321923007,0.9671207798478477,1.3183562876923949
,0.00353285640394466,-5.782884952846535,0.39456912799913757,0.019367695418749265,-0.6702597832758882,-0.09600724160030759,-0.5317792369549436,1.39289737432533,-0.6611841821351168,-0.49964017228610264,0.27025704024969704,0.17519479447015662,-1.1380983636536344,0.7089461953408385
,-0.04971170107281241,-4.857014100780828,0.32161864525699063,0.481335713644188,-0.7026737227683921,-0.08932376244835885,-0.5357023897541031,0.6486474768240336,0.2041821332484017,0.01282847676956453,0.40800538833809125,0.08445991376785048,-0.2171813135376472,0.4653438227932993
,0.1599904028283162,-2.1058834722903312,0.35120998691652844,0.3768519812278043,-0.08094087950554071,0.49402790361491594,-0.1330144623506793,0.47107771567889595,0.44268901304301783,0.14885098901461305,0.8076234118977214,-0.1569223271829648,2.8372519721005722,0.7959837009955637
,0.27517701968637387,-6.067027909370211,0.19427075238123084,0.3317898303556703,-0.4781507555340529,-0.2997675708719692,0.3436421444366788,-0.08660513891626662,0.18633292732303042,0.24302353916154223,0.23376571214787487,-0.29988138479370546,3.104682464465197,0.29504962294456205
,-0.5553657291567367,-6.106437964595702,-0.019766567650576276,-0.45267816204823946,-0.7952775773447037,-0.43858719753123726,-0.43801187052765583,-0.8181012467538203,-0.3431839514897216,0.4119860580205063,0.9382458352252185,-0.19021742521196433,0.8684111899540197,-0.34034562422921444
,-0.20298701684579223,-1.5724575691557943,-0.017710274013294357,-0.5210695940190251,-0.8373867975553198,-0.26560538109372656,-0.3800898957862488,-0.7150657412211472,-0.40794535622632655,0.3259081055892549,1.210637050234272,0.053363607350992624,2.680447129885238,0.11895599279954705
,-0.0038444349346402275,-2.4818443204310765,0.3029691065199012,0.12503185151863438,-0.6938527461299401,-0.13798026102912012,-0.07076498827170644,-0.3156464624856303,-0.04343730896219577,0.22796933469852806,0.42493012519634443,0.32495792884344177,0.8965332585653006,0.5763778879025482
,-0.43853745415318124,-1.856180085779949,0.48105575278594725,0.08680255874703535,-0.18774900287711932,-0.5807878285816939,0.1091818613516622,0.136939718181179,-0.13049871031987012,-0.3140037773599,-0.24048328962012522,-0.13779220097280356,0.9639201486381728,0.5953269270391186
,-0.844688345412251,-6.259429517488199,0.265680878209395,-0.16501564661808435,-0.11252451114276553,0.10359897547480665,-0.059780221662777105,-0.30126633471741704,-0.39926151805630156,-0.5952965639551928,-0.34184629520983223,-0.08329738167290329,1.971888273536417,0.24736703269501192
,-0.6041883537704327,-6.021238826280771,0.18806487053726093,-0.36781344125045046,-0.3193885839140352,1.0009509185193117,0.09520395423577968,-0.2677621046760161,-0.2506371665656488,-0.3673859544548762,0.5490348609860927,0.2534306179716131,0.7564668562451196,0.11140260034768326
,-0.3472677456057533,-4.312610019724304,0.3565446124550616,-0.06036763297810612,-0.3067490889664144,0.6095863842546277,-0.21124630242984765,-0.46455066526263195,-0.16175518179255907,0.010716671279022004,0.33293386456318974,0.18230642313482653,0.16995461347412913,0.03407753745777547
,-0.4482777190317388,-2.6482553558924407,0.060622489805701944,-0.1476196135364972,-0.11082207903842624,0.18166427796008572,0.018175943585510213,-0.3840012555841352,-0.14590296920190776,0.2739472839023514,0.41616367374158536,0.048894967085027406,-1.201060183714541,0.453047528064174
,-0.29147777404448966,-2.734475605745754,0.10966721963573564,-0.14350084365051965,-0.13481189221249604,0.30871453770045715,0.3787217668814513,0.400610925758465,0.08569074995354635,0.34831948919270217,0.3534470091666717,0.3389235704846039,0.252384094972265,0.792867550975606
,-0.09449790540873397,-1.6640106295608528,0.008561402185200915,0.056820560028319374,-0.0218680375031224,0.5995340747441407,-0.08101477861415604,0.1957003996639884,-0.5540231967462467,-0.46848601865918593,0.10011194213445425,-0.05049837183440126,0.4210236670676117,-0.03546824461701607
,-0.16145109780056802,-0.7538924936053961,0.12187077704756026,0.11585742525597849,-0.11729723504579298,0.04312875527143378,-0.29752124499483734,-0.1934224914050301,-0.8055685096496673,-0.8182639024961977,0.11195597813699833,-0.11666556414159977,-0.5570678746249194,-0.11466563932334257
,-0.31225519695230886,-0.8690410609779458,0.3278556695701905,0.37490489755103307,-0.232593005201621,-0.21902789543209705,-0.13877342627975364,-0.059063702897800816,0.13537924866528397,0.0524055110970414,0.15818358749496422,0.06990176891795374,-0.41862930805211856,0.1408894707906208
,-0.6224556608961866,-1.0126936080555182,0.4158361925228074,0.16955431187300463,-0.3114238698647968,-0.3668705141718642,-0.402483848606343,-0.21947559686779508,0.2461998688817161,0.7748449797605566,0.014642680672683721,0.2112998678205408,-1.0049752559056262,0.0019207576048986428
,-0.45032714485973013,3.785549822608253,0.18324548590509687,0.5885460442436893,-0.10527758071471667,0.058457965660538125,-0.2917525228689184,0.5419367789144656,0.14967845650864628,0.6547969354636614,0.4899838724863895,0.4945818245038464,-0.6977707802991712,0.08395037566205873
,0.38880886224086175,3.8880983685490524,-0.0010497162459251672,0.4081646295841949,0.2531284140056163,0.3365976524688637,0.1683156000139986,0.5340456029922012,-0.29560718034876876,0.786326994508301,0.8394926130136408,0.2102008100741269,1.9498945722568566,0.6795984529131197
,0.7512063971363028,7.105589234191685,0.03739945269498361,0.1330633245214992,0.19375323007244996,0.2913388628126515,0.550017534803544,0.10360446340785143,-0.1614336188301767,0.5144157265001614,1.3251958995235347,0.06289478918495359,2.7050958120516615,1.0129237994499005
,0.30903447359916153,4.622779791890769,0.43139300667736036,0.8164785403888273,-0.16764085327340217,0.024573785052633995,0.018305478102811596,0.31062141032958246,-0.148688111562519,0.2658552460016822,1.0485089055862082,0.0878722480351894,-0.00648073982856458,0.40235456623107196
,0.2905213556651601,1.8253744890875225,0.5238236892495503,0.35584483923540616,-0.4004111384910264,-0.3980536129705632,-0.5657820812580429,0.34040620424737555,-0.04101087127400928,0.46591730822452077,0.7084547057493825,0.24859001259598626,-2.7014634812431293,0.6533700470496413
,0.8894337473066443,-0.67752613024031,0.5069598558181181,-0.08417003760552935,0.08552242673380342,0.24694473248685686,-0.4663680582050908,-0.14820002402003424,-0.02556620480087939,0.2837646627629469,0.8912670201412548,0.11543223187220937,-0.9902660153751207,1.0498951154550322
,0.45555060228338984,-1.1622706286279623,0.7755928901784108,-0.18908869808347387,0.28141119863349456,0.0363252264511392,-0.015541395760495997,-0.1877809457885162,0.2624113990585922,0.9747591867844717,1.4403006810200516,-0.0625452322919698,-0.07755663446101517,0.9632899166965078
,0.01996970990232144,-0.42745231156514724,0.25541243121619706,-0.06883227714993075,0.20285403372911512,0.2012337998996254,0.021287741907094867,0.36621239862204924,0.3020728429772563,1.0767994806793326,1.3102734204821946,-0.18147862596064984,-0.753176425992735,0.4836883247305623
,0.23469097974937722,0.07236847188693854,0.024743321226008422,-0.23398065746407173,-0.10973927833713973,0.3107774369010902,-0.01002777235036709,0.3194156185445286,-0.11622311412197048,0.6802275820353691,0.9066442216295583,-0.12379000520229302,-1.1022573891323317,0.3345939042701485
,0.1322397383807201,2.056337545024761,-0.09479468160755684,0.02360992300073679,-0.07209514925735984,0.1526843933207709,0.1811485547530132,0.26220482403482637,0.5050590392475172,0.4167442818192328,0.9062952658245385,0.011849763370564662,-0.22635833185374216,0.8428056018523884
,0.44335505449745377,2.956373689434413,0.1359651139698763,0.29227953355768405,-0.0158600799632731,-0.0547347789525255,0.22696135186861344,0.2611364644152402,0.37404976204099416,0.45456569651044626,0.6888003324213016,0.10639714972530587,1.1643977663321128,0.6376510331516154
,1.149752687874889,1.6781356353068881,0.6566397374024625,0.15786483966102138,0.12736169601293118,-0.13723644419091985,0.22346708416994862,0.3302953933348093,0.49389624589356107,0.32691878897557836,0.08979095126091236,0.17196938071456314,0.47167269047058036,1.3265589273165277
,0.5428287840998482,0.32257629189839504,0.6601511823652688,0.2432112277655524,0.42437463948724713,-0.02685636791138059,-0.20929374526556194,-0.08690257792184955,0.21803164312417975,0.18748832736685397,0.5873120276417554,0.10688863266951884,-1.801483557424059,0.9821079122203838
,0.19241123170502408,-0.23395056786866247,0.37974825786009364,0.15103382151241102,-0.008815483934049054,-0.4196622741929385,-0.5733892783893892,-0.747707573302964,-0.45883637548986045,0.303908234321384,-0.09778479682763434,-0.043387198051985376,-2.65775877139339,0.6205986714473658
,0.0600908525639315,-0.9125437552432696,0.4186711411336474,-0.5134103010211023,-0.14416062414748956,-0.5207829985437606,-0.3157826523396663,-0.48657918777228754,-0.2993815188630208,-0.2309478536186525,-0.46790910075417225,-0.3054412754897731,-0.7772387971972007,1.0538416876156813
,0.8593700715000857,-1.6772681526677113,0.35629611815957657,-0.15502916193818805,0.3057503470461201,-0.2864931101708053,0.37085497610888213,0.4671785275764451,-0.06657342312207487,-0.5104461058832662,0.05197009313783567,-0.3366111385286562,-0.2057790692678457,1.3782978997979736
,1.0027325035336736,0.0038599483057701555,0.5813054192131658,0.4723739409350386,0.5438960005065547,-0.22589590342232388,-0.2301721096703353,0.8993626190295084,0.5629842303706766,-0.148040581798867,0.8648295295791508,-0.2545736721565498,0.6660156644373472,0.7662426672571236
,0.21466911564099225,-1.1454480537091287,0.17516389379080197,0.018171093685290983,0.3924336829403732,-0.018258635676452546,-0.514610634414721,0.3779581867151653,0.31827262792583616,0.01438256188665065,0.632561000821163,-0.15489653025192893,2.5482001834364225,0.513493216537809
,0.8018526922101828,-1.3975742394206838,0.09538080454376276,-0.2318575572080399,-0.028147193533775327,-0.23366463032573717,-0.4535376595804592,0.029344916076503705,-0.18909794270938493,-0.6919139905201362,-0.08380354935921669,0.06251017750435005,1.7122949584666098,1.5113389907489947
,0.6142129545586109,0.549388177807977,0.2898107934237259,0.2317079459303345,-0.21402611483191875,-0.40397695509044307,-0.25606916614865455,0.254994428815375,0.2838084918769454,-0.3505025862154914,0.37347239573628543,0.10035254492311739,0.7067015840167142,1.2750555644422321
,0.3801698533107901,1.8546133541292618,0.055420604049777354,0.16856426278453723,0.03221613849572437,-0.21291295050678977,-0.512178360584368,-0.13015336767467228,-0.20044361797666616,-0.26602184829397246,-0.11459733824743742,0.10592186638301615,1.6604908627747916,0.20108005720207706
,0.4031626033200302,-3.886394368265265,0.11350993528605526,-0.13648497160871362,-0.0018519732791671116,-0.3613689485842022,-0.9028937272263129,-0.15063929602692247,-0.285445290097101,-0.43592960878762754,-0.616240493025334,0.10681631679697931,1.5387527601889932,0.22762118886812965
,-0.029571265722077793,-3.8854088014418067,0.40011675367859717,-0.23053563468532154,-0.042039727589558706,-0.00966103335092321,-0.9871423054697553,-0.3762209536015337,0.011944741071386903,-0.07316902240409533,-0.7153563629577309,0.049371194201495355,0.8802825608189658,0.29429434561350715
,0.38770804530285646,1.216337127379486,-0.011041314757541488,0.18200870296298854,-0.3544846951697148,-0.059896329102302796,-0.32717008234057465,-0.2708334744549116,-0.055773158809981176,-0.07074711781100491,0.011944423941225335,-0.21122510785671056,1.033036528851325,0.9908131640722874
,0.41348223427341074,2.837550120284825,0.11962863924045726,0.6974527026011965,-0.3489382378902577,0.003704586850460885,-0.12966781752341217,0.37349482639526843,-0.06411702060223728,-0.22927726858698183,0.5166666964600333,-0.057272500738801614,1.1059231091559556,0.8095428586784569
,0.5391372859934406,1.9587890468265272,0.2821838662172794,0.6396796941908333,-0.6281564729381598,-0.10016067116316969,0.3331029502606728,0.33738610024827365,0.2602453114875267,0.056917641694778774,0.6438375390820558,0.005275277000581478,1.150220045029868,0.646661982734983
,-0.21327821473064493,-3.7077279137561114,-0.24226562498803056,0.39368640205603905,0.01180823278718211,0.4520609771687948,-0.4627131956083789,-0.7542790741058266,-0.26952944443604265,-0.15205229109450036,0.8594960214991445,0.1877226395220547,1.422012640079363,0.43785342889761963
,-0.4190162513293392,-4.087173321956761,-0.06147566880124571,0.0854869748058799,0.5707477961419251,0.09743817217179032,-0.8649448397913879,-0.9118413651961925,-0.11333823197590498,-0.28949488506589927,0.34181237542543447,0.38039829722602997,0.08826475513646087,0.8886534839971821
,0.3413588909113777,-1.482468695784027,0.28485514369290366,0.22148438723453764,0.05005505033850431,-0.38370933009969793,-0.30935500682045985,-0.14539741610914383,0.7030405110449195,-0.5063291081234582,-1.8498737471301705,0.3973457493006413,0.8043033322336111,1.134964842445058
,0.8110675317205953,-1.8844983182483424,0.4198584256425718,0.07006473774608038,0.19116756315519343,0.41131825044887127,0.394130016480219,-0.00611738806038435,0.5261378073066908,0.0972007855256665,-1.5823204855379909,0.4107078542553594,0.2111056550172682,0.7766163197677863
,0.23675705744005043,-3.508379925724601,0.2510156110486582,-0.3533531540701473,0.09191677780577863,0.7524511847833758,0.07884944518921976,-0.17720629724677384,0.18623270472490197,0.3990727743827524,0.11410481514980347,0.1808716828444786,-1.7949267958954573,1.167376229738702
,-0.14406290632827573,-2.947878414880386,0.3962879252371292,-0.23443307838926541,0.012673957664053584,-0.1159819238176289,-0.29848430012295374,-0.6812117432302547,-0.0531450995880276,0.5166898369387118,0.8709521339327404,-0.10630882014537639,-0.7688854256447542,1.3145119778420455
,-0.04469625802827656,-1.6227493578145067,0.14557811020024164,0.2577151298449728,-0.2136308120697909,-0.23497748133264765,-0.11176868572704715,-0.3947159484416036,-0.5755132660817881,-0.3097359681693611,1.3916687527544733,-0.010851644313925853,1.470875875434797,0.9289118275193032
,-0.0025155684716694354,-0.3499083158827153,0.12030343480465751,0.029917771689111732,-0.22429215339781777,0.05855482275121464,0.21250854935980634,0.08094785226721121,-0.6076002891378495,-0.8204766132011339,1.4429637120285062,0.1734983978707236,1.325095932651766,1.0950552719452193
,0.6443393671864971,0.27178812441649813,0.48353082454765733,0.17589507979876126,0.6580718060354595,0.34227252227863547,0.5637070855052534,1.0154633216515059,0.42638724437008463,-0.3366636491400967,0.8295975091772968,-0.12702230545900975,0.009912009578608928,1.5663811890697439
,0.32593465420782625,-0.6800115306515313,0.20134778961806196,0.34404100871480847,0.36224437647750013,0.029356558005692937,0.5768183304767747,1.1671642983467747,0.41489174165691495,-0.3403477478510109,0.3665080557855292,-0.0752157229112459,0.45487331823439403,1.0481828099489912
,0.061901220240366296,2.44644519093399,0.0689950974002681,-0.0515514504591744,0.20742256074944904,0.22702603672275623,0.33059843240122877,0.06617948648860579,-0.015293257981927136,0.18748035008162248,0.087041344926751,0.1094816967081954,-1.54050073047001,0.4426056004367298
,0.8691050184976933,0.552867994821961,0.3908272049614419,0.03932347276521047,0.02977712718417047,-0.4520456696428168,-0.2129643227657815,-0.3394602797823286,0.25559030432670965,0.19859992688279793,-0.8429607231022342,-0.2644315282486066,-1.751839263677657,0.46071365511924667
,0.9024100565630002,-2.7019839326727952,0.27553268434316025,-0.5674459998952797,0.29414149228473085,-0.4766294689534152,-0.10612956060922159,-0.06251826965717411,-0.002502284432888647,-0.2087910151143625,-0.633498411192767,-0.379340281753004,-0.15670540648288753,0.8165796987338456
,0.05384034993685366,-2.976534551592345,0.21159197324014956,-0.3697306073725709,0.19926338971608398,-0.5099515385162666,-0.13898165202007917,0.06187533587995669,-0.17202661044911782,-0.1205710210150721,-0.022147563740847385,0.012803822698212945,-1.4256843707899416,0.9840392651813968
,-0.8452258665194452,-4.775384456854218,-0.10573499479282299,-0.4971626615384989,-0.15591156713800372,-0.11633542441610843,-0.21581859970241674,-0.7152975731296825,-0.3429017754687447,0.14401001409787884,-0.09690552479531563,0.3051268471619342,-2.9140882532206227,0.14525816389802604
,-0.47609361319827326,-3.198909636839627,-0.20520486660142234,-0.5528115343181067,-0.2728092704563338,0.26148314684389706,-0.22575277644010072,-0.7370914155892702,-0.5317823245971496,-0.10885209275061127,0.10564957816459411,0.030039272533882472,-1.485188301311475,0.12152469543020662
,0.7808458502577929,1.7339104984505644,0.3393409305062254,0.19532578264826617,-0.219585372202035,-0.08743702387781638,-0.13287713781732574,0.3690032847498573,-0.0984701811061465,-0.23600732982028788,0.20024634052900073,-0.058893699015069766,0.9524434377872741,0.7822782175610675
,0.6051050896091992,0.8481923853249094,0.37155149186789904,0.5845326353534914,0.4237394960080645,-0.032478280126164265,-0.17013207183319937,0.08895933435575895,0.5288467220300119,0.30277085429502687,0.0016444947128240383,-0.19660092881995986,1.112184734426255,0.8523662067643608
,0.24520209576595975,2.908042473889051,-0.14096092803883298,0.7896842130311732,0.2011196144796379,0.12144626362878365,0.08170592283106841,0.5362641102734276,0.6177874669065494,0.4935896890853151,0.7225837879296317,-0.2717611587565833,-0.12779491716017027,0.358524838135838
,0.6372219400633903,-1.6494562988519499,0.05000684339019141,0.10840188275562782,0.13064987470804637,0.09101243660050146,-0.4005201751641058,0.8528673303268356,0.4588872287196987,0.07101404904469172,1.5601608173243815,-0.09615549695073948,-1.974648491883668,-0.0033120439372004615
,0.6628431279982913,-3.799383164528023,0.44530080937104616,-0.19004549257514758,-0.0472964317015693,0.4049659512773466,0.03802204095466729,0.3486291517197128,0.34446760551207434,-0.09598427565251785,1.727250557897094,0.15407043176196955,-4.132137889751019,-0.07208044059624447
,0.8988721590356084,1.7776987272682228,0.48940952688748696,-0.10768924684246273,0.041744349647527816,0.3101989897957591,0.1013169865629157,0.16506264371186333,0.24285978772151037,0.1340029610269255,0.7146412950426373,0.5160109342665584,-2.2055248019374485,0.6572527946444257
,0.9744654787306349,0.11955947095294063,0.309903743057196,-0.2858305052349773,0.005710059215152098,0.40182814050056676,-0.18279653933135642,-0.1691697573856127,0.27586025030624706,0.0013818591773944924,0.16179458489522605,0.26238302263149427,-2.842513812205051,0.959907829427993
,0.4425611581056663,0.7882149710383809,0.25089625343350447,-0.035864107225707806,-0.20913753426905432,0.19641873898680628,-0.1523487406294055,-0.2061938210361242,-0.26906630652856645,-0.4186590585797172,0.25258738830378596,0.43849967191899125,-1.2356795819737798,0.704050403730865
,0.5131837979037482,0.8419636725323041,0.3177945307815539,-0.2711603200553775,-0.6358783211385436,0.20206204297331742,-0.09092570353004986,-0.18313297131755732,-0.4224471995576289,-0.3608130184299292,0.5891631311280568,0.1613754921990504,-1.454769862351764,1.2822235661242767
,0.3205455739483848,-0.7330165624256787,0.20227993135472855,-0.2521508270893379,-0.27559452869166035,0.7552733746407155,0.10801924913135195,0.007602750133719666,0.31856592481527035,0.17113066108881578,0.75204644735836,-0.1523317421973015,-0.6171304053465921,1.2178883465655448
,-0.08531972117486025,-0.9513215590498432,0.15361630902824436,-0.008091039238398974,0.7631860047620629,-0.12037956325728612,-0.10936989460910686,0.14715860690648752,1.4628971757761324,0.30272733552249464,0.5327810668007333,-0.23025934270892368,-0.24903929837516195,0.6887419047218049
,0.17866753315435316,-1.4568078099245012,0.10520039449623021,1.0623484426793293,0.4909663486838436,-0.3724897788987108,-0.25826532378962236,0.46137487984683623,0.523488568374438,0.31450747962045505,0.7548731492091821,-0.2248255152994177,-2.056094929392394,0.5271078468054881
,0.5448065672832265,-0.724003928866619,0.5594876121337878,1.276971163972763,-0.19239606829312297,-0.07855180763746102,-0.06735140724029416,0.22312766354208033,-0.09281213091669177,0.22335362932187872,0.94388962252191,-0.17196022769114708,-2.6807567836799637,0.5807417975867682
,-0.010181701502541007,1.124640500565414,0.3284407352547319,0.6754072607709226,-0.20713857308995656,0.31255987400189356,-0.07429326764060966,0.2906745997450897,0.26095116052572703,0.3238933162971597,0.39177315152913755,0.29891015593707987,-1.0916967379625575,1.1165850394823995
,0.0034427410310960784,-1.8433488274027678,-0.06259265365829945,-0.1315990893810122,-0.16203735478044215,0.9291116572241825,0.10456907176939027,0.1765047367109514,0.6776395570086822,0.38029592454978034,0.3385530657154248,0.022012701427484467,0.9447179950959289,0.9124010085331854
,0.04362676607797719,-2.7712928937805104,-0.19279899227121364,-0.007352459489590279,-0.233802653168414,0.018549577612453277,0.16840374923376597,0.38475500359537,0.485435112059322,0.37430546166107187,1.2911670408760847,0.06074675865806202,-0.10407530209525152,1.1900777845125645
,-0.2152730654105057,-3.3509434423838833,-0.08215730831952825,0.49902864157961674,-0.04060580580281816,0.09840878484315994,-0.12566366159436393,0.17960882474279552,0.0964494344881222,0.3893113526741118,0.22912142442791297,-0.06580926269934108,-1.3854976622507547,0.7429786046132844
,0.10823836579041134,-1.0537697411487914,0.36336815775068637,0.2556208192601837,0.17340714913432123,0.5079873825281516,0.30315820171481994,0.017377015454002075,0.044526707329898024,0.4654379708573537,0.15593476819445698,0.05726358673063628,-2.2329532123231797,0.4520697267768478
,0.35566348068465303,0.9988883395881395,0.037216174892914525,0.05974271832872874,0.8095282207066723,0.5746463843822027,0.42184017984787464,-0.4453963657276408,-0.5500851641789201,-0.12147727517592485,0.7543859952194676,0.5048418034706932,-2.456161423650272,1.4368886752979515
,0.5600891572889657,-2.32459718093604,0.21238339990212082,-0.5221637106869536,-0.4780045138416294,-0.5667265307831747,0.2237848727094433,-0.1883254558458509,-0.8971909315471465,-0.633774784644017,0.24301196649335297,0.11954893234450444,0.9781560514943373,1.5499302114611009
D1,0.37165399782869474,-0.39493123521493156,0.19446780389535512,-0.3091912681309862,-0.7104113885316777,-0.7643995599084139,-0.07662614306287055,-0.11768798396157801,-0.6847123955207091,-0.049914782234693776,0.05271861739903215,0.045574978652152695,1.2498735221324886,0.6056917855423535
,0.854326505618193,1.0373732500737791,0.07744146909723534,-0.1786475665416438,0.01996611722374982,-0.41474292209988595,0.3375715186732079,0.5550965890232494,-0.2731573303092377,-0.3334371701178192,-0.09657977764891473,0.25842222295100714,-1.5913339983364179,0.6147648051430252
,1.046641213073272,-2.5901679412443945,0.16237941802889605,0.08825349949407563,-0.19714091359384087,0.10157134144615325,0.6405362541280671,0.44474353703680525,0.0879286809603498,-0.15539803936132732,0.5252397485041338,0.1723092480917575,-3.116591366436538,0.6702997254464702
,0.8008780724780449,-5.6201081908663175,-0.10808381553094171,0.40326654109221244,-0.14689302120168146,0.08414014339611142,0.13249107935312246,-0.15928727516712032,0.10503886253738057,0.12016516875363721,0.6357897436698688,-0.1459607125134721,-4.405998160394684,0.3217323809112044
,0.19236521116882316,-5.136288590641018,-0.13100348444591056,-0.06261821227253826,0.11951042560052712,-0.005550484013066501,-0.3753703271274188,0.33903853679319146,-0.052493592272106246,-0.28644252506492557,0.8137157858204088,-0.36078563077477516,-1.4354396856931657,0.4670371755743018
,0.8309902581669883,-4.117130169760882,0.12220640581286181,-0.3517249525900141,-0.2051109617402781,-0.1146098629781111,-0.6149364095500739,-0.0004218460477217224,-0.470372692404809,-0.07329698339923296,0.430512773174258,-0.3099574943031517,0.4968763922131801,0.47568837330606367
,1.1248478410957492,-0.5498332187247813,0.09942056785324785,0.0042929784543903025,-0.39373169270127484,-0.5249017218861287,-0.4871832089259576,-0.4674756166600703,-0.23007302550240172,-0.01380719350649534,0.21801159696853634,-0.23708064654734726,-1.2755022232029607,0.2871544531450677
,0.2768059113238026,1.0712677067456118,0.013241216981253046,-0.2955849087823254,-0.40397255885572897,-0.44135523157019724,-0.5147014176296382,0.2824399758107735,0.10270314830780466,0.1442538893230067,0.09850779162794192,-0.3502451898259356,0.5059194432273681,-0.20048131629111904
,0.19479368477040576,-2.399394495721152,-0.12801464074361546,-0.6390744600347542,-0.10508672399216303,0.4588249533252398,-0.20851639475202083,-0.08575393601846892,-0.44908818236874565,0.3068743097664591,0.47409890405079164,-0.06218506860270232,1.0712947075262247,0.3577270814947205
,0.1125515990474809,-3.2633903472942887,-0.03363164079263027,-0.5585101787086952,0.22757328630364546,0.9022342901511852,0.16857432978235065,-0.2773910395962879,-0.5272413821744037,0.42346807956143223,1.9016794051336945,-0.030478498796075372,0.3315898667770384,0.8866619331138839
,-0.106758273321964,-2.1296091270145556,0.06183531772913166,0.16694477477004133,0.2416746024105652,0.4728106480657451,-0.14365103145577465,-0.13577851542096103,-0.03493868832791898,-0.14864224335708187,0.819113961359038,-0.22361098682403185,-2.2127813358457864,0.4473482177293662
,-0.1803048629232709,-2.08211496560893,0.36866195464232737,0.8999517155120145,0.3125523446151377,0.09404670400249934,-0.046824600526740735,0.11600700243144835,0.23249803797836227,-0.1769460403641415,-0.14468307571835617,0.24985177431323538,-1.8184567493038595,0.39438037627192096
,-0.11245442391474242,-5.209856856934424,0.2039150204843499,0.17408016534576268,0.31387589192645304,0.25545073412587277,0.3084505144712777,0.6549641301153926,0.5093246226186351,0.6419192466799807,-0.5491954132049051,0.2738910329999975,-1.724949896612743,0.45537011523952875
,0.45698723268275393,-4.864397386386472,0.17230019812294795,0.19887508901623877,0.2869504822416786,0.6715013013473263,0.2901773868709922,0.2760961636331031,0.21774014658523919,0.030212347460682694,0.17802216653959507,0.1335209535573056,-2.2619965264499386,0.48737929812611475
,-0.4279892933448931,-3.432561962250814,0.16894558191758874,0.06862099703413213,-0.048733624524235276,-0.07622133781077971,-0.22379355428591333,-0.23618319181443317,0.06731152465437393,-0.28308019748627916,0.4464600180669568,0.05703838485098226,-1.937423796442936,0.1582077269940813
,-0.6098708301494786,-2.941652651463233,0.16959419109900284,-0.8292800498745893,-0.2731237360245945,-0.61173408108825,-0.395783831497109,0.16040690497519872,-0.1925918844143292,-0.05805967399897261,0.06736616930866585,-0.18339867774133906,-0.622367823777215,0.24866519584687644
,-0.3957892575559849,-1.2706797312288247,0.2850788906569921,-0.7638876328608571,-0.569659063451716,-0.482660329311366,-0.8121379444600131,-0.14585578410228697,-0.4895902789662181,-0.44594625383850717,-0.4340617472019734,-0.19999844464601696,-2.4767696501411156,0.039950463452341704
,-0.26507855884494086,-5.897169678876622,0.15141449351566083,-0.41051209211597467,-0.484610184457668,-0.22477979021638594,-0.5119794257907099,-0.5743076132245639,-0.32435306095690375,-0.5315212805934699,-0.5178560752994584,0.22637710550479448,-4.040676601677837,0.5902929518512983
,-0.2586554769929769,-4.501769533490836,0.21559953817275482,0.17867774573830436,-0.1307055448512403,-0.09799810853846233,0.4589327850734415,-0.19273855826827446,-0.015934855678856868,0.2951294649143739,-0.058352073932816204,0.20479299724472783,-2.096610352269267,0.7884215198072336
,-0.2039069449789671,-1.6822812956753828,0.07680854863781737,0.5935703337351065,-0.5424103785793455,-0.062286156650750886,0.1016040001517117,0.2897446957755153,0.04780246601765166,0.08081919636863069,0.7284505421505821,-0.11836598163046122,-0.3283553123530108,0.16263842109711169
,0.2661921384738707,-2.7651693221379317,0.09427652564745123,0.3905047753552538,-0.19743431484225,-0.027645975693598772,-0.016007437384351807,0.7723223843975232,-0.01771218843631498,0.014654244163094191,0.7276483542123974,0.029622044167106353,0.8233147221653705,0.0869310894486743
,0.6792780953573174,0.709317158205083,0.102676585013561,0.010900654225338409,0.06746435228057043,0.1411776811873306,-0.1310266876149618,0.8541644356919117,0.043919442605536096,0.5789539722277122,0.586809921045816,0.18071738934021386,-0.46908522761187055,1.1341040271180682
,0.34159131994406966,0.31419688850889843,-0.06641952170015801,-0.19391624931844595,0.0702284781412624,-0.11919912329128769,0.07884958379251882,0.2152075346026235,-0.4093269708507383,0.2565004108397311,0.4063351990278653,0.09847697374800651,-1.629410486810443,0.6027510980341111
,-0.016309494351578944,-1.098915000857794,0.17085234357894022,0.616284355104835,0.35974560787023896,-0.06651217718506079,-0.27289419389019903,-0.29154666492566866,0.014105620924198288,0.539247933893975,0.1540004813736778,0.05619573732336548,-1.5724704037466013,0.4564071895379407
,0.24377315192688348,-1.5820993053746912,0.2961507356565879,0.3698984710889082,-0.1930780945557505,-0.13942302472976725,-0.25446513138295107,-0.4400501390753931,0.47628447251713374,0.8937205857668379,-0.025820227337494915,-0.031340474075518716,-1.2835039761838158,0.6424076727656796
,0.3978960476684419,-4.0411708215015985,0.043791846476444296,-0.35665482751461675,-0.09883179070675752,0.38710797459481366,0.09599154669298342,-0.05746940368064906,0.583776841453352,0.5645725113875347,0.3356621424991299,-0.2804029479349131,0.16133702452486182,0.7368010168598209
,-0.09904926960509174,-5.11384875403676,-0.002296497039998457,-0.6581084402308757,-0.3332140432592165,0.7385150558970351,0.49643733369044646,-0.5929940943177318,-0.07806126977290083,0.46844904933860476,0.24245145819405886,-0.16337838179187447,1.6248540997044867,0.5077864417712499
,0.09968998155135375,-5.535184538042633,0.16951307157082998,-0.35046785602782093,-0.5108698606183418,-0.16673169368030127,-0.0014070838318643456,-0.506103652578758,-0.31507058883997774,0.11205219964238691,0.040716705014994976,0.01835752734511464,-0.6719537900194757,0.9155760909829712
,0.30180151467863414,-2.750311942754246,0.22690472884547577,0.5165864218869349,0.16272139349529718,0.06673338153089622,-0.26751326087264465,-0.19206324954796736,0.03834495207149323,0.28389412100706873,-0.12008228750375931,0.21651601564050227,-1.7317947768050488,0.5312662630079233
,0.4267153294840837,-1.2792949751531446,0.21273574902412187,0.5764012150652917,0.7637299512351833,0.4342772285416998,-0.233672633284695,-0.20039707561437803,0.5948045634336576,0.6562321676844739,0.5740504911610753,0.13396810684953775,-1.604651197390669,0.40249260046685914
