event,eeg.af3,eeg.f7,eeg.f3,eeg.fc5,eeg.t7,eeg.p7,eeg.o1,eeg.o2,eeg.p8,eeg.t8,eeg.fc6,eeg.f4,eeg.f8,eeg.af4
,-0.10781528523317252,-0.7963151430797804,-0.16506986474813673,-0.47271713051842956,-0.27010706433487064,0.04185932539509764,-0.12393120641998846,-0.26610294862834816,-0.23847925412309592,-0.03166112515214048,-0.3260292327339622,-0.10260627661037752,-0.4740555950328268,-0.26367708887596686
,-0.19589246945962283,-0.9128680346095831,-0.25577542898637157,-0.5841934186318991,-0.22737237319236406,-0.034776169425506286,-0.05537191699266403,-0.3399361222849065,-0.2731863162909032,-0.20769146716504933,-0.5167714643428319,-0.23109654104801436,-0.9487255980059778,-0.44957446015100055
,-0.2994401893051669,-1.1023638893039411,-0.2539729578797176,-0.6318722255549619,-0.2788315190954019,-0.13292799415728132,-0.1124372337812583,-0.07566640265928186,-0.054725793589427224,-0.029399182463216798,-0.44944798759563725,-0.09656186213362353,-0.8600839981422835,-0.32759657239294404
,-0.4203188956135928,-1.2437317898601243,-0.13408127287651214,-0.7393786696783669,-0.24916368512738896,0.052980459574134296,-0.28399836090820857,-0.21785139654579644,-0.18510301482731634,-0.12998301309940277,-0.2324936069048295,-0.11573755568454881,-0.8221278828903916,-0.3886445517843688
,-0.252351346991961,-0.8488383117554696,-0.2072267497926411,-0.5867796754987391,-0.09933132986871673,0.24953363906526313,-0.09846886607911617,-0.2975483374647694,-0.10428965502967852,-0.0034427462181716227,-0.1354792843435952,-0.14743806564579157,-0.4792099636829394,-0.2295443542443015
,-0.13786622393347817,-0.5601902952427964,-0.2337463215559881,-0.43194518312658076,-0.1688438769517527,0.2074154145610076,-0.2345784797548063,-0.21776304018527454,-0.07501109983686571,-0.15295218633215618,-0.23935575530447611,-0.012439591442366693,-0.04552326223644524,-0.16083938383167312
,-0.2032471500113638,-0.4456589822847597,-0.07854977933314164,-0.30532062506116997,-0.20204867730920945,0.08041985315942794,-0.2502799678337884,-0.1841460833869388,-0.0556765179049804,-0.08966249043429704,0.01030132117040253,0.0644341773800947,-0.4277090380585325,-0.17562021393132457
,-0.08194662737269548,-0.40629087812548803,-0.008604345843048608,-0.1945335498265584,-0.02098992341338731,0.10630268659877874,-0.1358979391182815,0.16142533506596973,0.11122286324673232,0.016537155735605585,0.1641326061231659,0.05373370328888646,-0.7350169458555402,-0.06821321054613226
,0.003689639425118434,-0.7119072011472898,-0.028535524885824223,-0.32968348146928367,0.14087355688789105,0.3436197781080678,-0.059021409742022996,-0.0445211688740725,0.06976792098765085,-0.08689136783374708,0.1276565956631446,-0.10989867054210407,-0.3457191026549103,-0.06277979545113935
,0.10850839460074264,-0.586248947805789,-0.10566855174408225,-0.2738024399279084,0.119644727034374,0.3213038277292188,-0.0013688265924764421,-0.3088217414535139,-0.10923217514377688,-0.09052145824032001,-0.10615797087213817,-0.08357428035780984,-0.26259479624535587,0.0062918002558820345
,-0.03954222332161746,-0.30648430393066955,-0.12796010914427736,-0.33104343129205543,0.013941344531118866,0.18932107961097572,0.002328665281476337,-0.37522032526965315,-0.05937017004650362,-0.2620839999916968,-0.09677016202636615,-0.035867971162647304,-0.5510037896226916,-0.13051140523301066
,-0.1773491161514955,-0.9446830838590157,-0.15486438570105807,-0.5421905381193549,-0.14328821405314335,0.12693312725575967,-0.002472664237696199,-0.26823068326203625,-0.14724511243881963,-0.3564127215433608,0.05487685143850722,-0.03157834846558678,-0.8008373150455651,-0.29501403869092624
,-0.2079496947556989,-1.0752659251492902,-0.1860319171146055,-0.6666105861009882,-0.2717221886982438,-0.09125441363082758,-0.17183059325374347,-0.11181838818512517,-0.2523665098474595,-0.3217978498494492,-0.2247150367102306,-0.18853344516229206,-0.6907389259737744,-0.275574725831139
,-0.39398387132393276,-0.3452392376015522,-0.14497506607981592,-0.4190512526130972,-0.3802315663193293,-0.04242389753970098,-0.2453632794094082,-0.1577806258264879,-0.3808521393957401,-0.45271003549752703,-0.2940323531796409,-0.10059160208772504,-0.8129764066387478,-0.31716392139256216
,-0.11110232034812166,-0.3169988538409791,-0.08160953459014833,-0.3244660551254665,-0.18959739375350163,0.14192488064649147,-0.15212594453460687,0.025437151096726653,-0.19607913407281163,-0.28069310440591194,-0.23232711685986437,-0.05893625839332764,-0.7404057271497454,-0.25075156898849443
,0.18421467870053973,-0.3252662996254575,-0.025909064609591883,-0.2684858567759696,-0.07905815184312012,0.03151674939966845,0.14085791578634588,0.10248036050205733,0.14108458985597583,-0.19102301875689826,0.00711515468798273,-0.05398688900291959,-0.37237657126726914,0.02397013757086428
,0.17413109266450977,-0.292557386199019,-0.02268347737107655,-0.17037490507930064,-0.2100855692166279,-0.232571698846501,-0.17877169290252284,0.05735080183016314,0.04639495491050094,-0.046753309907964925,-0.08184808569200726,-0.026605430513307972,-0.4780356610908015,-0.06760091122538496
,-0.22760619177850236,-0.3933172309120292,-0.06883664965772729,-0.1935882694845649,-0.12644362902935571,-0.2292960966533743,-0.29143845964504683,-0.03596983606126898,0.04259871652293512,-0.19919593672362973,-0.06148665983958828,-0.1826431924711523,-0.5072851496308574,-0.261027741906052
,-0.39829807454381005,-0.28081449705204437,-0.07004973381812306,-0.20984266795351983,-0.10983186455472706,0.07570261592332533,-0.2511150155506526,-0.06144761225258809,-0.014170248895784793,-0.09462592282553872,0.07542803153131897,-0.08312074911305564,-0.36695334928343887,-0.15568255819789914
,-0.14717570705444352,0.031116322551498835,0.061294219092472645,-0.10056712175190367,0.01960151521186214,0.2494041064414324,-0.23027754391761215,-0.07811731612550975,-0.05105187688779055,0.08170806268178622,0.06254287067209831,0.03587820297733497,-0.11182488618197745,0.05438489564280382
,0.07940220172689488,-0.3415652478137313,-0.02398651791887764,-0.30813554694707523,-0.2257922715183534,0.26941366083942214,-0.06000607053386955,-0.16423241900883856,0.1422965688824536,-0.03603349227051058,0.1063846267086442,-0.12607661907547885,-0.16926027025505555,-0.25248173906649346
,-0.1653879521038419,-0.7904884465810628,-0.2628864905076475,-0.5657275846021067,-0.3630923782540265,0.11044986401443849,0.25883385955662264,-0.20763239307142664,-0.039314835501566954,-0.05808487964214277,-0.07049631997488584,-0.16304316494802254,-0.5909565169450549,-0.23683158656404857
,-0.17753569032889338,-0.5748110912350429,-0.2027945267044346,-0.5787029010047896,-0.029840100547054087,0.0017543208070925655,0.3157844370167384,-0.20920848354011404,-0.07713663378934255,-0.09882837957764687,-0.26792416114101486,0.008582720664554832,-0.29111929841368733,0.13811204922977385
,-0.11658636204750482,-0.6655525616765848,0.035020852782961936,-0.4662787583363585,-0.0369083211953881,0.028239655869216864,0.2292127755049873,-0.11219734680592164,0.1660545056237488,-0.11539087036005924,-0.25788791293023466,0.09720261219078634,-0.30030173989235415,-0.03963303745326371
,-0.05342431881102675,-0.528900274005721,0.13024773843947776,-0.1879284983910958,-0.13131935330597513,0.09693593837997254,0.11049056523394393,0.0048531732736154035,0.23302903036225486,-0.08617629588646054,-0.05710797623925023,0.11203508679381213,-0.4272422220212247,0.1165794513393339
,0.010454676810090009,-0.47395103352144025,-0.017248960501583453,-0.03847233985242054,-0.13754776918242867,0.1848163824641511,-0.07681114801792008,0.028438240792604624,0.04796028832943442,0.010938106837800752,0.05296987142830995,0.20485817397473755,0.02937155909487367,0.021862943340166113
,0.17015713437466526,-0.09223135957696689,0.018265774865397474,0.12186853614790961,0.12784190960044747,0.19069147196244465,0.005583617032126672,0.13863119671332477,0.07076272099737811,-0.010410076602696845,0.19835377902144846,0.16335579188603747,0.4455701399907995,-0.14260911582360963
,0.2709229919471565,-0.038631409002652294,-0.07465279712808451,-0.10659649921823751,0.1580494811719444,0.0741326080217893,0.07006951082640817,0.038693865576460436,0.011895926134115917,0.05142916384898392,0.3097342878712227,0.21453014783373742,0.6528929643309054,-0.02146145790015001
,0.36560309939165186,0.15864980214218002,-0.47803617155725897,-0.3450823576971318,0.08993667973711916,0.06572856718645234,0.03210503286383546,-0.26657601855511126,0.092011067116792,0.07927406065227326,0.470663497000206,-0.013376241947334208,0.5437089328139378,0.13861403246215903
,0.19946341283088131,0.21886180414463766,-0.45197473249800396,-0.4779860603572299,-0.04439378988361739,0.16185497851296002,0.18317662624699693,-0.22888301788920312,0.24176872143886935,0.013477538045819182,-0.00420302207901918,-0.05452127440389423,-0.15316988676516513,0.13757610804943896
,-0.01456047861867046,-0.13747074204599677,-0.1949218938268202,-0.3530171526892969,-0.20372791784104805,-0.01670630388147432,-0.039875918045677645,-0.03696092629676049,0.08629751873799332,-0.02540505865119577,-0.11556762374238176,-0.09641022065808297,-0.39117821028326233,-0.03495337537427688
,-0.0020564132692598683,-0.27997487062065024,-0.08587284019067527,-0.09225827888948414,-0.05465843791113537,0.0878279797839244,0.056832121504944114,-0.0018918315638510289,-0.03842412009060338,-0.11878130184803105,-0.13527561641077282,-0.009305236197311769,-0.00926216894983967,-0.1207252619677556
,-0.011727019440041113,-0.11226727051263197,-0.02951507719694666,-0.028253304380879567,0.030828393179296868,0.3799342368448008,0.1709946286346323,0.06279641727207791,-0.013361739007136691,-0.10632549753029648,-0.11695546870432957,-0.12792746928286802,0.05013098342076163,-0.011191525319878723
,0.006577909910918592,0.2234658131572145,-0.14671135727151133,-0.010280117196998716,-0.09412413735215287,0.26218176519262176,0.14296780141385243,0.17285631178971733,-0.016773774266777366,-0.04803101850425253,0.28044525031565426,-0.1835668036065651,-0.08486365284749318,0.1609241434910501
,-0.3329550604552089,0.31395952380559244,-0.20414466732055545,-0.1819690298862108,-0.2848757784356146,0.1597379997795592,-0.024025131703694358,0.06415692699078136,0.05530029322665385,0.11434003685415395,0.046671109268579807,-0.12249486972507308,0.26218534318025555,-0.034344358212507475
,-0.26195521609266054,0.008303350590688399,-0.15755486213369305,-0.1330090240550882,-0.17725077964917899,0.08779291656767658,-0.10771194424717462,0.017055387406175484,-0.054378889478649245,0.14249759689439268,-0.04221805406644975,-0.001211599951051728,0.18002117987587404,-0.10727776091093055
,0.019243838959505762,0.07862498441449435,0.0399907468114706,-0.0789585097455901,0.021164296042180016,0.0491377290328576,0.009249506268944939,0.10898608311554658,-0.047204040059492455,0.07794373289991088,0.02027351404270613,0.1058033286739789,-0.21014335760893915,-0.027349261396759868
,0.0757025234333861,-0.16053050193732016,0.14738197569927383,-0.08726778676819961,-0.02772548320216199,0.0964329205978884,-0.06205946677439119,-0.03364363190640831,0.12835332293141385,0.010992921696159983,-0.043507601977072034,-0.14988751747772533,-0.24260542828508977,0.01303187734880896
,0.2293937308250621,-0.2755367387899938,0.08612382160044763,-0.05878522349356134,-0.08475565764272133,0.31011731647915275,-0.03924563648908758,-0.07819344363772089,0.15184921754263503,0.06737013431630978,-0.1409935870600349,-0.11750577639350228,-0.40790434814400367,-0.005609380458124247
,0.31175101584826437,-0.30183232396723253,0.05431807296785008,-0.2736818101694009,-0.005206108628365072,0.32422206060816694,0.045973572618695085,-0.003346044892892559,-0.09693673945111203,0.0650512063582953,-0.0396968339908849,0.006558187626725317,-0.06265864651344433,0.14256533226382526
,0.1970489200000474,-0.12565641864254623,-0.0005593638469621459,-0.11547804746033256,-0.12465264244344833,0.10880477474424206,-0.04189691666754214,-0.016988998895181878,-0.052562205103451574,0.04666121979867904,0.05670653952108747,-0.27999108354551716,0.046282779720591895,-0.0880564113168289
,-0.05564877630708606,-0.03195921161875854,-0.23636556598663852,-0.14292496907067628,-0.10015119156011024,-0.023448656246423335,-0.05878399386655198,0.021529117180606825,0.04440145233753482,0.0073751455206668235,0.011212167910707112,-0.4531932843885217,-0.32707148126056623,-0.10027839448014442
,-0.5724775062138178,-0.4142199136958429,-0.27979844536236825,-0.5204166490767436,-0.20607864223730565,-0.1098148704306091,-0.28299844668794255,-0.04869117991088505,-0.1241060839697542,-0.16268033957480713,-0.23101624023948247,-0.24813817006245584,-0.16340705032332972,-0.48040964338044223
,-0.5349723198209732,-0.8280373476366589,-0.29682534171214636,-0.6513156142346083,-0.23714456306321474,-0.13610871169696206,-0.22549292627198728,-0.055438668406200875,-0.11780316003978812,-0.16443158383578663,-0.38018249448689195,-0.2552679679595045,-0.3998196074218993,-0.45108038066713224
,-0.06575805504373283,-1.0224525391346462,-0.2002029731642484,-0.5078617297511163,-0.2941625815390904,-0.0003428762845265588,-0.15306043693935878,-0.03854126229775601,-0.07695038816966693,-0.2496797660349209,-0.45876495015879615,-0.21255782262193174,-0.9937498332816913,-0.038986425149744326
,0.027947050345673987,-0.9097190297693216,-0.17479004353536176,-0.522034580681678,-0.19510055986589786,0.16523359055209455,-0.03094297860164244,-0.13583332249097352,-0.24989015934986256,-0.2729304864535116,-0.20034597735781964,-0.04524789261755546,-0.817949132287307,0.001908367687555999
,-0.05507299430763348,-0.752613902067365,-0.13398534512142052,-0.3725823426474933,-0.19134196468020487,-0.07397055058610139,-0.010410123319046328,-0.1273898465999755,-0.18236594179725105,-0.09185542097003678,-0.10457325865022803,-0.03360258981572513,-0.37273564601182924,-0.08772862970468367
,-0.1274342767363277,-0.24093010969896922,-0.06054828183453158,-0.1133878025614839,-0.24493695174076796,-0.1336122926215061,0.005238366061049344,-0.14914797310418026,-0.1372933484610542,0.03413595065171628,-0.10738642876873629,-0.14186538202108112,-0.40344994752762997,-0.14443219445098918
,-0.0708139441649494,-0.47535453994572424,-0.02036843443250739,-0.16913493709339636,-0.006073278229973796,-0.03324357441685744,-0.03034590819409238,-0.35038714026754675,-0.1949380144681192,0.0817080054251083,-0.12516244823355255,-0.1990252542152457,-0.49762257957174877,-0.1711542243075337
,-0.16551413330067774,-0.3915117016987405,-0.13165360847098573,-0.28547763932199705,-0.0732491391126713,0.07790779448763381,-0.10114106132746732,-0.09390602123518012,-0.03757206790454516,-0.06463573791830987,-0.16478897012929855,-0.02642271312314112,-0.3378880876350898,-0.03955054814767471
,-0.05246631089108569,-0.2168981646535804,-0.04480975148790079,-0.196026848004064,-0.030144351578951598,0.04821898533343791,-0.07360913061208958,-0.0717211771992827,-0.03510850353809291,-0.11139220185166952,-0.06714317346747109,-0.0785996646480748,-0.13850477565068833,0.09627274501183253
,-0.0613362745555121,-0.06441088580336585,0.04336967598951102,0.07942249972562701,-0.14574514981012723,-0.07982614333651768,0.011445425871634699,0.022378860187255274,0.0003911875768195048,-0.05611441619137831,0.08416931561438304,-0.006194942548368264,0.11174504154958217,-0.12526923361489056
,-0.024971670101085787,-0.12957991823691486,-0.09659151940031192,-0.10343321465401563,-0.1253132302961409,-0.10272306256783902,-0.0052795926202506855,0.08355721849899701,0.09945516588158479,-0.06026705245063584,-0.1417499160539872,0.0687370510472163,-0.01481284233417518,-0.07829666488742543
,0.10866120066783078,-0.5114177737908803,-0.19333177269825458,-0.2859294201635807,-0.17655328597303907,-0.09023573366969953,-0.054604146337570554,-0.035114173999232376,-0.06145454603662706,-0.021626345599935537,-0.12425692936283651,0.08516031087920242,-0.3101040755171386,-0.15769265639661303
,0.09174605341575494,-0.469864750957422,-0.05972715145908975,-0.14447259035447202,-0.010869516461718673,0.0631002736693868,-0.0470237457967089,0.03210725173619034,-0.08817831334804234,-0.029349687092789095,0.02325330288524864,0.012273947486390057,-0.45899694008576963,-0.21168557593026094
,0.0451263949993685,-0.28982220514103063,-0.11998494261167231,-0.004565657245163468,0.045534232404577865,0.20611140026020516,-0.3172393608628844,0.22818889253278837,0.226708356619998,0.05522997946834177,0.10638054370264788,-0.13563735933522397,-0.4308688375720174,-0.17201350908413826
,-0.1071306615006199,-0.24505120786705548,-0.2289930780034365,0.013908285658059873,-0.1294135341851009,0.15156582044561065,-0.15029961116624638,0.07896651679370295,0.26787039845747845,-0.05387171544623382,-0.08525718416678808,-0.10895690323786951,-0.2920318281520833,-0.18573140311778302
,-0.24734547122124287,-0.02071414193105828,-0.019408348901121166,0.0719330210851165,0.0067748830250353945,0.06738014519656359,0.02361747008006953,-0.016218828433817816,0.06683612108818934,0.05843706996573955,-0.10498213702359009,0.12199545666585654,-0.030882789310130457,-0.230844097711638
,-0.19775780453196434,-0.09202818806076782,0.002155924126290207,0.00783106451910343,-0.024745357849275132,0.021532870518423557,-0.2224693028105855,-0.13190684949871548,0.076371326390189,0.034295027487286106,-0.1536101664601258,-0.005687165831055905,-0.15396429218010807,-0.2929518685104555
,-0.037171689524699264,-0.30795178749457,-0.11517566297963946,-0.2698006504195377,0.0013179564308516167,0.06661674862229833,-0.0983670140929278,-0.03754650346769821,0.0034035195550645653,0.004691832374515114,0.011074115292704401,-0.15263716831440513,-0.1881839964248315,-0.12448779536467314
,0.15630524022564823,-0.4374303438434008,-0.09166087310578368,-0.3424265103143906,-0.08220640077432823,0.03034087862952068,-0.009852723102359778,-0.06320101955382564,0.04750410738165149,-0.025795867934319348,0.06353326046566163,0.03683292482844716,-0.26803190993191733,-0.18624254906600068
,-0.08429466470010044,-0.4959439577455546,-0.16615849725118564,-0.2790412979635755,-0.26561710936844085,0.19373643606060592,-0.20871314013301379,-0.00940134080446653,-0.11149242005819433,-0.10500856028023711,-0.08506716910473679,-0.027154639335979523,-0.38427338059392824,-0.2665913623290558
,-0.27468294472871985,-0.2946445752526476,-0.0928799452797369,-0.23555108022908508,-0.35577656592800344,0.22458362206999827,-0.09471078006968987,-0.0233508761032981,-0.21689536219993552,0.1055962046270427,0.024599292313200738,-0.11422831213711436,-0.5631354808051202,-0.21223280787320725
,-0.1355697014693769,-0.5836189672544103,0.011487654521913054,-0.3386381579392084,-0.21095388726291964,0.06795609406166693,-0.007254283680248937,-0.02530484470887728,-0.008594981970785823,0.17608407913811683,0.2027591026746922,-0.08717607242163325,-0.39250446892417207,-0.26833885490203124
,-0.34401873422037704,-0.39362681973522434,-0.1296893176407998,-0.23698936560834977,-0.0188161187042112,0.035916268068407364,-0.08069563447564568,0.010824268315175347,-0.12512091668997843,0.2381210560525409,-0.045541805649843656,-0.07409287566948262,-0.06827800095036032,-0.25964503686170637
,-0.26183116097238696,-0.269480565048046,-0.016835282565962225,-0.3372065250102378,-0.06991793389542518,0.19807609424888886,0.011921879990660253,0.16702903970947722,-0.12405925448017895,0.18670452201175658,-0.0022881476531867915,0.07907249680951661,-0.08950809442614699,-0.09965355854758286
,0.20114059306594945,-0.21493032311027077,0.14047860699813994,-0.34991014742746296,-0.09446916020733481,0.07055726582234559,0.15173388844401542,-0.12487924689085869,-0.10959811662750692,0.03219718983994525,0.05028049289244763,0.11837944042998491,-0.26797076285292487,-0.21774798941239745
,0.19795165810153165,-0.03173996365183821,0.0704273470599236,-0.22018905551946188,0.03542726176323347,0.13033102617939465,-0.10631480176774709,-0.20725819022063616,-0.0986701724891351,-0.18176352265203552,0.1401009106096018,0.05527225393604022,-0.4483448688805062,-0.30975981410158593
,0.03923778006934519,-0.14155422254404798,0.043442279404019644,-0.04917838888896343,0.11070946168637946,0.22354262285894394,-0.15895332427842793,0.08850400039587551,0.13561999017568035,-0.103930142918978,-0.11473974192281905,0.039254106400064985,-0.2323779719735606,-0.3918976700643562
,-0.08175701612438255,-0.3629203936984404,0.06742680677841072,-0.02944699965185351,0.1594024863282777,0.23978447745351572,-0.25260121520097933,0.15417565070893924,0.037127450295799315,-0.3065818422117551,-0.16731037129478715,-0.032349816601170985,-0.30505096718904084,-0.20642098512452442
,-0.05535775067934937,-0.2501115477158746,0.08928887598738908,-0.04673043242952908,0.001955440264484734,0.2605201989238464,-0.0802042203856816,0.19970405801340163,-0.009534754846903906,-0.2001728863724247,-0.17392749610296723,0.007219274625889102,-0.3466162221330043,-0.024931420461330338
,0.10422854113062821,-0.2689241746078229,0.21377134368055584,-0.21318486267792303,-0.12480988170277629,-0.1474982174598419,-0.02416384518463198,-0.05127748192489648,0.08166182927065349,-0.07385533093612284,-0.09908172074421567,-0.06142681750037235,-0.10036283337789767,-0.1560005587183623
,-0.04461294989038549,-0.15080434575815324,-0.07401221973416904,-0.09590334066283593,-0.11698738540446708,-0.3108059667541507,-0.09974310429401409,-0.02876435982326764,0.11532324691750608,-0.010730289543253587,-0.19005399366633222,-0.10354620949692028,-0.42000058721737993,-0.22035970787212536
,0.0005514345536989733,-0.37757973946458734,-0.10107007714380116,0.05724527719677226,-0.03773119277922031,0.03727461837691191,0.213114804892141,0.05746288334498822,0.08071471347794022,0.10517941088603583,-0.042006576556151615,-0.05322745921216958,-0.6723352917762513,0.14097623937773393
,0.02478274298226003,-0.3975249785054904,-0.01571482329573633,-0.04041897370861633,-0.02834273709959743,0.11400927562701318,0.04676921282777047,0.06756841850799981,-0.09797651752233925,0.23082144717240222,-0.0225357288455172,-0.03635701845435214,-0.3787645405682598,0.14637343850994952
,-0.07006557616720532,-0.20204456985834518,0.007428162917681954,-0.19130790549355137,0.0312176902005005,-0.02573962648386678,0.0715962965733417,0.07791501027623926,-0.02787253421511444,-0.002224148834958748,-0.04664973571021062,0.15643592992703761,-0.08515395535714813,-0.4981688228615748
,0.09378984794193693,-0.2660247777205844,-0.11608734037825032,-0.24697997162831886,0.09017245487246246,-0.04599050807790194,0.0641906815535907,0.2242088973794111,0.08236470429170459,-0.09377821213739401,-0.04394086307170786,0.045987415078036026,-0.039388061865503886,-0.6477362148912014
,-0.15033589199840916,-0.34073406403100537,0.0039767166344882535,-0.2627290881293588,0.04625657209451875,0.031082772147753086,0.02262516006343369,0.21308731621892324,0.018651711473583136,-0.12545390419396435,0.30044053080332944,-0.2123227293184413,0.30029928176982484,-0.20031253500622287
,-0.09761711730102683,-0.16403931870153302,0.05318853371326461,-0.2539882676775764,-0.13235469716660805,-0.01143297161156804,-0.12150066960112042,0.04911293131421113,0.022253210824386485,-0.16869618031652367,0.21445199813903743,-0.045931552841732774,0.04009060290723631,0.027540490373395878
,-0.08955545338175883,-0.25595045495210245,0.03219400506073808,-0.1378587406894169,-0.26282345655184053,-0.10431391887891983,-0.21264166068156184,0.06800018148424795,-0.14220580642571995,-0.11653723751814525,-0.11555998755022764,0.05089937344663594,-0.3173475472626182,-0.21641255958346717
,-0.04334243020744508,0.024680471056811183,0.06848868401185448,-0.17212521631417388,-0.1760278873518145,-0.12379337457724704,0.07036028277243969,0.10223311253752695,-0.09263939960660511,0.018663793508026508,-0.10832734399872795,-0.04635863072272206,0.09156218002373874,-0.30135911483864397
,0.1093811533900145,0.0023836732677316934,0.004250921512823438,-0.059262706864535074,0.303316294306638,-0.10067737640129247,-0.006779685100853059,-0.08190520926769863,-0.12040837806383645,0.1018823782245406,-0.006189221627893519,-0.19684030516445153,0.1518856584967318,-0.14493334720935583
,0.056585772241885865,-0.4317646196833453,-0.01850984250471896,-0.10616018317842399,0.1536350671246687,-0.2140440263192698,-0.3130139402195102,-0.04098914612425962,-0.14589964394503288,-0.10856798065629752,-0.3689689744474126,-0.1916843620734517,-0.04513102607245855,0.021315728868624335
,-0.022552415513012285,-0.5104611580846319,-0.07928010317974286,-0.04816763575043586,0.18583575360550186,-0.05038940051750115,-0.15962920871604666,0.04997015214291464,-0.10773369793070249,-0.09061408322415947,-0.2724910958590172,-0.08983285822926863,-0.01794565147010021,0.024702253593117552
,0.2121980269835975,-0.3592292149729388,-0.23713654073799664,0.013732194212425837,-0.06155693118564379,0.16770824400637335,0.07391480771438326,0.13104385047316297,0.1472865564873676,-0.022191160888768144,0.17529481138299088,-0.09580890229628108,0.3106081202122307,0.008144755956498377
,0.08864756443851449,-0.2828974724442205,-0.28714884854830564,0.20936982187734687,-0.26265438650783135,-0.18082872056424423,-0.1258727283320476,0.12292366269157944,0.02564922544863353,-0.09848820369012727,0.004509339486520389,-0.10257998310933665,0.040308173416987,-0.028530684777020407
,0.010548325065023501,-0.11641126962717362,-0.1886301452899883,0.1568452397537827,-0.22388279705921138,-0.4031335984047359,-0.1530953545788652,0.0038468512381925044,-0.1357639080694795,-0.08171710508872594,-0.10530853050919387,-0.11656461435464477,-0.4371252745691447,-0.0063615720465079045
,0.23579958900917353,-0.33339657853058663,-0.09977494540453458,-0.10937996923362592,-0.1324217646899144,-0.19209382741081246,-0.01290241061200973,-0.13785731539665075,-0.20211028217443402,0.013757659245464014,0.13902759853510274,-0.039972480299354456,-0.5260978953983432,-0.15475302969239907
,0.33572981740667895,-0.40386494138214213,-0.08465567825698574,-0.13356978772779002,0.08417274092100303,0.010952330696307092,-0.19598317945210586,-0.2067283083305386,-0.07402302093045729,-0.07310664827208307,0.055627102958732286,-0.10367187737384377,-0.2855174537119475,-0.11466716081022398
,0.2909081509247572,-0.24794868762943834,-0.07007691714123625,0.04140199411819239,0.08307386315503948,0.08873186535729322,-0.04184097771358526,-0.0982148528573422,-0.07045392978409629,0.003429662282791444,-0.15605359157516333,0.1293886172578785,-0.48627953364199905,-0.047935031604461366
,-0.008951494494416627,-0.054692378394737895,-0.13695532630497834,0.07651408485167925,0.018749556545582965,0.13475020516016575,-0.07899870153300786,0.09154294565909789,-0.09256275361666468,-0.022286618599907958,-0.2649046290840876,0.16848405622252688,-0.2884810698509977,-0.12377098961064421
,-0.06618860229936041,-0.11604495024555397,-0.150820413415755,-0.22829801712786418,-0.15853663404099924,0.22877602850162565,-0.12099078985796914,-0.13158918712842146,-0.15985280394118168,-0.12670315087341236,-0.21452261987249427,0.09608517841693719,0.3703077628844856,-0.08004360194028233
,-0.033192583318008145,-0.07627299746131491,-0.045748797129338485,-0.20689194895086715,-0.17634065727118378,0.09061916185455177,-0.05112390005443437,-0.21082290549359808,0.02308136176074669,0.04483789876636736,-0.16525809181651338,0.013042473437641188,-0.2793010328446003,0.045438298962274255
,0.11155960134805602,-0.01002717260300609,-0.0564572335547486,0.052255600972156625,0.06219130833152291,0.026246949368218146,0.13168881694476772,-0.18543710736775357,-0.000710329391847916,0.08728981438604252,-0.004635997856855181,0.050157373754189716,-0.29971394758533265,-0.11403280817333356
,-0.1990385521537591,-0.14393710213366048,-0.047371734829685645,0.03146201566705201,0.02626388577199648,0.06338701574669764,0.1745062076123197,-0.3195885392288987,-0.01760711902986123,0.21213804245257267,0.0697194379214822,0.04836906827144466,-0.04188798069357635,-0.1804452278149199
,-0.1786606462884877,0.05539866538636535,0.044452426500677614,0.03736718427104003,-0.003952758546058319,0.11586000037720627,0.12229316684116229,-0.17744785307981611,0.025692187272870867,0.07777019432237602,0.16251726004323858,0.049390159644572974,-0.05256894900817832,-0.10247484546232732
,0.11632567833829183,-0.4518912700714216,-0.17505585184119746,-0.04170259920171988,0.18164461995846426,0.15697274083075297,0.13130151701864645,-0.02223382587943183,0.03188951067314939,-0.06223811438262477,0.10258279493765633,-0.11881178385478972,0.0011170935829306475,-0.0028750479390063973
,0.10813716495093204,-0.2714258404830596,-0.20956855040283914,-0.015227943449038215,0.062363065334254335,-0.009362612423498179,-0.02189487124547354,-0.1680568852697896,-0.07999644649354985,-0.012754207791042868,-0.056813034819989346,-0.08715622730325173,-0.04880637538046798,-0.0793589113086594
,0.16975667113156578,0.0311369719712898,-0.04422646203980902,-0.21945310826133105,-0.12536130914390167,-0.1477166225703444,-0.06294389283954854,-0.06294692587788309,-0.15173921467752538,0.133782905800517,-0.10177787488797307,0.042747106687981255,-0.2657218014864654,-0.20095638154130685
,0.101829254947714,-0.18850665493301144,-0.04539930400302144,-0.4952338793165743,-0.19737671156470205,0.08290571834049464,0.10926551947310464,0.1198921219277548,-0.17001688107647417,0.25576467366697453,0.046979251236061455,0.05959478730006192,-0.3016499511520275,-0.09037058365322415
,-0.10937151915981486,-0.5277531159938861,-0.032088525140647355,-0.46670389078104607,-0.3873334314511407,-0.15186326537710512,-0.1279053997685219,0.040041343239431794,0.040268756547579304,-0.06814631062133178,0.09238054290879431,0.1377647992224911,-0.09236808925298601,0.09038694061637821
,0.06564652397308572,-0.21306040077998917,0.1120299267199335,-0.2364486498959093,-0.2752316312170985,-0.18566175472155236,-0.056213846273572864,-0.19599180443502084,0.1685567738159694,-0.12568125018666781,-0.052384219915334346,0.1526248567802674,0.09636170719744064,0.08674306659364511
,0.09958245779794321,0.31860521542331777,0.02891937162917492,-0.06981043625824783,-0.19612048434148585,-0.05153184851490534,-0.2081587818658355,-0.2658285875475527,-0.02700957664198168,0.024820801329423166,-0.1820516873845019,-0.010956504959201457,0.008381273338609621,0.018635530241232424
,-0.02808727914680312,0.22008810978800133,-0.26548490192988206,-0.21835470951105948,-0.042823777530419174,-0.06054164282018377,-0.22494162844290716,-0.23322945146977708,-0.07319383132780409,-0.09372335151883776,-0.02263102321532469,0.00379473253783148,-0.0011321696137975132,-0.09636958213114995
,0.26118907763215204,-0.14271565755402546,-0.317018254890695,-0.31081639584566434,-0.011377906417950025,-0.04940370191461268,0.11194666524842624,-0.10012586265972091,0.009818112719128382,-0.0377265569714552,-0.09859007697189447,0.04555135669359743,0.023257987057674224,-0.07025057795634657
,0.5548011859272378,-0.35664789301329874,-0.04218683237876926,-0.41231858311865366,-0.12648404213827025,-0.00268633335105374,-0.13255296407995784,0.2255211565232341,0.10239338550359652,0.027061103012975228,0.020173932337245026,-0.011108858220646653,-0.06165872897391707,0.03475011633471971
,0.31466076278912075,-0.040265583678047584,-0.03494615504659267,-0.5719815409371182,-0.04719039901590362,0.09744810355443222,-0.22855004434982107,0.139371477395092,0.16867920570237735,0.05820626781501615,0.08341926778875289,-0.0682277173329257,-0.24182234407136133,-0.017550784892565733
,0.2482081665647853,0.2360112634317833,-0.1371773220118841,-0.2618852139366228,0.013655838434402805,0.21099529215498933,-0.057804911777417464,0.1486997596626541,0.049048695275991656,0.19869101771433081,0.06566986095337102,0.06594606961862699,-0.00851049833932142,-0.23218051230982442
,-0.03524363241371059,0.02159021306205451,-0.25608189140261656,0.12487368911926222,-0.2392961587409252,-0.044712141015435185,-0.04827057168465572,0.33539780322362556,-0.061696850113347884,0.08200453200578839,0.1336346433852572,0.13524056452228855,-0.1887134427489714,-0.15066133830073053
,-0.08108593893236642,-0.07135308754244091,-0.20792290950485862,0.08322283889256636,-0.17128463520230724,-0.053364838861414535,0.02167320149610096,0.048838273201727844,-0.1527629641250967,-0.014281725324484336,0.05458778347478506,0.14802025101132962,-0.05059545624443783,0.012706806792992313
,0.12196041829392275,-0.025009420832293038,0.0765205843090856,-0.0753712718146981,-0.07223093945573507,-0.13696448191676586,-0.15978405180887417,0.13706435106935239,0.12213897143468973,0.09332576121840341,-0.049460413852630114,0.06188764886777423,-0.09475316825776815,-0.031373864402323114
,0.02262793322212887,0.03687406766558867,-0.0015912125114622045,-0.18763793639169207,-0.2528794971699763,-0.11004717579332138,-0.13096508286635616,0.05111432034369374,0.13104073597044363,0.30366878499056793,0.09859170171025279,-0.039921555847049144,-0.059284885506836436,-0.004303170998773775
,-0.1419851269363135,0.5010618912887451,-0.1118794787952566,-0.04837188596133349,-0.21831716042423577,0.26821143659327085,-0.08714893780258014,-0.09218152848091989,-0.08471900813407963,0.23428801984639222,0.06620753387126387,-0.054549366152256445,0.061795276308174225,-0.2101674966851
,-0.13150904938540847,0.0958181426093976,-0.052544749531803624,-0.1673127443320322,-0.06994724302341725,0.16526002463537365,-0.17800972333999027,0.08347022921016642,-0.035070398091472325,0.02046956706714781,0.018783635457820344,-0.08133623509958351,0.15606904299855628,-0.2000548560072864
,0.20203954370106506,-0.17168630953405403,-0.001381941782221999,-0.08118677033059256,-0.09660557393372626,0.07369580496636882,0.007474142207892105,0.3215506842837659,0.11887872692285836,-0.1691596726356251,0.03924795584784061,-0.010903741919365832,0.0563543272612635,0.013580591997201744
,0.3210583886031375,-0.21421534665955194,0.008648165559871867,0.06159592354814291,-0.044815935921089255,-0.07139252715115593,-0.1646803438494181,0.17559947085755556,0.02529234390377186,0.012417068506268768,0.0722435103802162,-0.03204792518668716,-0.20620536557496746,-0.07597785076176164
,0.32856423222771103,-0.294108104004235,-0.052898656110358086,-0.002643710983666847,-0.06365122950313429,0.12257908309085178,-0.08502966936734997,0.21869768203044476,0.16694107707450573,0.014605383662036595,0.18066894190874228,-0.023733710129554234,0.017761414403136225,-0.05759753935824269
,0.15005161031999917,0.03209045841092876,-0.09961367804946686,-0.005807622885093074,-0.060728620764041265,0.18208035448038482,0.12839925557973159,0.14981223290287995,0.041354005319625804,0.20220573177945117,0.16052346718305813,-0.026146754020629593,-0.007310676419241053,0.08781345338838244
,0.08421036114192883,-0.019115361197993574,-0.07294743499415617,-0.15099309357427315,-0.06826122986804604,0.1798126994264699,0.0939816294222861,0.06753593802606866,0.04365650274955171,0.1776803185152758,0.14655225374884678,0.0003631694178951622,-0.1480683939458334,0.2044729623363313
,0.05586485471798725,-0.6123376747902886,-0.12074085364550986,-0.3008859343968963,-0.12506634166011443,0.15940884678555675,0.13435002360057172,0.004790785558200597,0.12413404701728065,0.06024682656550801,-0.1097688595625075,0.008508953428843015,-0.35546944824466725,-0.13258686715593562
,0.05928383717449959,-0.6877411621837686,-0.04281560551542419,-0.23554315412194643,-0.0071442450310075945,0.10648618325787122,-0.22252938170291733,0.31634781209843027,0.13855957850022696,-0.09145070082390865,-0.08126493022283493,0.028645967292535816,-0.35507893833623194,-0.17576865639496472
,0.19473659934710233,-0.31937796031353505,-0.008792477849433402,-0.11907995167651911,-0.08820126725704372,0.004299857376595019,-0.43757418184085506,0.3690878703631399,0.20126543855909373,0.04171421339448549,0.035092915564343234,0.016071251424221923,0.08292910888676143,-0.1581811609624225
,0.18286719731516402,0.08480603225561933,-0.025951737931847314,0.06692731720503488,-0.05298630540255912,0.04584771448066304,-0.11963448617904289,0.18921687242152682,0.4490991189404979,0.08439857029891328,-0.004395504753717829,-0.08620205657542997,-0.03681218314723185,0.06002884990384157
,-0.12848561221285262,0.25939744570210066,-0.45588144904393185,0.028909743546995416,-0.0363808629710212,-0.15231836882356048,0.11693503535620321,-0.03736674999592562,0.06878066005115155,-0.14894060850278876,0.1696656720663424,-0.4693429641472521,-0.08213189204003293,0.0022256102189385616
,0.08917217843527343,0.19260382446230048,-0.44285839493245227,-0.20777800018422088,-0.09158421304841995,-0.25927169259657934,0.06935886056926237,0.02824381266180494,-0.14586222228293655,0.010431943693666434,0.33989998805355504,-0.40706223432426425,-0.15382302031161751,-0.12706313394694776
,0.17963224257075375,0.1382817568074543,-0.556389030852939,-0.3448199410327221,-0.12739561563932988,-0.11521986741232151,0.08927394760895757,0.0751144800964356,-0.08631350982298444,0.013387886220011542,0.2508666704751636,-0.35879931135471743,-0.17208487017010965,0.04131720105746653
,-0.05153781056088011,0.05123789987559926,-0.3995762454671638,-0.07572933343613447,-0.07546558113212962,0.33684385552509327,-0.005309220467290584,-0.21204112858726767,-0.23795709102271304,-0.11887549953426718,0.14111236753228162,-0.19766417053888563,-0.2570490823247228,-0.011964588102050698
,-0.10880842700132959,-0.04397479419212579,-0.21782250285939334,-0.011828375189742092,-0.18897990865935294,0.309306241746849,-0.1872940057072355,-0.12993494703762143,-0.26716058582897995,-0.11515450123237855,-0.11802370560277432,-0.095992835835377,-0.4328718770909398,-0.23162412947528127
,0.14180351328071172,-0.18276520930982385,-0.3363002556916384,0.029038425411399775,-0.056194032738797264,0.25141302593197395,0.04837101603697223,-0.0316675454162752,0.04095043074100256,0.028341863672852494,-0.1178833154132193,-0.08319064052779017,-0.2743468772446318,-0.007831086755315343
,0.13050076595263443,0.11617217383670106,-0.25309900525971035,-0.023040591894328825,0.13275549596219122,0.1837685264916161,0.12378862925992767,-0.05874280687242318,0.2546161140280461,-0.1870944826643652,-0.09657450972734402,-0.07081377171518138,-0.3929054727024662,0.06265765865478974
,0.02503920042033377,-0.26424215923204314,-0.0283306578204855,0.06359519037831077,0.16805721153501663,0.11759250842547221,-0.1117659679925315,0.16196220988305998,0.33278544346553113,-0.29561500333979196,-0.22493194719082282,-0.03032664078526637,-0.46534587303139424,-0.006369055173653684
,-0.13591170527981217,-0.11911440090310729,-0.024802493056269092,0.26663531765437676,-0.05327350001550996,-0.0390778088412878,-0.034284543677787084,0.3828694252861915,0.09929415163063995,-0.018690324743563365,-0.09219163536009714,-0.19512696133205978,0.09284560696219944,0.011544094684034318
,0.03308068805364356,0.148702194126476,-0.028320022161982733,0.24516333857928188,-0.004002275299239878,0.0005986924692542601,0.027221958277209184,0.016334538672896203,-0.04060312853868803,0.0747859628005026,0.10160868850405971,-0.041979455986143666,0.276073004299173,0.03653753344694109
,0.33895524889712875,-0.07807029016681212,0.04423067803285165,0.19211869101231374,0.041592624002637746,0.23963546447603437,-0.055896382849619876,-0.026828582312653705,-0.014628500329902169,-0.020553014582217984,0.08652396257444624,-0.010608574470398436,-0.050251422788777575,0.042692003185306714
,0.1378099921603107,-0.16673989359851168,-0.024145580763995665,0.020646834789361745,0.09973978083780662,0.016286690676677196,0.1544237603337003,0.15360474493082169,0.06938196156583164,0.133764994913028,0.20512621193049813,-0.22350643635555298,-0.05883093384484567,0.03653627133492499
,0.16198619797623015,-0.053271986323217516,-0.0019874125388515225,0.04277735018603043,0.2106423137684722,0.0024774506062337537,0.18907097700811407,0.11025185036399184,-0.17391269990370165,0.11977463947111762,0.07545696969167892,-0.09232524573719661,0.19299686314933337,-0.134652676782405
,0.15248859967239095,-0.014677081056500247,-0.010465193973007861,0.14118586496061272,0.2556695437613361,-0.0634428116383977,0.135394432667125,0.054432201068613954,-0.07495254769312608,-0.06932952747551593,0.14209268486149362,0.04949300934251475,0.21095173246706794,-0.04164407310020384
,0.010991199276016255,-0.20856800133283707,0.04884197876634584,0.11783841248488534,0.125954200522556,-0.09764388893261503,0.03558515888808712,0.26515044815197497,0.19075278590858288,-0.08185744677971958,0.09219792291993681,-0.1503879419758794,-0.34397422983624526,-0.05892013227539244
,-0.1414184902333759,-0.7126353590038331,-0.059513718801694634,-0.11256391599316189,-0.07274568616631011,-0.0674608853801363,0.04532688917023947,0.2926031129006016,0.19930576774203185,-0.07451584202849293,0.053487751149630704,-0.12937552640181518,-0.5295300872258429,-0.27517254815591713
,-0.10857986266799888,-0.5597561784470855,-0.1970819067374981,-0.17914591225947882,-0.19515181476509655,0.18487079707402693,-0.1832025923237586,0.14081845872869583,0.17358840487477223,-0.27301927243861734,0.09026183475975547,-0.1529954485945967,-0.29800693462927386,-0.16664489758423992
,-0.04362207479959134,-0.18298859385130947,-0.19284942750715864,-0.1777895564366604,-0.20842859478182954,-0.009809151221940805,-0.12894250623093503,-0.12358954085942334,-0.05575460995356455,-0.15884888473954048,-0.11907868191049094,-0.01362390980662584,-0.18388300687537784,-0.11450366690497385
,0.07018074164313615,-0.18639822458518893,-0.0834894937164107,-0.04172908879622568,-0.1084111757839172,-0.09808080044078953,-0.05436948179105735,-0.08898531557597221,-0.10080792061095074,-0.03751109236479003,-0.08852746449802419,-0.0027491314000528057,-0.15962462061357144,-0.07343423495002344
,0.02591285493517692,-0.16216138667237026,-0.23219415960801434,-0.012895874275095419,0.046539944539996145,-0.03713666180147733,-0.07300384024245629,-0.26525537649738207,-0.024897373342523357,0.023732540265948374,-0.02960923426103993,-0.016528212591690645,-0.3577323922800676,0.08209154080072519
,0.12968096286438424,-0.23113320126303655,-0.1533522191475765,-0.04549076700634816,-0.008302463804977159,0.06587034404732123,-0.0021141047909302543,-0.2152216462319754,-0.03296516431615624,0.08324970689238953,-0.26417249756794603,0.021462324912355318,-0.33643768694395837,0.021990685633114578
,-0.05164476133928338,-0.19878968426441737,0.06363187032628101,-0.1276929332033233,0.15014850358774254,0.16212776040412877,-0.0598432283740295,0.03122966456094997,-0.07882116969855137,0.1800604742591673,-0.2216756375593279,0.04668754478488142,0.1544623901531692,0.1057443717472254
,-0.07176192496917147,-0.2181033413501636,0.04130937138021742,-0.0407236530512125,0.13797625277578116,-0.019214805080692947,-0.1872475799661701,0.11673715471813276,0.005668836215661917,0.1046136624650923,-0.3167601450186466,-0.0432271512223751,0.07800609420131543,0.2657091923000013
,0.0004175736526575039,-0.2544673077197651,-0.21224591046146618,-0.0018721687127680332,0.1120448515173215,-0.07857654511884035,-0.14961830169304793,-0.07280543078216646,-0.0017014712515929687,0.18662036555009906,-0.1424105538935102,-0.02145961483446565,-0.22979508237325236,0.07553388514754047
,0.1924012197575576,-0.10698213961068294,-0.1146500966942167,0.02891539304174346,0.03849094314943854,0.1301286853451693,-0.056086908389368424,-0.09273422046709306,-0.07365775486635603,0.12648197689785237,0.2226650515831242,0.039664040859837456,-0.29613110551240757,-0.1213021849535252
,-0.0369782395196018,-0.25767592493877567,0.009617540398106205,-0.18969780121746094,0.04747208091830473,0.05488589752078961,-0.0818192061187157,-0.062193532945507175,-0.1503949665187941,0.07280892534360162,0.2285732459702558,-0.21706939998635663,-0.2839244344069044,-0.09499922317724727
,-0.0917417095792357,0.002563083708694812,-0.05302803059092478,-0.3711744923504375,0.05321090958555207,-0.12284743908893471,-0.19671343043103115,0.021317802135640596,-0.10196518928603959,0.2552446164405012,0.17460869130311116,-0.1916022977521241,-0.4569408879026203,-0.02771867357644362
,0.12318248169146354,0.11705488874193479,-0.11982317905979895,-0.27096988431590774,0.03925998842317485,0.0038437582603747366,-0.14688210954313993,0.15190566112396464,0.16479061909597617,0.3401140579985783,0.0026582887355309265,-0.008139055394723373,-0.5240461876738316,0.007712460416375166
,-0.10619140711428529,-0.04342558205231942,-0.03658093500543647,0.008944712365336218,0.0936201044378773,0.12750336271820426,0.16399924997005003,0.08624347843990372,-0.058934018680764685,0.018898858282234185,-0.14640336952866975,0.09205504525447243,-0.38409680388203216,-0.02636728082575083
,-0.2042626269925293,0.2606423499148834,0.03501800296559548,-0.020564740616584514,0.003946414334725455,-0.07352842391863726,0.03477999942837613,0.21609940846185874,0.00390061016428275,0.07325293856276029,-0.06719619972245552,-0.04306320266922497,-0.30571212582475815,-0.020151813260340743
,-0.026482510342332042,0.13597899752940681,0.056900345526681766,0.03941247799092587,0.03813482228635005,0.05340626261678927,0.11498370405947009,0.19694919661893953,0.25617212234693687,0.17342408795397765,0.14601957037454397,-0.021116574474120325,-0.2684192849533673,-0.11634174792972948
,0.21702230444984377,-0.03620109116072235,0.004879478348320932,0.022532993642968423,0.13906986173882907,0.06550371378567524,-0.06602379523057958,0.22598884130156938,0.2954451908921106,0.035497789633108866,0.09272436621369703,0.03428202389563651,-0.06126662285683482,0.11025387551476856
,0.10306590024318753,-0.4004763915289515,-0.061286158894551385,-0.03404696774491934,0.09779626922041619,-0.1888116694251828,-0.1991444655251945,0.21569724842155644,0.014375857846117994,-0.0005014250382188383,-0.018148939701965957,0.023001157100131314,0.22095435308402217,0.04474435336188322
,-0.0668118270774585,-0.5404460874296813,-0.07733962403396225,0.004807694643868566,0.0957898328318246,-0.1994686673495486,-0.1728500126785942,-0.130248261532133,-0.2666812106527849,0.02775797305859379,-0.06972619869916133,0.06576159356557189,0.17537615649303417,0.01141948508489795
,-0.05348414760797997,-0.4392734140443323,0.021381917020849236,-0.11069203369129729,0.015450047641118105,0.007468782741755001,-0.23316072770263452,-0.02764065387858862,-0.1504045714118801,-0.2553774083987042,-0.08704880003471234,-0.08577508063487688,-0.058639160087638635,-0.013896671150655494
,-0.18000601036162406,-0.3588461087310854,-0.015647324530197872,-0.06374262308859194,-0.0612337853842115,0.04456622157607763,-0.13436874809358526,0.19278257668713233,0.015313307781902815,-0.19699160240535366,-0.13548085446385688,-0.005477095148998156,-0.24061459164876484,0.009018242727695636
,-0.14671237067595266,0.14471389539607257,-0.0001352583727746627,0.14539153455186926,-0.15844139693795595,0.15609427196280248,-0.03543535483190793,0.034835083765242074,0.035573143135381194,0.018693196085494284,-0.048754135358007315,0.03571885153640411,-0.0869255973821181,0.008978359121113107
,0.13289474839958873,0.12945957924442045,-0.03615320870316846,0.10202518712138652,0.023388055881511747,0.05989969303724595,-0.056600334662451075,-0.05504253673128964,0.09726470781029095,0.04904964515831538,-0.13622987362818587,0.033521574979652385,-0.0877001570072097,0.18217097328336465
,0.049272520999949485,0.1424676371811493,-0.03161997324177148,0.053824625340023184,0.16011310556994848,0.13799030721646222,-0.123585090633046,0.07733710320724409,0.05379193400409976,0.16802809150741882,-0.004317979193831202,0.059619961981054286,-0.1862234385029331,0.03546973573812819
,0.14405191246353877,0.18308594173169304,-0.08321055327601055,0.030101143100901232,0.21023818975045644,0.10059832103535812,0.04079785451122212,0.23335879435620724,0.16839839215121932,0.21922871553172638,0.2846727560120283,-0.11808020114284407,-0.01938751711581844,0.07861538644482367
,0.19881367829039517,0.17059087633395323,-0.02953098232555872,-0.02905125304811603,0.16783023267091204,0.04097686780693827,0.2811742634949455,0.24309815222846665,0.1079575997252091,0.16822531281531614,-0.09319856120469405,-0.09124930171334196,0.1844879888802498,-0.06797646492523599
,-0.12177940934510535,-0.012888921948539836,-0.007284662979276331,-0.013137735415217783,-0.11185307989579993,0.041779247514807764,0.157868601219042,-0.1535922044572621,-0.05882010578770543,0.024417421440139662,-0.27110022417198604,0.08534398741311788,-0.16093734738131027,-0.3083676363217875
,-0.2196675224551096,0.3095852823947274,-0.0040354738692657465,-0.06095318368543687,-0.23369540397738922,0.07944258184829016,-0.007788078216246132,-0.2426578679836528,0.04197944565064035,-0.055849750701956705,-0.0543869655539754,0.200681467152922,-0.3275786734508929,-0.09572094584063473
,-0.012426942994159352,0.10819816615487596,0.11173841733059049,-0.08459790899644773,0.10361062124444674,-0.017521698847833004,-0.1803767108878252,-0.07015924140946693,-0.07873994086623011,-0.009690056196938369,-0.15022438320220294,-0.036925383707456357,-0.02639939022848638,-0.019628493588398164
,-0.16225181178699,-0.1543971506847747,-0.006917226847837137,-0.16433896898758368,-0.09694424940253867,-0.14308863822223625,-0.04553023329920584,-0.027743858181394618,-0.16090702933168655,0.02693327772597833,-0.1883933764273716,-0.09056149416508033,-0.30638151913757117,-0.012551926356143255
,-0.12570847234344615,0.24622550883114844,-0.10479223280590542,0.04136531525368822,-0.2775728763382797,-0.14925573705969122,-0.003253498919074287,0.06771756216039661,-0.035490430762115666,0.13674345646409988,0.0755726300705775,0.01260648847553616,-0.11404904013818841,0.0200667646096232
,0.15605823500251054,0.2709339041427979,0.0785749834174289,0.24205189805658184,-0.21945136567379792,-0.02627695776868519,0.0279060997423744,0.059038337224712176,0.044942424388532784,-0.07083199312551526,0.21355268692635837,0.08652886064558649,0.43358081568067125,-0.039068196701136204
,0.15039416324807953,0.05979021284231163,0.03958572687634364,0.0587029869460186,0.002580806465846233,-0.09039327962072743,0.26806364610641936,-0.007026306340828131,0.15654690986489223,-0.10518158324463721,0.22136542236606774,0.011237627574918953,0.3833969364565392,0.013163369364316476
,-0.023192135245253008,0.39152174592123146,0.018891355317289076,-0.0001464425870654291,-0.0067902452699589175,0.10675928361212376,0.2221400884723342,-0.019326134089794188,0.12200595628543645,-0.0913352974949489,0.10597307013162245,0.04665497977039642,0.39110158137802903,0.18541000584425335
,0.08983368041254162,0.10013886803969568,0.10951338419957361,-0.03178473181454315,0.021389130234821082,0.05358732108029382,0.18120946836131796,-0.020983365260285918,0.012418751839836872,-0.1208919989269069,0.11687029526514549,-0.044725634592524044,0.33193440979799527,0.19334171027481503
,0.031102095877870127,-0.022577416619943197,0.05449780154244843,-0.05569505754076195,0.059244636518733636,-0.09602919156437978,0.07653697151122789,-0.17438431267953222,-0.08561150335670561,-0.013899670346160844,0.14133297494565927,-0.14519003469018973,0.0183736711072245,-0.04472720141453948
,0.05655371495541694,-0.32780612722676794,0.02376909417575342,-0.03008347841435497,0.2085514748498942,0.08168294042612376,-0.06360373796911935,-0.1950601155067259,-0.0339136383144459,0.08147369609225731,0.09767045592249109,-0.04269232439997772,-0.5243694807968345,-0.1804608495563855
R,0.1406634105613234,-0.6439503057890918,-0.09145401398506992,-0.2886310594192449,0.07574306212491852,-0.028101831636372334,-0.11063414967951449,-0.158800306997216,-0.0448525509693804,0.0348770097023063,0.03706103344036065,-0.2077016432511334,-0.6576189511326013,-0.251815711636725
,-0.12911777198329608,-0.36321702411017615,-0.05507754206277281,-0.24854117996164413,-0.1144138220231507,-0.08381717999181108,0.024112290659102944,0.13776477505387605,-0.06242633096098888,-0.09588914084818237,-0.18289381404104624,-0.07009763993804659,-0.3550521147319082,-0.27501116058062564
,-0.061879754227590344,-0.24361926200013226,-0.20392751202785905,-0.2394814082862372,-0.11923156907458049,0.006886392855681097,-0.028917141756823632,0.23131707294803197,0.0025159959583023004,0.053478256328022424,0.02770922535781413,0.2515843421049895,-0.003609033897922204,-0.12449952923384346
,0.15637596267858844,-0.08230229482490145,-0.21927339080994235,-0.22853486682138904,-0.18785124914029067,0.0007127086501536066,-0.06376606650610682,0.10047018533807592,-0.06384897212165679,0.15122094118384358,0.23687135158889783,0.2036128708712027,-0.15026608786195336,-0.0008329242203527413
,0.0978666513314508,-0.07177832453727241,-0.13540268561729976,-0.06168403674101693,-0.16966419934655808,0.14849594279183895,0.26041076993924783,0.15076810285128578,0.04662322338339149,0.14283099774593988,-0.008385012931899194,0.10485797473946498,-0.45956767316192126,-0.10223722980274326
,0.17671158131520728,-0.09501572977714363,-0.02433181100162667,-0.2021281638879428,0.03436368611461018,0.11509938765407746,0.272066959277746,0.1993978764156628,-0.0953392561453276,0.1608792120307826,0.06694302177666055,-0.02834049654173197,-0.4399191351645043,-0.10422101580436523
,0.006256131392127576,-0.1813018885017906,-0.06054091951982209,-0.3824261584869424,-0.16998455851103036,-0.20737383760317538,0.3127671578319668,0.02433654751501261,-0.04577370368824606,0.05075504539390681,-0.005271446826187626,-0.17620636472490922,-0.2638028385833052,-0.016012272837491282
,-0.21795452686190522,-0.18164573816091817,-0.11243523513517208,-0.4424335236390013,-0.10299495150263904,-0.0013850926265592583,0.1825280075049966,-0.06781933982405963,0.10379235802955238,0.05392004231876985,-0.04981567061956641,-0.2379763888998028,-0.0022510456946836484,-0.11225462124230867
,-0.07184754599713665,-0.1941727285983428,-0.19955629039330575,-0.17745854295116145,0.1774303254251791,0.04553218476780347,0.13340795536518218,-0.06480628217967327,0.14261230714687284,-0.043691863854334635,0.014729181763449577,-0.2510991630186555,0.10288780629342009,0.0875644206476709
,0.1198413901794365,-0.16882070708202224,-0.13354242964285706,-0.12392283690424664,0.09638633691869623,-0.057579790422432824,0.1699544754286878,0.14220256161450945,0.16473474481515354,-0.02757556358393039,-0.05860273938140247,-0.21503478008612448,0.29087544114416,-0.052197655887847645
,0.09043425910172212,-0.5274566374997244,-0.09829468669954608,-0.15050619756221603,-0.21046721872097235,0.11539279136822236,0.0205690492691722,0.22183403447381136,0.054903675278647784,-0.026834183547284302,0.1302000544929356,-0.25143286021573974,0.22698989223736182,-0.09172953947486623
,0.16029043608470903,-0.5106302151596315,-0.1635826362041486,-0.14699510539946417,-0.2695878963945298,0.2333158791733157,-0.19998384665074775,-0.045737182316639126,0.05202261032746947,0.10674185881712059,0.24648401584988366,-0.023983467650554438,-0.14194054098106876,-0.02149082358676152
,0.04867785474105107,-0.46618120115166845,-0.2148884643570292,-0.3069079345457756,-0.19388527267810113,0.046276610162208395,-0.09315199723433934,-0.16596990564413516,0.2658436342824807,0.0510949293219403,0.18285525907680686,0.02801184549498562,-0.24996669042381803,0.014134165255885355
,-0.04888201823538817,-0.7620424509822599,-0.14660137041067772,-0.34867491663726474,-0.19069642981035964,-0.20437456897830023,-0.10009782764978761,-0.02539804186296094,0.039120260734175814,-0.05659742083633518,-0.005469582794570237,-0.03975935114942776,-0.238469367003525,-0.2178258573833652
,-0.1647019141082871,-0.6869225802256858,0.003126201709967372,-0.24878407247999512,-0.09598472840717115,0.10326477695281082,-0.037060832520659504,-0.05098751016017649,-0.23145631403042993,0.00038792576934893846,-0.1074484684386727,-0.18409466091037885,-0.7570134610139061,-0.3524006330620478
,-0.326068637261133,-0.5512264141605956,0.019992499947017614,-0.361669398848244,-0.32629339389640044,0.051231420498411534,-0.05484545163038262,-0.22252666212165303,-0.3125847147542141,-0.001866015910577883,-0.27849529415682506,-0.13056178571669866,-0.9645021107830245,-0.2810587889663152
,-0.15892171473763292,-0.9860324650812136,-0.019640168039462787,-0.6275031224602338,-0.21954191571976814,-0.027462413822192333,-0.1852157843721523,-0.2481104881409458,-0.13830999840950117,-0.04508111216796978,-0.32740198302375456,-0.10021653445883252,-0.9182759416901954,-0.1096169023733197
,-0.041071682693675955,-0.8681577001869807,-0.10299948900733318,-0.5922740343410667,-0.08209012849472497,-0.14688210166828367,-0.002467817321088432,-0.20346961175671513,0.02987450650066135,0.11211257088102924,-0.26368344219397427,-0.17541905265386595,-0.5180241636976142,-0.08351087147473726
,-0.010822338427165613,-1.0505941212844792,-0.1776201460916243,-0.4825129063930927,-0.2477263718385834,-0.253549202756343,0.21009461064556562,0.0718947995157976,-0.023170120472774666,0.17467869763931884,-0.3400854255750377,-0.12025754875591164,-0.481417752792422,-0.1263833781691937
,-0.0010253403356922694,-0.7524232902513875,-0.07502039202958836,-0.26774066548570213,-0.20511673757186497,0.0687268388844756,-0.03141517797836553,0.007678848458059772,0.13396403471005086,0.19085512943185234,0.020592207794456908,-0.08195602398503579,-0.07017590996768698,-0.237521716122561
,-0.05878433862873941,-0.2331728839358028,-0.0905468090092462,-0.12443105637691944,-0.24171753881373273,-0.19012195701441262,-0.26571342041580076,-0.14100989966854535,0.011610042724932094,-0.02655024758134046,-0.00367425327458368,-0.07288492603069394,-0.09610473519693874,-0.2181469488856932
,-0.08068029611324436,-0.1998311330416351,-0.11392677369649885,-0.10169217780429265,0.029349874076052832,-0.18207953681917524,-0.058067891869591194,-0.17769561423770436,0.034590077592234175,-0.06840721653343933,0.06034285943230622,0.00769525830454218,-0.4754339149503217,0.09497971220655681
,-0.04989686387043951,-0.6356038891060665,-0.2993492526910681,-0.2320798178082152,-0.015398472050429934,-0.21962153231638984,0.24834777227845464,-0.0704729038494089,0.075975772831305,-0.20050566389997315,0.1622426904089985,0.11553164233387872,-0.6366089790475522,0.15498138014871285
,-0.10826948806753078,-0.48558739587754474,-0.25016236650942864,-0.24862059367747963,-0.10254360703839534,-0.00866286225741175,0.1434251582866906,0.0951109653496218,0.04995715493691152,-0.12920333050579405,0.04483558818660298,-0.006960369236525627,-0.41166361109133637,-0.000537722923022754
,-0.24790900871872112,-0.40632025453680615,-0.12665807852920513,-0.3319799804458482,-0.15508497273470792,-0.16932705913532067,0.18865285332124923,0.014594676254960767,-0.013052256379656619,-0.10564402925339589,0.04724176592103569,-0.04906343683911794,-0.32061480059006914,-0.1346013059937173
,-0.28832108297049314,-0.5833819309034147,-0.05114297676461972,-0.18869457539331402,-0.23130668041519048,-0.15083203211577564,0.18860992774785024,-0.07937801877526084,0.01776246893753519,0.15367584321882055,-0.1506277636833663,-0.13805451077416891,-0.5206438715933381,-0.30313048980220636
,0.05091060160457645,-0.1127565351972513,0.1310238137345134,-0.06698613699544342,-0.14225369519050754,0.09594762570998681,0.07805369609299384,-0.12200564621435468,-0.034515567606649214,0.22989671752720942,-0.038622831934617574,-0.09578596071247458,-0.22921050050861205,-0.15425721035270576
,0.08344101224989306,-0.0633830127753602,0.01206325831212875,-0.036608288386729554,-0.20436967986267185,0.02929426899275247,0.2031483767617006,-0.033845433575038365,0.0029135762726425363,0.22752721618943383,-0.16909364723836115,-0.14964947839842338,-0.2126579025050054,-0.22089275906666786
,-0.004887975666212333,-0.18539216349984455,-0.13043014957878166,-0.007325792839263057,-0.11369194349931236,-0.032652627569395236,0.07667358770603609,0.10296201024037531,0.051909330615464794,0.28387924072166315,-0.1626214283233204,-0.1387225144591483,-0.2997901114120275,-0.1908312364583292
,0.02809233508666428,-0.2722357929231788,-0.06046730889745123,-0.06865686249858402,-0.002903042242181906,0.09749424765256666,-0.05291608045413991,0.13282373859989322,0.12952649997446522,0.10963198547204298,0.27315596111136836,-0.12878432182038188,0.15848150200436498,0.048260454479703986
,0.07128276836659982,-0.06887260093185656,-0.04217763935237172,0.08930397197084257,-0.07650461507678093,0.08125127054243841,-0.13934397923203334,0.25160815476346804,0.13454996329408483,0.0161532897082022,0.22689426160961815,-0.11233392741065541,-0.151284369568496,0.20008501627221847
,0.24633671349682273,-0.23159526163415137,-0.1114397362956772,-0.030499595876421013,-0.14485202294802876,0.3322450695217816,-0.0885474035252185,0.14705840605361017,0.12241313118157442,0.06584314577628744,0.12023060157366224,-0.24825468888673802,-0.33672221272231206,-0.02324449220430493
,0.10972951226061485,-0.13293348772873112,-0.1733310462032949,-0.06380382200773656,-0.14786668603757197,0.34358565567795457,-0.006430582169779324,0.06688360662342896,0.13377375811747896,0.3326414501931172,0.160606341683138,-0.24494491785454256,-0.22133290261677016,-0.15992723400149605
,-0.06507631367771843,0.03461660848591803,-0.07069027348376425,0.05010339927794152,-0.003015150981579971,0.01627527211035753,0.15115172385057696,0.023356540313431786,0.0019903620361018523,0.002262630914747251,0.24647739379629544,-0.07210071345861889,0.16685532640367823,0.06837759336076539
,0.03379656415930374,-0.0541217915339631,-0.18024233031654888,-0.06976595805037321,-0.15817835770123226,-0.1482977286934448,0.037778660833003026,-0.05237758876662806,-0.034916291707692206,0.02332856466320276,0.022977270002502166,-0.10392469662601905,-0.00661449276225807,0.036697100815625855
,0.26390376288585893,-0.024550799093247096,-0.04699882082889232,-0.06170645450407766,-0.047513409362497094,0.11128488329752105,-0.051352940814689906,0.11868890882289483,0.0298050057063068,0.21266171596525324,-0.027107395142105653,-0.10038872404955396,-0.19310348024782803,0.15246265496743236
,0.2359472461690829,-0.09067188315066504,-0.008093190144026628,0.13149274905161298,-0.08227371166329402,-0.0639281680421549,0.020655263067788678,0.20795630927877073,0.060588970095560975,0.07358685277243866,-0.09100121490409088,-0.08013871861464908,-0.30071518219263355,0.09606551980452305
,-0.05314055793097047,-0.3732621811296886,0.01990493624171405,-0.1126460546439207,-0.10348254708330538,-0.14552667522861096,-0.011405492014682075,0.06833657121875987,-0.031104161607734996,-0.0859747746628344,0.15147083940028516,-0.014438989745071323,-0.16912088650691526,-0.07469582987492804
,0.006877344217834461,-0.7741557254976429,-0.055028331107674244,-0.15626352356275963,-0.08442750264696543,0.030749725161915903,0.15197885906080527,0.19040698124257746,-0.15239807690534377,-0.13883212449568316,0.17336166958442473,-0.08004760502324111,-0.1510787402811722,-0.11436700283629678
,-0.17599241652404293,-0.7703969216418932,-0.1668011198476855,-0.4010735953050429,-0.07383554994895139,0.13090088976459294,0.26974297291193294,0.13366581694873164,0.06513177209360459,-0.09269946794722025,-0.002092070909166317,-0.16564814778961265,-0.1384399573729738,-0.2849136589146443
,-0.16144056717354266,-0.7426621504233193,-0.06197559562667795,-0.375504228196587,-0.06606708227614622,0.18377371412102728,0.11531457245038366,0.08260045229029209,0.04761085128488987,-0.08208568462462541,0.03349662299124078,-0.2615044509105219,-0.3300189369167629,-0.309732669886611
,-0.2759375093017568,-0.48328815885613574,-0.07588094501176437,-0.23780585429495835,-0.18215263563845338,-0.006994500609020331,0.022658491226749358,-0.026527083053744002,0.051495309297339885,0.0961721680131892,-0.14494047039304855,-0.16993786356107324,-0.7004346641064395,-0.23008108439008662
,-0.5357896987576933,-0.8354905565449056,-0.2573042180032559,-0.568269045778912,-0.08097875290693105,-0.0017174927234623598,-0.32277222006672357,-0.133531747573175,-0.2598719755528794,-0.2006643876786568,-0.2777474588532556,-0.16395935084858795,-0.7143490056345564,-0.5206478542534189
,-0.37097702251253795,-0.720616077686267,-0.1531196576091597,-0.5316711048769385,-0.15226155636628072,0.2207071300628018,-0.1381492986241615,-0.04021915297511344,-0.1906867808189441,-0.12860906045660978,-0.1530002904256994,-0.17511157786299492,-0.33985600169494645,-0.4539267419960386
,-0.011524065838190644,-0.6825750084490181,-0.12428300932954386,-0.4782892870471717,-0.1443169608489666,0.07525964709325911,0.1287860246573837,-0.09000566393839532,-0.04908595784698489,0.18568635336979025,-0.224238716358982,-0.14620207855612305,-0.12682913372906462,-0.21388436868537697
,0.047578004654629094,-0.6395006083247489,-0.2830029204916366,-0.46818859679741254,-0.13475281104448092,0.1606004473133016,0.25090028656944185,0.1340757721482171,-0.14005743076019667,0.24455122723792144,-0.2609503782418992,-0.10417063836622312,-0.2976097307089684,-0.2061489505937973
,-0.00857349329973023,-0.30787277240799954,-0.232879518551991,-0.2559245283147102,-0.11552573923019012,0.20477993123508823,0.14675255919428576,0.14763582298112818,0.005754525078349033,0.09260446040079898,-0.03600619329427089,0.009959810897521,-0.6331803631436621,-0.09304199535022195
,0.09067118138213545,-0.2002515760030149,-0.10100402883674156,-0.16784665126062268,0.009260091541878696,-0.11850941135243336,0.014682909738621677,0.16312899642364564,0.1710829020004242,0.10619948714825568,-0.08678480810477555,0.08468757267856482,-0.4810843255913594,0.006057006846538107
,0.1337787637956108,-0.21743098676072892,-0.012326435952210101,-0.2863617529384981,-0.25694994339212873,-0.07799948558360043,0.006125058272420382,0.047351374124239454,-0.03693434298792504,0.04015576319389923,-0.22588378783888421,0.028460931753078327,-0.47429129647735346,-0.24890955951435798
,-0.08727375473945428,-0.19076100724420383,0.05368033006341841,-0.1890652643336117,-0.20179567359538922,0.15302176099472628,0.08379750587986087,-0.00417715644150837,-0.17593698925262474,0.02385721668374638,-0.00157853299816987,-0.10542574356742755,-0.3162238311323955,-0.23820285036495703
,-0.03452937213064919,0.34232357814992403,-0.09194647661721314,-0.09176693946793378,-0.06268912804677668,0.08276770098386906,-0.056254368244722276,0.0814696120952083,-0.009888037541302543,0.27865933269117776,-0.046883192936798455,0.1420271066636147,-0.10866159203891275,-0.08409676087086304
,-0.04033001533014114,-0.16348787772756201,-0.13578120007219227,-0.18996444681633226,-0.0337872814069142,0.07959635085912976,-0.06758628492267031,0.008879306147319854,0.036776511313220225,0.30778564270998043,-0.07887823451460942,0.1118458474180917,-0.0036640141741707084,0.044451871706967926
,-0.12414208194956021,-0.3982569240846056,-0.12648775915446084,-0.29522226693471665,-0.03496899276828438,-0.05102184851461664,-0.03871509077809876,-0.05005095407868137,-0.054280285036924183,0.08959164755563924,-0.19946352364863112,0.10080671927801256,-0.0916994465149001,0.0016755489432203278
,0.09815980302454863,-0.26832027140601794,-0.15722327968800806,-0.11960008858367958,-0.10425540729658037,-0.08789817975751847,0.2274560233436105,0.18532565094937167,0.0047961233620920805,0.03457149122637679,-0.0828414710985007,0.06511003298574285,-0.20396154042900064,-0.10067148823204136
,0.04118374016720942,-0.195041970601776,-0.18488897756221528,0.1379848147945014,0.02795332859217979,0.13744665876811177,0.21799800198019637,0.09339450362942964,0.04946198096684144,-0.02479293956373816,-0.08003810276116594,0.09062234029184643,-0.5149673233978619,-0.2606264278575774
,-0.07230157944557859,-0.02408613263048802,-0.13724471137238187,0.06097166230764509,-0.22569687447108472,0.04688213100766992,0.02177172172955289,0.09327492213191567,0.08975845072458198,0.07436132309603646,-0.0014240907234272858,0.025492744091842462,-0.3606837397833448,-0.14515890942894463
,-0.15034920159390922,0.04194227169139172,-0.03931023034809954,0.14487483984837482,-0.2683949146738978,-0.11436895985724706,-0.18876439246620386,-0.0797780731585971,0.09310537056188853,0.04689003366525415,0.17634492857576434,-0.016514853491711737,-0.10763402767250978,-0.16689381276741616
,0.008035156236136268,-0.03650258815811719,-0.1137572964381679,0.06970087112952204,-0.013320469942473384,-0.0429342361664457,-0.0866768605028703,-0.07683121055903556,0.251090333126969,0.007424208362590349,0.2403439823993011,0.02448907532562921,-0.15309515229343273,-0.14319745962469763
,0.05941940511139058,0.21907358445216463,-0.018690685570394525,-0.02389907507372059,-0.006844313370973264,0.15501055826102228,0.08920837138645206,-0.013732686613496699,0.1919971259645132,0.20359655958546732,0.35905735354924295,0.056662525719698216,-0.2534978585330494,-0.09407244237454873
,-0.08205832710434459,0.3091218239200805,0.09877906870876599,-0.1032515398439547,-0.05438050334407829,0.18659366859933574,0.06509621671426954,0.09325724978243642,0.019906581090218697,0.01402412418596295,0.43488797599737783,0.16316523237499284,-0.24157547201049082,-0.028539210761222154
,0.07307075103659187,-0.1703372973241103,-0.08711971827945486,-0.19185961593691625,-0.13724062704228776,0.23794503646385548,0.3415409928591004,0.03467080752389626,-0.14885719209656254,0.10174936936999376,0.39712920842892785,0.10601527042591259,-0.5321538084637106,-0.004648188714827831
,-0.11384514747144422,-0.10756009523466697,-0.1356383339175986,-0.18388540026707714,-0.2803477205349086,0.006825296664968643,0.24592257577538937,-0.0069407199865660135,-0.13843328939926997,0.18600673578373317,0.1192001872947924,-0.07813737268655903,-0.6206587863431907,0.011508781542129672
,-0.183059858141789,0.16805090063358902,-0.17561230431971533,-0.1089461473197557,-0.1927881478285419,-0.00496841615268072,-0.005155522193135136,-0.1117227173521577,0.07223100649629198,-0.02213807099122838,-0.24218523317296575,-0.15075902323109974,-0.38467388038915107,0.13277212874174454
,-0.004864520426398613,-0.0944649084808582,-0.20710748623718986,-0.08678618589199268,0.016586169480230735,0.02584990272986467,0.0758107371683665,0.07562118150806033,0.1406123534242917,-0.12331402009011938,-0.03524016216253805,-0.16749944010579698,-0.1516387042121581,0.14348343428008348
,0.013052731503101014,-0.17930960055935477,-0.04639617971064281,-0.14056006573155622,-0.10599491294526597,-0.029318819666820463,0.01780045639839328,0.14439661569892692,-0.012585756073601623,-0.20358767972009234,0.12824883515588323,-0.17732507777071194,-0.01885184465155891,-0.01829415302893908
,0.05175201666232719,0.05298163839576696,0.03328783447752785,-0.06133069717487293,-0.019730388119471365,0.004999713161997153,-0.004980981066381744,0.015862763733495315,-0.1442715595057623,0.02580260152456952,0.00528658186242538,-0.17050476197238612,0.2341010160426228,-0.0011093969302778048
,-0.09736643914726659,0.2214919053249229,0.05153302068219887,0.008309192079779051,0.005148776680792551,-0.014353568517468804,0.12761061096806173,-0.06265949153500404,-0.18101226823213193,0.30006535396735795,0.15166350632253753,-0.08118215319162571,0.2664653960749077,0.09387516764743493
,0.11562562274109581,0.028264596897926084,0.17949556358249638,0.04993914539659977,-0.0328733059947235,0.023242955668311915,0.18262018723177562,0.07224772667667265,-0.03247083586545605,0.2573909952033508,0.1815205253948766,0.026781219125105876,-0.08341610776509022,-0.058968781911376736
,0.14239105747024627,-0.1848181470553752,0.22740950166810983,0.0953958117522849,-0.04420951444361175,0.12994872804690524,0.19956085360828324,0.21784004301521429,0.1435382673466422,0.20890463601970097,0.24100028857505323,-0.10038876002787246,-0.014478827646723178,0.03493138905481725
,-0.04731917378234526,-0.0952435201981585,-0.0773818392622985,0.19722765831738615,0.05469907993559247,0.25933394722677694,-0.07957957447182096,0.19901479658274426,0.004414450878775563,-0.0744277163525176,0.23236930206691056,0.018194401308249553,-0.30907442717941824,0.0013659831513259365
,-0.016483398702232747,-0.20881772332136952,-0.20582867920534714,0.1331696290162086,0.09744057833092223,0.0697505843941229,-0.20079643280952747,0.32317544803220644,0.04147512601385034,-0.22672242491442404,0.06710341956492441,0.08213499705370068,-0.42999395083281644,-0.02958463663223694
,0.16692126880378358,-0.17256864620710938,-0.26893467939572424,-0.037416635647494575,0.0010434857238995547,0.13319470863127175,0.15329307533874656,0.3816899448485545,0.02825161519361481,0.03644436219365225,-0.06426568298763348,0.1544785339739889,-0.49562018949853587,-0.2582004679302263
,-0.0029675802299459486,0.15736579716256308,-0.32833424103960956,0.025319958871309865,0.03592765426065295,-0.0539302261205089,0.1226850019159382,-0.13218050317374921,-0.07299604583979387,-0.007412436144004339,0.06154243107397632,0.16425497667211952,-0.4939163455501155,-0.029302674582969
,-0.0928224716257412,-0.014302943167343235,-0.16026890731848117,-0.013270112644210255,-0.18836141611989649,0.10904685353449427,0.0403479571861469,-0.2112063746013098,0.0392583814752525,-0.007372171255071142,0.14738636133601626,0.012684482676457196,-0.22799862832968248,0.08802716926881253
,-0.055601688968322925,-0.06586951959355279,0.03585706517533474,-0.1613882000833652,-0.1894708394727806,0.08518955259497593,0.08676243957756256,-0.08927954421679712,0.13601826856447072,-0.022913640500595245,0.10621372913911474,-0.047047649437586575,-0.281656100311723,0.05571088670568763
,-0.032857534693315434,0.32766783954399203,-0.1029774177644762,-0.03851332836244191,-0.013484037123264615,0.04263918423773558,0.18260753346487504,-0.027280119201313333,0.12208782243653778,-0.11104578094297701,0.17211594195070384,0.003838708845972057,-0.04354130588659404,-0.08040031187053882
,0.06533621009535295,-0.1657944658674264,-0.04675965332736269,0.14158240076921644,-0.15137530242882627,-0.010334962403240167,-0.03806543359231598,-0.0021282616096695646,0.2456356082858862,0.04862990087100574,0.00514820853931467,0.010068872275426929,-0.21427921728860339,-0.2314686689476942
,0.04122265727211135,-0.3529907194992506,0.01822270216904544,0.1237673369129436,-0.11659369870462089,-0.20379307458198284,-0.1835902340588361,-0.11902491153011928,0.052586133376213186,0.04614024978486773,0.08237900638180744,-0.07187367831937908,-0.05683319533108496,-0.12013569771366178
,-0.06056060117272604,-0.20082833849957,0.04009520957057392,-0.024797493352110907,0.06267391419919656,-0.2503667426404801,-0.12005663653717875,-0.04997673866961062,0.17349785163182657,0.05091035193505178,0.02264561076353793,-0.034400194407463155,-0.09897268995108156,-0.017920313795670762
,0.02142333650264778,-0.04042048286294566,0.04910782536138939,0.032170174241754494,0.06574930228107752,0.045543639771324834,0.1704927074576756,-0.02469557601751093,0.2796084807847047,-0.007850847242980317,-0.07426658191287847,0.03350003282889318,-0.03714356768375203,0.10399927477927971
,0.07915989498691545,0.2767503353569635,-0.1874578035322387,0.11198043014563779,-0.13796236341638884,0.11575376171267757,0.22794035981005603,-0.07396140021609934,0.025049038679761642,-0.04773876690068954,0.05024436675345503,0.05694849896016983,-0.18388855615729252,0.09306112065667133
,-0.02240174179323446,0.28670156738430846,-0.23033976068866635,0.050572422805645,-0.2372712116972318,0.06782815826192488,-0.03515575919032207,-0.07219736039500951,-0.06355778617143558,-0.04699693208430482,0.19517115127142468,0.05336629863971123,-0.08563974298079581,0.2622231834621447
,0.12731379471713997,0.0988207560718234,-0.16100727594955613,-0.10431508810359524,-0.11542922798364631,0.11964283457448784,-0.0616745051709825,-0.06775533903874614,-0.1678026198021022,0.014281809845307875,0.27194704190325497,0.043612776042897886,-0.1348092498089731,0.18623770800335956
,0.330688674400995,0.07869061146827702,-0.11791982355217154,-0.16850784540103572,-0.2888309746811441,0.20763092136636527,-0.028067160935255023,0.07870982724989196,-0.15701187415728335,-0.0987438061947748,0.06943032561334292,0.10854294927974359,-0.27125565997784157,0.14010903064505503
,0.20075047767311963,0.05903826872747394,-0.15884484155593362,-0.04679173958809781,-0.12309492235033079,0.111850757346473,-0.11794338654193466,-0.05117533879938306,0.01519572918736133,-0.0935305174529171,0.09257254127362216,0.0019407741533917931,-0.15891489130809852,0.1302138452936624
,0.10226989604952512,0.1308567265021231,-0.05787259926219547,0.02317663287701066,-0.09365233717479911,0.09778921236509047,0.028171604276762685,0.004750064227523808,0.08440366415156512,-0.009642490608952031,0.024794875896425643,-0.158477091249243,-0.46642067800922676,-0.05091059270634775
,0.09330924309729838,0.21600982244387895,0.037567339057246275,0.026744370373623927,-0.09019324318952057,0.07368233007767101,-0.016625564552195063,0.06486289725260819,0.07146062493761805,0.015458977190406597,0.27550031173967304,-0.2050118446370672,-0.38706654889325603,-0.07473227399253454
,0.17925027417112357,-0.19074430479025625,0.0077415781516635895,-0.08435232107746364,0.069215956598449,-0.022849069396275668,-0.1487923957811,0.04892228583621844,0.09063780702417001,-0.055368278417117785,0.08921779761797374,-0.1456767139968806,-0.12265253673557473,0.018924549762413066
,0.0454393603698766,-0.3939822468997918,0.009746198067310318,-0.1580249633608659,0.038733909718729746,0.07513001276232933,0.11216931705324028,0.019613872298580925,0.118720911967355,0.0498455041792617,-0.081325072095812,-0.02195968432826721,-0.07384292735484964,-0.04236910810955394
,-0.026361520871246866,-0.013745595796272537,0.02727627648424339,-0.0015751836488764467,-0.08843044146297609,0.1487751457887457,0.09332591906479926,0.1494685854420462,0.3196825538306231,0.1970840420553018,-0.055442788587626725,0.0929724969065282,-0.27543075808801076,0.07590842974737688
,0.0481926641800005,-0.20218174062601382,-0.13186939774106649,-0.09210689924566473,0.029649489209581187,0.408848254865051,0.03389825441365376,0.03916839683365964,0.2116865058690987,0.21681562170699017,0.12243410295259093,0.0171252492616434,-0.2693074205231977,-0.05716206554085882
,0.113480480570303,-0.3568161339107604,-0.10717780390177227,-0.18567568624483424,-0.07073615114851692,0.3306422436986519,-0.004795437274975397,0.09351267146423069,-0.05556706834431946,0.07609429658015608,-0.015655481507021115,0.05863744616273426,-0.12998175309938229,-0.2785192277338832
,0.3002385727383479,-0.375355386977169,0.049650667166142276,-0.051917786688742036,-0.12063837638695761,0.20092747066091132,0.07216411075922946,0.25118210502939076,-0.023254998213777685,0.1334622554043614,-0.13688286868118932,-0.01633060093187443,-0.13190816360263466,-0.2299877681214031
,0.08295797711741107,-0.12321786980551613,0.13015227760430828,0.1618378413993927,-0.10449264104661539,0.06978976635319728,0.08851316470339904,0.14855304948339915,0.16791970379271307,0.22424489414679552,-0.17462013272177654,-0.13108216650975066,-0.2150530848966874,-0.14627977730342095
,-0.10753483563769077,-0.07540852112662244,0.03823513585014598,-0.018568076216043436,0.014462413250740587,-0.060395507990929284,0.11774025398558645,0.24378545187764997,0.2652557737447653,0.15146647196798427,-0.0013938157910026742,0.0029638781033344713,-0.1914551194258126,-0.22439316900857764
,0.2159137974674439,-0.25303303521044046,-0.045167901281185766,-0.07887078053152034,-0.14466556073624165,-0.03127696842621762,0.09651283503871481,-0.1484903181993069,0.22831750468540885,0.0035868438787381722,0.05380408117223518,0.07516342868972416,-0.46742424227544693,0.06856497592079955
,0.2520115782526803,-0.44889678087767887,-0.11129531245744109,-0.08527954694325995,-0.15609521584287223,-0.09248868256101533,0.12285688859487259,-0.2350108378028284,0.06596392536836078,-0.07604029715432592,0.0131283981205993,0.004958797671397963,-0.13714861446199572,0.12017752612523808
,-0.01592096825233121,-0.4616944453566496,-0.11487465224622888,0.035960494536825184,0.016827078870788353,0.10370741882124242,0.1728696084308243,-0.04377815223441631,-0.07449106606083415,-0.060451266957579845,0.07334098432343211,0.04635336642263087,-0.08074838722013755,-0.12465077610107532
,-0.05473518352556294,-0.18784259323912014,-0.07309753401716189,0.12126125368933077,-0.11732614827846548,0.2728157271527723,-0.11475182383148752,0.14882446637796576,-0.09427479979963703,-0.029612961707388745,0.06612774105682642,-0.047206977768878756,-0.2379555391553259,-0.11092738028760997
,0.2483174884548815,-0.0312765040627233,-0.027945889442897578,0.018476849446639708,0.036236495973882454,0.30827929531588494,-0.18871619599245745,0.11281107503087233,0.02018723588651922,0.11077245759527582,-0.06782970183172267,-0.025280124692890926,-0.196363752203028,-0.07534705152016316
,0.22572161082015574,-0.3253182352584915,-0.05981816279771716,-0.1448587107034957,0.1541266430564665,0.10090042068836212,-0.040094007849243954,-0.021467573949985445,0.20549165070445252,0.21966645220915823,-0.05478944341525394,-0.0378946487710407,-0.47159077319525544,-0.1359470812200892
,0.3247181503717165,-0.30842345275724353,-0.0026884751514816875,-0.04269998719316148,-0.03930797015077823,0.11572392889769295,0.11725659742645299,0.042364677916425904,0.027641514341187407,0.024191984603704978,0.05185516690387954,-0.04085335495881691,-0.3357399787446945,0.06537457481945189
,-0.027372001784718863,-0.17091857515120182,-0.010170816568490922,0.07938052573464069,0.030465552198140275,0.1941842264196709,0.17808183840245556,0.09829190889248678,-0.08689241775448443,-0.10603598306920979,0.042686411746850624,-0.12843001274785823,-0.30828836878658006,0.04472674858129071
,-0.19790923514010328,-0.008216843950914827,-0.12104386493891049,-0.03543274049313135,0.01490354732270777,0.18906238791256946,0.11499836266588907,0.005002754323850417,-0.17743615150994527,0.04939256421948822,0.10708123104177673,0.025566168386541858,-0.13098998855726282,0.1472507224734993
,-0.17582844151669005,0.24174071910763542,-0.1261902862984709,-0.04493692522109802,0.09184687632995767,0.1207314724973291,-0.0036176852249588352,0.027746095219359643,-0.10863295369644123,-0.19694795981084728,0.12237562644390686,-0.021855573065203686,-0.18185493474405817,0.052117653859015844
,0.13933728979823645,-0.2783035495469392,0.021601600905094286,0.13170504420784762,-0.06657946042284874,-0.08155797242119649,0.013460438092442567,0.006945444417442709,0.3245859524683128,-0.13386655849492052,-0.1145492125044379,-0.053402514253387046,-0.2709474466288845,-0.09370776527689895
,0.36791817455908216,-0.1935280390782442,0.06082587657158099,0.1386387784095027,-0.1847877157251763,-0.020703637467282286,0.13192503569944977,0.08286707805336599,0.22519469300534017,0.18934369048260388,-0.10005065241523411,0.10502909216358296,-0.31298226234192744,-0.04574788233220197
,0.4677383563410044,0.5444311680446176,0.16731072890591173,0.16724110203465345,-0.12002179461813797,0.07885159713191808,0.15110504536830743,0.11101228687431497,0.0051560219892405204,0.14496126828309874,0.20185764499854192,0.02538343670679895,-0.3585361743167618,0.1727720302219268
,0.18445946314812917,0.19272746197057997,-0.10414943698268946,-0.02464355492746552,0.05070946482726703,-0.01853142165587773,0.06745840206397397,-0.0843876533437191,0.03492546163598599,0.08632091360956284,0.011537567446908181,-0.0003163884453715439,-0.3270397301132434,0.19590771492060838
,0.21351412552381305,0.04593232271532677,-0.09628635429303467,-0.17401556689155245,0.06819690649816348,0.05650627385372077,0.006700617506360887,-0.07134028543508135,0.1330684713275979,0.16355470321608956,0.14886109052618668,0.022801928201856305,-0.025047243149292776,0.10993975122254276
,0.23726211556148033,0.35007371025779194,0.07117543584263894,-0.1821213065695805,0.059671732147854845,-0.061952986083468116,0.11563924239904833,0.07519233308508073,0.24452974837676972,-0.007105220697267048,0.15165956615745466,-0.05570883897418957,-0.3857954833049056,0.04260506330597388
,0.14318845700727809,0.32186929670742065,-0.11523262584228447,-0.030704389369598028,-0.04828207221647928,0.06059610396958088,0.34571064158844,-0.061585975750229685,0.24036039514199714,-0.00011257326396910284,0.03839701015129767,-0.08682631784564085,-0.367987834924144,0.04104089612513072
,0.04518718298535488,0.09541060901434739,-0.08590281894299505,0.14435809072031486,-0.17834892663264793,-0.09605722393295364,0.005983762473125029,-0.27994526504169187,-0.1642579456948473,-0.0689969732734849,-0.04719489717276232,-0.060739536892864196,-0.31497365119933973,-0.13517812606610252
,0.076033703156171,0.07725775830274839,0.0009427947489933835,0.19684886481578082,0.0613666747828847,0.0032961359683366786,-0.013205275055572025,-0.12806391228246572,-0.22297911357911218,-0.07244355063227291,0.0016604234046276062,-0.038872979489397774,0.0029797919133537744,-0.21527157071884268
,0.13622661617242282,0.013593344702497807,-0.07611082010151529,0.019482370603331946,0.11581311307545694,0.15695953663079062,0.15669302985528427,0.12148213456203,0.011291391313574237,-0.06052846491630997,-0.04485390828865938,0.014446661486043497,-0.24869802081777798,-0.2132473467707942
,0.0005380179968670643,0.0951063278313736,-0.10096028677709333,-0.007398932786963241,0.05850555258143105,0.11773954567284536,0.36128108136543263,0.030893009742238967,0.021346946306741516,-0.05457232042087956,-0.04759174379964781,0.14089672911161202,-0.5165340571397693,-0.10833961205630219
,-0.0755062074777235,-0.12538255984927116,-0.12407478060398737,0.09805190646165285,-0.1109242829020907,0.283161002153387,0.06399649096408994,0.0012936677924167757,0.11023819324259558,-0.03373728084039627,0.16554203376323168,0.03256425874145873,-0.17393630920580186,0.08485653897331395
,-0.1180623478497471,-0.17353110400358862,-0.07579868131855622,-0.07854021854538296,-0.06063915050282835,0.1798014818560276,-0.08835949513461887,0.07196049556667171,0.18512235645168165,0.07467144590843247,0.09594606032205899,0.0027579435378855717,0.028687839470247924,-0.18124812476140362
E1,-0.260767367016357,-0.03959595719617968,0.012006467203980563,-0.22041413855482364,-0.050857437943309124,-0.1078525892532465,-0.00023872015707249901,-0.15471011731161452,-0.07745605456850625,-0.0838917096872145,-0.033023796994918926,-0.17138223535138827,0.03435217258013093,-0.33928944431301133
,-0.2445692767363466,-0.17174322255333677,-0.11184831172034004,-0.2654397103059299,-0.1495460274270558,-0.25877594130936404,0.0708148741156269,-0.26269786044464655,-0.07914552458420573,-0.020672703813060772,0.20350297855701246,-0.15746337726260284,-0.11233752705790921,-0.2257834032068243
,-0.033293119084867026,-0.42399417195200406,-0.22352453888688614,-0.32656971062491663,-0.1393766671993413,-0.23886734203555932,0.09254761959281267,-0.12199840495948869,-0.142133986516265,-0.0694600421470447,0.20890400713690568,-0.08025314652015386,-0.25813297113610123,-0.19656296100445192
,-0.20816879925443757,-0.4129816795284773,-0.24448463143093524,-0.329256538850961,0.017289137389913594,-0.1301212649221029,0.0699905433119744,-0.031125819577700137,-0.17516387823662935,-0.21077982951794302,0.15865864802671045,-0.08420739065263363,-0.22273854221798342,-0.10820722778687894
,-0.16374127864873111,-0.22166691333310634,-0.18660506883425423,-0.23677701188383185,-0.21581069287281948,-0.2011255359830774,0.2701619851615631,0.03520318429590986,0.057117510757241134,-0.34946013515883445,0.2534703264966317,0.002928475693026567,-0.3630602712130203,-0.051303340503820426
,-0.0682481662947726,-0.032212167458773214,-0.1409773317494595,-0.1971207251684846,-0.09063241266679761,-0.11881463227068127,0.3388132842359054,0.15722874979423032,0.18503873594550388,-0.10654656598047481,0.12473732249924029,-0.050982882500189806,-0.43186319346351276,-0.07662742453029354
,-0.17704693903882052,-0.6277164228122922,-0.11891767006691645,-0.23884976572610037,-0.023420183184470738,0.031047627925086904,0.24793307662605482,0.21373011086659927,0.05450007083582199,-0.034882581344254385,0.1761534714936235,-0.07402400689750001,0.06056550103873784,-0.008996658756782535
,-0.05989131333629974,-0.5772071995878574,-0.0026916773360887787,-0.2121675753142124,-0.1774207471583828,-0.007195959445304627,-0.03443160612956813,0.1473355650178047,-0.08182023498093033,-0.13699951232601273,0.2989060358660088,-0.17670992532847857,-0.03338264173990702,-0.044873217781272866
,0.3836852820864126,-0.4534312126175268,0.02968758399000773,-0.059054522667555016,-0.1754636024741777,0.1443335846397117,0.04383528462628589,0.04733048952456961,-0.12614135933801254,0.09477550975542615,0.12346409820979413,-0.23309215352318746,-0.25905639627327487,-0.12676131377710598
,0.07941107583347201,-0.39904234923532833,-0.09900575864567687,0.053437268270368425,-0.13058329387449044,0.11910673447844197,0.1630403411083148,0.11223785879205621,-0.08830980830626906,-0.022142400145322292,0.19522988409312056,-0.0529807239578839,-0.37153236154330727,-0.10467003037754997
,-0.0023283916097100368,-0.24427683761485444,-0.13862508925908737,0.045334436389856035,-0.13780471679292025,0.15420923115299118,0.06279701727137438,0.06695076568428991,-0.07254188041447324,-0.0850285086954484,0.23675200271062083,-0.017480277431472,-0.3557460307200301,0.09718462512313894
,0.14612966357340026,-0.2779122492568745,0.012522255122783725,-0.16683160930108626,0.051861019865291146,0.13668468717441204,-0.0685596560420377,0.014702785133249033,0.04655361019849011,-0.15946254755114242,0.4717573729302241,-0.06390443970019527,-0.3272732167251277,0.10499465410055761
,0.17142564100253566,-0.3740859036531419,0.00417623956548443,-0.12915265614526159,-0.1708503804838261,0.04966966469491788,-0.06756090997835487,0.026901149158953624,-0.05626478356317359,-0.2393266375039286,0.057133028549977184,0.05201224995015622,-0.2661291154323507,0.050245998831689405
,0.026348116466239087,-0.6461081703134587,0.04034627731838622,-0.13493414546965765,-0.18597879547729967,0.10443839643508676,0.021767316979214513,-0.03560257461114798,-0.045520975992210805,-0.07575143265648335,-0.01452144314967853,0.1481328653891871,-0.06272655179425296,0.18148205008873217
,-0.073720848458468,-0.5703190832073031,-0.1445101473496487,-0.2060484888929299,-0.15731121219783936,0.14666883806941836,-0.017146889172820118,-0.0956907917200736,-0.037015505185081614,0.01390064696323614,0.3536460334021524,0.11359864611300916,-0.15875571382054826,0.13336260523718393
,-0.10906856969681322,-0.010116086999650312,-0.14058099628105472,-0.1717704033143253,-0.1726888750403311,-0.04056033133557202,0.03675397887351613,0.02921091727369609,0.12168130864591618,0.04568746190931345,0.1843522451738475,-0.1344909864054491,0.15147409031212788,0.0291178322051721
,-0.04311934356581629,-0.07414601907286848,-0.0901403228801344,-0.02016557715951527,-0.33475451595169625,-0.20928434994314352,0.19148194751953188,0.1073648882069081,0.02608024502147488,-0.02706655806464214,-0.048885489474550375,-0.21783452748176196,-0.08116961242082016,-0.22013631605475564
,0.22579922229703858,-0.2189775189981716,-0.10302299793731629,0.20329226943084563,-0.49040431105813265,-0.3415289424990418,-0.023309061753621747,-0.12743050509139364,-0.19390970976899014,0.08569900274059758,-0.13565928128118226,-0.23259917339848177,-0.3395827122154164,-0.1803722156841533
,0.4398368061330158,0.08563410388480823,0.0013626055293871199,0.06585931621255275,-0.23414279500556143,-0.08019431935312768,-0.029860941043390037,-0.1924673812357412,-0.027018554310839545,0.2045496863594441,0.161737119907995,-0.16881486194240614,0.16331845233974793,-0.022563621039970862
,0.25854602381156905,0.0051704078600379785,0.00606824483586618,-0.0829265096736399,-0.032378241923177384,0.2915508288943624,0.007815417206806584,-0.11594615405856079,0.15573153908079304,0.014040316786867384,0.288469325133899,-0.0334488840159263,-0.0662020441451367,-0.030868271009486258
,0.1636973857602651,-0.04847862786769317,-0.09984927008988662,-0.14026017567994215,-0.18069672425838954,0.053950829094819824,0.06497998668518243,-0.05911451968624374,0.05936698295058298,-0.15626187960509555,0.09137523997967782,0.13147108127617782,-0.19559178792833773,-0.12075409919928153
,-0.08932045626764008,-0.04786142665378467,-0.033475569106638244,-0.28050390648817314,-0.2009337436425321,-0.03775314034169191,-0.025315704119768634,0.04624728901330676,0.00985598507028875,0.03897665356602237,0.1991480460471959,0.030461097763116302,0.04134924961156105,-0.15529549687952077
,-0.2109927005809342,-0.18229584257705328,-0.1774948913185277,-0.22028525476633912,-0.16719804637490318,-0.033891005829585256,0.036617590639921004,0.1089651733975917,-0.004217528971083402,0.07253744703849385,0.20840037679665122,-0.002937185812998655,0.020306773439634128,-0.13876957161354667
,-0.1435181487829658,-0.09756930675681723,-0.24690313437022782,-0.3196932816759423,-0.13868457294614162,0.00961335152262534,-0.14231650051213107,-0.04241493582076965,-0.06364626374180353,0.1506235264235875,0.07192119578573987,0.18895696670324513,-0.08579608118913805,0.09306179420058164
,-0.05655041643950851,-0.3066856500422034,-0.1275849051979008,-0.1782039436420151,0.05021640039334328,0.20872759377101527,-0.2790031230120331,-0.060059515812330544,-0.13927773049933628,0.2660878097559548,-0.055973697180732446,0.0825063026761398,-0.2152329978062837,0.1442397922001957
,0.00696598429363639,0.04733850743828425,0.037396713209830124,-0.016087657769795743,-0.014741628367650297,0.03463585465062335,-0.1567095400344303,0.08743307028154232,0.08560984221577507,0.3276437229963265,-0.006236521192511607,-0.04071542260872372,-0.38374272242579704,0.006635536477293815
,0.1775865048451076,0.4153416775765846,-0.03534574703279969,-0.008943921470769828,-0.11852939198320302,-0.010758015024339271,-0.023134215262438116,0.27001914270390437,0.19625984856000286,0.12190971011446791,0.14585176143325845,0.04465468036474845,-0.14027326835825213,0.2102707020668963
,0.034385355048493695,-0.22433921386765107,-0.05466173424163091,-0.12827199378293136,-0.1971625266318648,0.1412201915955598,0.18366764247531142,0.07457319236928854,0.06013406539212451,-0.011863397876407666,-0.007276144820662028,0.04565012360331332,-0.18616364490334322,0.17498170385380873
,0.10165066367209927,-0.07836456269639046,-0.035819892646246146,-0.1659292943453324,-0.20131305946820427,-0.07672011202425899,0.015253458584604463,0.05019831201952012,-0.022873870117843233,-0.02228715318297028,-0.1834097577615271,-0.17227094923227268,-0.25118349539771884,-0.0011736352463839667
,0.19092763511906902,0.1809828004999677,-0.07296108345442075,-0.3500809216635177,-0.38101259966102075,-0.12547165240984184,-0.10507068783195148,0.05631531199935675,0.016523715903816124,0.08898608682019374,-0.09653048073024467,-0.12867717948905738,-0.3790632417201464,-0.17243253814482024
,0.3019481007877985,0.1737927984866066,0.061108083143903105,-0.29067648508679,-0.32158767667138377,-0.08680866460186923,-0.003730767276148326,0.13067631156444995,-0.0028163626825211683,0.09296348979386003,0.007960015118487682,0.03784973921356392,-0.29720191772295823,-0.13211162403704094
,0.21271951943939268,-0.14461093105753217,0.04126950193536484,-0.123841698158901,-0.12870848750611327,-0.03765731584454042,-0.08934927955190355,-0.034070757450073756,0.030562598314210643,0.12022979840640587,0.23453233812586266,0.06854519119095734,-0.09257017336001759,-0.07035000348487791
,0.07890491271887054,-0.05936095281474815,0.04706377686802574,-0.1038844015317312,-0.18999968247467663,0.024153458302007123,-0.20354694273068796,0.030925634994830562,0.0016217945238624653,0.03559808450619488,0.13680942619703385,-0.13189044308726028,-0.09734257806891473,0.06827765770124218
,0.10721889664753198,0.4830372493418602,-0.04841603407353968,0.13048038783215785,-0.4299726284884345,0.08603474129226149,-0.06369410692818978,0.08833878078252945,0.08152199062712175,-0.14214596357556444,-0.00719709544276254,-0.1555324672329693,0.10540168120251424,0.07167851306483944
,0.205285967513434,0.009125945646670078,-0.15777621828553887,-0.06912637016448833,-0.31233576405695307,0.15234309138262303,0.1331077666377633,0.13725428971944104,-0.06215792726665215,-0.1262531973901003,0.10062904841238264,-0.12650007516306583,0.3311582720962836,0.10345715107680306
,0.17630472674837608,0.11267706921951265,-0.13125018692461823,-0.016196962134002922,-0.03174244209024681,0.281586754985598,0.1430030320526551,0.15570784727148732,0.08012948161507184,0.23896762660947068,0.2489726181966038,-0.07386226851546641,0.10957184899446175,-0.08034658236702336
,0.15597822768532274,-0.030666012709603473,-0.0052035692797256445,-0.03054438041603199,0.08517030859816853,0.12958894453514003,0.08544817338443561,0.28279531667709756,0.08321955585881291,0.23718699636973764,0.10900909652171518,0.0051772890469324205,-0.1939926052810653,-0.09425926498905612
,0.370512563771143,-0.19474893338894403,-0.058129016551906956,-0.1644231335298647,-0.02612687297737984,0.030090147600934668,-0.005481247823269149,-0.006245552505631527,0.050724666330597475,0.0506600784807589,0.07857648002947774,-0.07790962146968211,-0.2529673204794137,0.04897987547665294
,0.10669032683309801,-0.41467179747543925,-0.07004603463618529,-0.14501696278859955,-0.20654331546204568,-0.09206675992545237,-0.03773609664008323,0.0387278844501434,0.1178309684202617,-0.024349303339017834,0.17547001941866908,-0.15689915501468596,0.16338992914962225,-0.0393111684709079
,-0.00207015766341915,-0.21110563198990115,-0.23343579267736855,-0.2677565141502887,-0.21158424343784724,-0.3047694638577209,-0.05512788273039982,-0.08277029504340577,0.1107215094287738,0.060372800520842505,0.27194190249799294,-0.07403040120319915,-0.27566815543988477,-0.010832733724491873
,0.11362438615729503,-0.1515482660541363,-0.08545044860908746,-0.29656750670065585,0.014192995908390522,-0.21450675184533427,-0.01586349914675617,0.003291100130010127,0.10664155936288107,0.20301669420262025,0.14484941340089424,0.07294179011439973,-0.09323016644549784,-0.027576379826353026
,-0.051932055551324935,0.013417924059121709,0.00970874147932602,-0.18535270364806736,-0.2378450680241206,0.16619917854490204,-0.0577855680540459,0.027545821640815364,-0.032566103233093134,0.19139916631299264,0.10258785058096564,0.08277529644418256,0.23626058705324463,-0.13239303148999293
,-0.12910469382405318,0.2787625579785564,-0.08708506506831956,-0.08335541399907091,-0.1450997455804308,0.13593248370583558,0.0262512221984553,0.10033954472526574,0.021517214154321458,0.1143038786253346,0.16154622339542862,-0.055341802365182116,-0.5828904786551561,-0.08615459533738734
,-0.09403190107849162,0.25332998187708755,-0.056375072549766314,-0.08015927364081907,-0.28765141826029017,-0.15319326105471975,0.11708719513930342,0.2057708956782444,0.14974012057226546,0.011656444213160682,-0.0940518826647714,-0.31362389695419146,-0.8001414191008053,-0.11882038808300431
,-0.23463466393369176,-0.07249519669289703,-0.12189687886332527,-0.1358682699556562,-0.11462934252219308,0.033179014890901984,0.19233840105052016,0.1587446391659355,0.3169080095150693,-0.08604424319747318,0.038440679750207186,-0.2868525746435057,-0.43127557402733363,-0.21434304057354805
,-0.052974195721496094,0.15083417191003212,-0.1076389625327625,-0.12822622777391698,0.02577518611939179,0.21559654909334508,0.17049147121756408,-0.01328003833326825,0.02812199074795542,-0.03345287734552392,-0.10192072416390016,-0.055697450500238915,-0.05539529409469028,-0.15693136468416993
,0.06233346311052528,0.21287004804506132,0.061500565020121294,-0.05225531901575984,-0.061917372903442236,0.1353380822926303,-0.03808477474096634,-0.00021006916306145427,0.060048966209972625,-0.10936232707703587,0.06907062011105627,0.029635029017017273,0.08284121685910424,-0.23177489627975079
,0.12896946086797806,-0.06268357692334156,0.01052860086778296,0.039212054256205636,-0.18657613226555794,0.031227080260414833,0.11053883251648304,0.11530002714926967,0.08946306101881558,-0.02926943158901758,0.27122734070501225,-0.034819130407974165,0.24752270276324453,-0.18406911331654974
,0.02483951675915292,-0.17530298475980663,-0.08234227428812663,-0.11456072829303547,-0.28375740504234687,0.06573687141260591,0.09912358983803608,0.22200546771691265,0.01105120185002972,-0.10960483593836498,-0.1566002452113833,-0.0011734444667636172,-0.08607272495886104,-0.3317076100466335
,-0.03714837362313378,-0.08302538636159293,0.06340914033629357,-0.003042360471134873,-0.16617899920935428,0.097554862424764,-0.021451870234968803,-0.07300185293378728,-0.03653995688805113,-0.01874138984733536,-0.005409848383943883,0.0747518989792146,-0.22709946648727403,-0.29736603235158854
,0.04207028168110849,-0.1652042588729752,-0.018274325409225904,0.15483712013945758,-0.09240355599632143,0.035141896423645624,0.05463801676884265,-0.0639690855157009,0.21516198215451038,0.12144948404779643,0.17628983438394277,0.07388283183962989,-0.16128301046344845,-0.011591548071979103
,0.18334741321996495,-0.30029914349037085,-0.07796346806796799,-0.12857486352740954,0.17921873584963072,-0.11179669536622967,0.07555744570318121,-0.24928599504166,0.3334175273473098,0.07589557996995501,0.13553832772327634,0.020978509314068396,-0.2684082734326807,0.12133644908686717
,0.3967740351483025,-0.217867732515882,-0.18471415453958787,-0.2746713801600778,-0.05647235267573691,-0.18170415824868116,-0.036484614694160346,-0.14746840785312326,-0.006790845903864454,-0.13416286004008496,0.07517536072024204,0.05999337499411001,0.010065916823363514,-0.13333310763391767
,0.27345817314909404,0.05202207087217393,-0.08982947381698027,-0.09090584050405019,-0.02599367200657088,0.14695431447819332,-0.03868916265432397,0.06547307402379676,-0.050816717996933734,-0.02501543547746336,0.020710542794553456,0.08665635290407653,0.06619094597761188,-0.07828528450752865
,0.29557042720015547,0.18120044284064182,0.05590836496563375,0.0029977394048549644,0.19495948681212968,0.09063881286265495,0.06288794259276444,0.012143920744994381,-0.023016207235378085,0.10353886774704,-0.10332629146385808,0.07959504319689961,-0.2294870419871461,-0.005957981863710982
,-0.13416836224283368,0.22394546990426561,-0.036039119360151396,-0.008863068707166898,0.10154608296135627,0.13498163160473334,0.03341796214070836,-0.06398428219123005,-0.03149307315997575,0.2555247564789905,-0.03564168330056537,0.050195248214961415,-0.4279191142565767,0.01080421714356016
,-0.18060744085529026,0.4106986404899046,-0.047249889379501316,0.029987899009964878,-0.05877252531984877,0.05257176399865284,0.1503848678800452,0.07879006336388751,0.12300802580703754,-0.014396744491802371,-0.08228647053808784,0.026443643192198347,-0.44462520212049567,0.11488974038607053
,-0.1587636751880592,0.28530673102848525,-0.10185622174673839,0.12476820191517274,-0.018503793454528253,0.07084243244315527,0.2705285133344949,0.09648620812909793,0.22259918779714327,-0.07871258045895245,0.14343823288763557,0.10171965362525996,-0.34069307919558295,0.005178460730062417
,-0.10222281670432608,0.05782877371102171,0.0022115983794165593,0.0648564159470014,-0.034465105428794766,0.009191227602672145,0.04247979896295767,0.005960568214456571,0.22455156665575993,0.011855777160618327,0.03893141741065693,0.030622558264326992,-0.3436472412698225,0.03997340838406473
,0.103004800769761,0.22439366976026284,0.025683690860868004,-0.01660996670930477,0.08260520843465959,0.055248137149384834,-0.04589863647939553,0.029698682166607992,0.20621780279341037,0.07086100460176044,0.08370235036200867,-0.051996537039805335,-0.16330998597072574,-0.011023902588336883
,0.1495178006541268,0.08920592179387964,-0.13889927266923668,-0.21445918083059004,0.04210886423424173,0.15060949323638267,0.04202623749268835,0.146799974254342,-0.0942383285495991,0.10341504113715105,0.24984767478668737,-0.1934904510804098,-0.36780803853504274,-0.02011742433537319
,-0.1409379797440717,-0.37821363271598496,-0.17700421324943594,-0.29699727060961684,0.15404688252012802,0.1595585266661997,0.1175903736937503,0.12897687134184252,-0.1236491999954683,0.271864538299374,0.0931295015214433,-0.015705430975085945,-0.3323940561887167,-0.01185946142560951
,0.10923657267634747,-0.3183696645725117,0.10978131821540149,-0.08108335023682053,0.24747528601161026,0.06750463969714075,-0.005428144916064619,0.01789713973442978,-0.04971542518738239,0.1629388889838445,-0.010054600514638261,0.1406629981865135,-0.2582751867773238,-0.06903004171493748
,0.28459664611912877,0.024894340567640623,-0.06395463926151625,-0.027225191718337847,0.21092575606888936,-0.09759302929102848,-0.10777808773821504,-0.0600800149318416,0.019283036974923312,-0.16583479588670974,-0.06430152820146671,-0.004321759204555522,-0.5161365720132601,-0.062250656918125855
,0.2092623766687078,-0.02033849719756567,-0.18426791082779723,0.09110865347756975,0.3130879153482215,0.07556055660970575,0.1586252283632556,0.10436910027360675,0.11507732839406531,-0.09722042224823209,-0.178111786447379,-0.14275602272669724,-0.11420624532238811,-0.0061796582729265245
,-0.039684687371580596,0.23769313607366077,-0.033262620428871716,0.11141651711115155,0.05660395546306312,0.00270430618183523,0.09819548772161961,0.05745408302921439,0.17474163797224632,0.1800746190762487,-0.013903861458498007,-0.08547042167483558,0.2926747704540894,0.029996815249437703
,0.14382446429058313,0.2296918277952327,0.0016296402069014666,0.043713319163480834,-0.21202208276226608,0.13848016692872692,0.14102290180947782,0.21839523213627499,0.06883968996733084,0.0573437329852558,0.23127373055776734,0.0453135240920469,-0.2595382610219553,0.17681960093367577
,0.007049754454916002,0.2539612030243483,-0.025691453480409684,0.06419848450306653,-0.08047933473230631,-0.07815561339349797,-0.004412723185937489,0.30822083765965574,0.20804271833814722,0.08927937844361093,0.14897208916060553,0.10463295082453605,-0.3124050811305588,-0.024413667088044974
,-0.11748075196389052,0.463759089482458,-0.0006178408248045287,-0.0816634792202783,0.026214561527298744,-0.1881227942176951,-0.1010619888039939,0.218232910677893,0.30456629895650883,0.03508429212947978,0.22140117198762072,0.11760015799970396,0.025370295309742167,-0.00946779229079883
,-0.08993198238382873,0.07393684836120194,-0.02501024209520954,0.03564356186690082,-0.12828292493900853,-0.06549956263440886,0.0906378924019477,-0.035079521584595416,0.17457477440551622,0.20421504431312126,0.14826092831795,0.045028753961706594,0.18175928843160358,0.07534303289059618
,0.02842906419479683,-0.03504040020860969,-0.046296986964633975,0.19569745341330408,-0.10190889941923192,0.06132601424512028,0.3168734293865905,0.0298703537382628,0.1740073733778269,0.19456786880648885,0.07723824962743099,0.004172365864428482,0.09456812544494349,-0.028688248926727736
,0.03647912357115177,-0.1286597723656209,-0.06569847226122724,-0.0642655322326431,0.026998370536392067,-0.056552330523939084,0.0923563879776504,-0.12136982149163904,0.27930147077173256,0.22683856326124155,0.1963043190307333,-0.15529859493431758,0.5356727370684736,0.06238452885869996
,0.04379158301413868,0.04300444648493221,0.058989004001145665,-0.13871953755420008,0.15250827621360838,-0.008695599691963134,-0.0758675508595716,-0.08165635971298221,-0.07716711176361077,0.20602095720849323,0.19623223549972135,-0.0468812460933555,0.3026801624025087,0.03911267603307325
,0.003459065928299607,0.07228808863333208,0.033281717795982886,-0.03418551095217097,0.14935100311462993,0.08174899313597428,-0.0837455591309257,-0.015347992871225633,-0.09243301472771849,-0.006437436217024799,0.12755889849929333,0.1639949272995862,0.15614109275513807,-0.045680930946026356
,-0.05504010684594326,-0.08379176767207071,0.0010875577526549749,0.013554448080749534,0.20621804087297074,0.14845149291038193,-0.21631584020936376,0.11401542583519855,0.13927358079582794,-0.19114840132155403,0.0034485836042154835,0.14234104411907075,0.33025669734711904,0.0009196194955101396
,0.13118266056170697,0.035665719177383426,0.06495828826049713,-0.052938874844212426,0.16833141230637555,0.2092789496609195,0.03926594347534051,0.18461905345347715,0.14578880824773383,-0.06714226358697864,-0.085477636488549,0.2206844294122648,-0.10083409745470151,0.16354469869147875
,0.284158934868569,0.11286076849705685,0.1405585962662213,0.159615600873838,-0.06405546147407191,-0.09899493959732064,0.10620906667222534,0.06962284813392354,0.13286231470897086,0.0732435905043589,-0.5425954688666118,-0.01570951664146587,-0.2694450612283337,0.04090728149320958
,0.17874438139354085,0.22264463270503207,0.16347693685979137,0.0882275081765792,-0.1793024664649463,-0.2824428446781297,0.06707115962866876,0.0907399702697913,-0.04524758044537631,0.07610514285568973,-0.42972870267992314,-0.20476623339383587,-0.10089375298457964,-0.030527023254695248
,0.26575141467351837,0.16813146247137178,0.02610397593071157,0.08497852312637008,0.0488589423313784,0.006059060148849329,0.3357345036322661,0.16502184117747187,-0.029838599987021066,-0.10530336118126214,0.09450067520950074,-0.009752896243701254,0.1420624223097238,0.14360046815043778
,0.21127707630738415,0.07929079139715807,-0.029601023158384268,0.015071391425406422,-0.038369982524725274,0.044921805466997165,0.27672551431812503,0.14360514304448166,0.24053734902909654,-0.21525926945142315,0.029618039981676093,0.0888446122632468,0.10336581206486653,0.05249613437407781
,0.31474257343625683,-0.11865420091827356,-0.007257674488361364,-0.02875562894722412,-0.17613941700345329,-0.20433481862654523,0.1478548811677962,0.16385500984361928,0.027696637905646904,-0.017290417821957026,0.16971255585237205,0.040459516407473146,-0.2251124170147197,0.12170347520620929
,0.17019003221761117,-0.14133809187555807,-0.006092217777561529,-0.06160496461742147,-0.07405515280851907,-0.03012481030373502,0.012268941843227056,0.01489362262121494,0.02911782349167499,-0.1783944008460799,0.01590832562158186,-0.039537278710781186,-0.06972566014481384,-0.04199793845318886
,0.14145156398738992,-0.16681426548630007,0.05964015602171073,-0.09695121689106724,-0.3334389882371496,-0.0002768785768685805,-0.09985053046463378,-0.0001878113243529115,0.16285974907282905,-0.23624436936084292,0.012481438385723072,-0.022353859958811707,-0.2553766722015229,-0.0030004292166869915
,0.11786438440766407,-0.16670182796309413,-0.09863053125618557,-0.041267711705699324,-0.21912160805422576,-0.09204017740752894,-0.018961098700504598,0.15284631494237122,0.2888605525472394,0.04196793904476168,-0.01441200336650914,-0.014725182556712154,-0.4448675751305369,0.008925169597503368
,0.12206017900801258,0.24410316285724817,-0.1396925339759353,-0.056836252613580864,-0.0466564720694968,0.04707854551712576,0.1028427002986535,0.09153689212808955,0.08877033102765733,0.057263573997693426,-0.018785002890438704,-0.1575023685987816,-0.2128278328909432,-0.11849470065873957
,-0.17657552101074775,-0.05291075174282024,-0.14083772531076078,-0.12656092168889763,-0.26964929988913267,0.06444500335473938,0.0036299450606712327,0.08142108025058704,-0.07216683375072658,-0.05659504224661149,0.02810731534780294,-0.131555914502774,-0.17925602399702448,-0.3557047927854914
E2,0.04623927729678272,-0.1409858498920683,-0.09152087293889997,-0.024536800212788756,-0.1367750648140808,0.20605384459654097,0.1503608438123521,0.19482740393886494,0.23463017614279996,-0.0865261627836407,-0.27703751590375614,-0.08190504605917882,-0.4898667799445912,-0.14104615859094866
,0.11167277882656575,-0.3596113958009656,-0.1308349505547485,-0.14016667556760556,-0.006224300548727936,0.10396513941319313,0.006531385695557057,0.009903045412287068,0.3389017708413434,0.04626771303695881,-0.17978348602171562,-0.020243673726856166,-0.5923855530575813,-0.14836088499221917
,0.045749585409476094,-0.4142993744732626,-0.1310707299495963,-0.2767463921309027,-0.0259182066784468,0.09718141313979438,-0.11000493700729917,-0.16458453884594765,0.31772918003245415,0.03421803571279706,0.13208095850417267,0.03434564186581026,-0.17951366180982561,-0.11323951969989378
,-0.10088811587155185,-0.5225801826284392,0.05090839585559717,-0.2246447764020674,0.008296061597886022,0.10788304141501515,-0.24359190925295524,-0.008033965273669468,0.14192225167287323,0.12164646108704083,-0.08274971936454335,0.17660377291017604,-0.14015477764838286,-0.01596754613946453
,-0.22354657127752986,-0.3969171258832257,0.014164005656305349,-0.14547681761395453,-0.07842648906350146,0.11939432296922282,-0.03840344898644315,-0.05358342468913659,0.028417771974539624,-0.048160822215500124,0.005651953035607693,0.03916831199420384,-0.31806513462203656,-0.06602988237396865
,-0.05257062433610012,-0.18613216351951478,0.09300975381672529,0.03154122498461204,-0.059526704171882834,0.04556953504639699,0.03700842055937232,0.05734258657241948,0.021153272480382505,-0.025298074248873776,-0.016472452913998147,-0.09756032210551144,-0.511596972042626,-0.028416486825682267
,0.030850117855360373,-0.20862280491689858,0.10486188948905137,0.0038083089487266817,-0.22449476044303654,-0.2108136497714767,0.0014339889552708943,0.12314343571113535,0.03806166556918962,0.061171871285881994,-0.09256215192252785,-0.042085465422202255,-0.31765734868692913,0.13013149932779183
,0.2746287167294286,-0.3052485678129713,-0.07632675555648534,-0.11669421685543681,-0.2500496065660561,-0.2240503311632192,-0.03874193889277291,0.1105683796261666,0.09735259876805051,-0.06913528088495086,-0.05263848605873185,-0.11770790998436503,-0.3939850809573619,0.06049625631808033
,0.032509882700127876,-0.3565350210780576,-0.1822218358954247,-0.12723295743875976,-0.29693361614078095,-0.04458175656880081,0.08861545234170563,-0.10589116146936234,0.06355845930516356,-0.07397521721252329,0.00046934212414009635,-0.09924581651519492,-0.44782370803765054,-0.047698238977495616
,-0.057167556353084015,-0.2812905036394013,-0.17363584909724622,-0.11951291834272748,-0.22106829230823952,-0.15170564396776462,0.00688549989541055,-0.09316791777047913,-0.004243896900623598,0.09166049713511838,0.019158529303756472,0.1306990758628945,-0.6568668405161144,-0.019623274386404092
,0.12201528761885143,-0.3095639362017103,-0.20679276409063707,-0.12097970589345508,-0.033525506500472306,-0.26819070072473133,-0.025281209255166196,0.10619357365410505,0.21296243572766588,-0.13651851469863122,-0.08469674082820058,-0.03940958475088858,-0.6179369734815812,-0.13226179377102865
,0.10952210294153854,-0.1239681499260108,-0.08511482043223885,-0.11718272797467837,-0.06676027080741403,-0.2351875251166373,0.08798686759536845,-0.02561013419917643,0.0498444279672421,-0.15093718589224295,-0.04104943241053148,-0.13445014606465822,0.02487721438090822,-0.05944471105826684
,-0.05436878901684316,-0.21844201752623216,-0.04205976772496859,-0.22940216373666417,-0.052250278489014465,0.06166138658996945,0.21389904495781958,0.0013314228616700624,-0.11035511650805616,0.052059244904976675,0.07037263555971097,-0.061656363164665606,-0.1974718324940873,-0.021314312636698
,-0.0032471988157482547,-0.6976326284390936,-0.16864057641272298,-0.18600875709634812,-0.12814664368554146,-0.03958552722318385,0.135135985821337,0.19206835001877615,-0.27065208579678957,-0.02878013202081868,-0.31635383977541326,-0.00253953897180491,-0.5564048539919578,0.09451713657682344
,-0.21535469104073254,-0.8846169516290416,-0.07099119825281992,-0.2534833568750123,-0.21443551630946686,0.13822937548238404,0.02377756216747797,-0.020414180773364335,-0.21298712139369172,0.04924153591200987,-0.16058415836179588,-0.11730699818775595,-0.2964610622260221,0.09234318718431857
,0.053886322121655825,-0.7236796275927534,-0.09850095510723515,-0.23873512452979423,-0.18366906540877279,-0.07227477031458332,-0.009919454747062097,0.018972967079561212,-0.037238758391571716,0.05669800250774635,0.15478618581819037,-0.16108600815222712,-0.2101414829589116,0.18706143165720676
,0.23675817409314806,-0.27936437436559375,-0.1283381587834513,-0.18412698796252955,0.04625019092015998,-0.17455640671154923,-0.05040900293352978,0.06930226670755811,-0.07128621777324108,0.04745061672710699,0.21800024175506766,-0.035593636327324145,-0.023323039624448025,-0.03249207298347534
,0.4439869572044034,0.15311790072248072,-0.14587299310125346,-0.030100636432917948,-0.15539904311950964,0.060901669729102936,0.3302127244222428,-0.027890227699681948,-0.07843413965027816,0.2250536405407048,0.1891196284926557,0.06423788186893882,0.4413925554588586,-0.021463316704087673
,0.4333581348705013,0.013432629702900248,-0.15472675797074234,-0.03599740716736209,-0.05449992984344738,0.08463479630788673,0.2802052433585789,0.03299255797603633,-0.00587641511373694,-0.015192493953060285,0.18630955782287598,-0.07304380815400113,0.6076152242489116,0.02762106287044796
,0.19297082639742058,-0.3878266366823248,-0.07169394696569201,-0.2610220745526502,-0.04602685824491316,0.0012965694430670078,0.10416030037272063,0.05691564220446637,0.27271137561627273,0.1400787980739755,0.12693826290678292,-0.038597187174432335,0.047648009157986754,0.10748794020405367
,-0.019333745988863747,-0.659440847252878,-0.14703971671277757,-0.2042219700196929,-0.2788873353355778,-0.22187615357337032,-0.19546421026458163,0.1028112686732014,0.16971372929814632,0.23634055097791798,0.028347879321918106,0.018213913921575467,-0.2661773817037824,-0.10581169628005586
,-0.019427749093294106,-0.3167661657084253,-0.02041515124918988,-0.02891684869188503,-0.21384155151091847,-0.2548207021718595,-0.18993889057164792,-0.05853592827841473,0.20807090425545624,0.024967391106738082,-0.07696052909870894,0.08606134379267183,-0.38185062084355953,-0.18291171348182383
,-0.007497095377305289,-0.4263987808672162,0.06879505335708455,-0.2580050900429788,-0.163328820087805,-0.046152518913734286,-0.03573381640068968,-0.13073925693781455,-0.12021281405261625,0.008837449586255033,-0.08074305889259971,0.052099335517651384,-0.5301490941315854,-0.1698568719920908
,0.20358273143844177,-0.21947044306315544,-0.03405908599198273,-0.34188059938800464,-0.06113794992135844,0.052762156969161984,0.1582500742483339,-0.032422460348507466,-0.11460027520312473,0.12563930044972108,0.11090543166435096,-0.1321772595569438,-0.18721420588160673,0.07155146550726293
,0.05922819669868065,-0.4446899434300859,-0.20425038076132512,-0.3597492313968761,-0.08216157865288594,0.023885973975663437,0.17538170857971028,0.0667721536740115,-0.026422162302755507,-0.05602527602050082,-0.0322323878358034,-0.13957432816312634,-0.25028332769106526,0.1713432585574877
,0.04200106321906818,-0.5767710365416803,-0.1762740279576033,-0.21925995560448885,-0.06005345848586432,0.10445180449376011,0.08653995368098921,-0.08399392311887592,-0.1057511740636545,-0.0490539307629807,-0.08267713531244025,-0.06302936351434309,-0.36197199913273936,0.010693616602574748
,0.22957855665335405,-0.4442248474899198,-0.13322377363333007,-0.28912765051030864,0.055739280113341394,0.1282689671976627,0.19349787269880725,-0.0898053089361738,-0.14930022617845035,-0.03400202453707852,0.152396644737372,0.06475769307402181,0.03621189576011149,-0.16768168457391291
,0.133170966185235,-0.12482147997175866,-0.16930881713353593,-0.1728722201928709,0.06946413333922243,-0.004970999920157932,0.3052554722571421,0.03000910593082564,0.005099821426404561,0.2531010753331646,0.3426234936753969,0.123097365949149,-0.06704742898483036,-0.05999203571584478
,-0.14384802431182311,0.06866402674644465,-0.006921053153866715,0.15447996286513901,-0.052231088072362576,0.035047317484098506,0.1937425217382394,0.08959411122780482,0.0692634980017887,0.21901235472512037,0.36558018988480456,-0.01949633566283139,-0.2287777706230575,-0.12099300659961972
,-0.05457881184309347,-0.1400401252839827,-0.11639008180630595,0.14175602937555706,-0.10844817309394564,0.11245061703459984,0.20271324718462402,-0.11195955542135261,0.0027622155207996033,-0.05303121843120018,0.31411104928501354,-0.029613597408102703,-0.275639833937365,-0.09422527129923926
,-0.17397164346250954,-0.25901340055077854,-0.10104564143528295,-0.03776351342024186,-0.15482957592636137,0.009998941655864102,-0.15322853509955425,-0.11209246895421716,0.056654556330601936,-0.16696319046628838,0.4450321968481845,0.11720154024632524,-0.18441704849870683,0.05558503387618092
,-0.01735968524924755,-0.11518766165941427,-0.18576981764409223,-0.1534994226100296,-0.21428620114638075,0.0648508481234469,-0.16184525618831033,0.18504750069850262,0.15575714165284782,0.06523166329770767,0.31905073798957584,0.11773157433508154,-0.08677212319449927,-0.13010755026809995
,0.5168858382091653,-0.4767250512078188,-0.17137258159255278,-0.2229151865645045,-0.04094696628247754,0.19989293663537866,0.03732878127294094,0.1139241954319486,0.08057815205986792,-0.01703393203444081,0.08405809291756274,-0.05463363498772765,-0.05384862881514753,-0.2267332431846845
,0.13677598264955004,-0.30090315151761576,-0.12079473727831308,-0.320998192702086,-0.16782930897236364,-0.3463961400914823,-0.19502531037241766,-0.19948776301894888,-0.1923379215079168,-0.04335666884463912,0.014133910132245289,-0.3400190577360689,0.015454551965003133,-0.19191647274098517
,-0.003141269737996332,-0.3537348132617161,0.03447613966784757,-0.3390884146708285,-0.3350832797570233,-0.49420522474954803,-0.254834523696,-0.17525321468848296,-0.2579970647769852,-0.04190240582605538,0.08582971721611043,-0.3167097275086383,-0.03986152982111975,-0.030202366234417438
,0.019531767309387004,-0.7182571019898876,0.059954119758897716,-0.050938558085225606,-0.511520578505663,-0.31045482254161716,-0.02967505574617734,0.11120443782732303,-0.26274421922853963,-0.11884917962358531,0.05320848978349489,-0.1682604530005388,0.06022525720104887,-0.05834858131799149
