event,eeg.af3,eeg.f7,eeg.f3,eeg.fc5,eeg.t7,eeg.p7,eeg.o1,eeg.o2,eeg.p8,eeg.t8,eeg.fc6,eeg.f4,eeg.f8,eeg.af4
,0.028841231507357883,-0.3948667895399046,-0.12467515774399869,-0.22639322893466302,-0.04869402952524426,-0.08830369719579904,-0.22911926605909474,0.17494516687381276,-0.1570046465364924,-0.025052975787829022,-0.07804514469173204,0.06027537203166383,-0.02876992123209246,-0.07238171537688903
,-0.06958012371656097,-0.36034853878283174,-0.1303646314958016,-0.22013994461068728,0.1262274834331528,-0.21316766325757763,-0.2540182103727353,0.09956623609420312,-0.06277896935513827,0.0190509052740043,-0.22770516731203475,0.13436528479504134,-0.2733648635582546,-0.10057099994933089
,-0.04025972377355715,-0.7046506670218997,0.03961582339913668,-0.28402149213036004,0.000850209961749118,-0.07082787904330895,-0.17646317273334014,-0.047649916827477885,-0.005769290622767009,0.2638961177572255,-0.13326054756201816,0.06131754767398585,-0.23039384853628306,-0.09835653281732995
,-0.09417770001994637,-0.7922017737367852,0.003104844143929418,-0.4139317244833929,-0.007395015136873304,-0.10445174086929948,-0.06706197904853213,0.030071164240356267,-0.00638568928115821,0.18570044474148475,-0.16840455203621332,0.05420111236725345,-0.43096426886115996,-0.09654870502675306
,-0.10000338519765171,-0.7790554006208006,-0.01689354344421881,-0.43481498938863966,-0.06141069152606167,-0.17790196440599548,-0.011381490306354896,-0.14359989759132735,-0.22962620443845555,0.05057548923932694,-0.04829927670531911,-0.06976906673816104,-0.11966660470205867,0.0325875071834301
,-0.27592550166883933,-0.7640963926425189,0.09654246384931242,-0.29513387139295905,-0.08974032748777694,-0.07644923811495576,0.020826342756030552,-0.042030131494044956,-0.031343028106115604,0.029472864501275273,0.1422313242661056,-0.021636169556423557,-0.41767430599134914,0.09414467293980816
,-0.1267591371038834,-0.5181370920160588,-0.029251227383736048,-0.21642671969698665,0.07930242174150219,-0.14251962455091718,0.12313707865995104,0.05431164294949361,0.09583936440162158,-0.05544882418501326,0.18887324808478217,0.00814421724156428,-0.5883471363700884,0.21811212602626032
,0.10115539270943624,-0.2595494065740284,-0.016037557002562545,-0.04782404054573001,0.08851884894917258,-0.28447259518040796,0.09514634486987547,0.09643956425606191,-0.038740152580497136,0.15825987959851065,0.1448576867366618,-0.11535232685738522,-0.27898124348073977,0.1565524227872596
,0.08900476709452594,0.21825878372558602,-0.24292914786891362,-0.025716555748197818,-0.026673249071166617,-0.24221688651521026,-0.07783407152661222,0.01016949420299338,0.049326959146389536,0.22768539668646043,0.30407499525148707,-0.00876076820675984,-0.1180659181472258,0.03620393210203158
,0.06125740986258476,0.5206658989467009,-0.289575824468384,-0.23140909478214347,-0.18417931813107025,0.04801190956887892,0.022872292964614828,0.19084729657721125,0.1867600502094968,0.10608122538424603,0.1686144891709486,-0.09853328345613659,0.5187477955837035,-0.08642113207474174
,-0.03734772158915673,-0.092285167064538,-0.09171331046086667,-0.07860892944599845,0.17004645391950643,0.04965315151947356,-0.060328616930308256,-0.04539093159446153,-0.006687973294224299,0.017028698414117492,-0.29804666334034624,-0.08418227751255981,0.23089245251223392,0.08626223583062914
,-0.04627746989599026,-0.16688013862156412,-0.02453193149271573,0.08045842603943412,0.26615744792459856,-0.1498941416854628,-0.23377836790969847,0.0062446980323290074,-0.12598059812440374,-0.07544608754607045,-0.36658230036266126,0.08926259293206147,-0.07042208220706357,-0.05462940550280575
,-0.04154524463055246,0.6034194369320052,0.1256802784501731,-0.11689962014728777,0.2786291595171879,-0.1702397311257337,-0.006749114283648205,0.05998393501809366,-0.05706260801084796,0.1810502801959766,-0.035581043571443476,0.06255435181689824,0.07458748348842753,0.07363832324395524
,-0.18332683494256838,0.1801803490779665,0.01605343757351968,-0.24587091514010442,0.21336737758914912,-0.10079910791712836,-0.1422425449169734,-0.10693684860606259,-0.14301417043234513,0.3040967842414248,0.07880063210357267,0.028517523034313725,-0.07614204895534225,0.20694145439536177
,0.04514683627539487,-0.2204441585194022,-0.010330174358585678,-0.14308721841490357,-0.01944371709595402,0.004426018988863378,-0.019206607447001034,-0.047170065687277205,-0.11171899411782606,0.3496710393267049,0.007827523026482857,0.004618534878251496,-0.11025423665945827,0.2208661520711989
,0.3647447489092121,-0.19984264746927627,-0.01747017457075005,-0.09485402213768747,0.1633094357472078,0.05649734962225222,-0.04834127368179628,0.21884777245469988,0.040540396834912514,0.2483437944046674,0.16577618167931693,0.060359152237738044,0.16018152872737038,0.10081519112703766
,0.3856328032844925,0.13988541003053165,0.20714607014630204,0.09128476675750126,0.08607081908345765,-0.049902369673955206,-0.1949631645534397,0.1774481495524189,-0.14126109131244996,0.25182429660078415,0.14923611171905252,-0.010826184466620132,0.20204417284249196,0.14555856312072804
,0.2380223909828974,0.303350879398598,0.14499943613793256,0.11627253504118902,0.15731435758890103,0.02197612017292186,-0.05510541201831064,-0.012644839345859724,-0.2623162888703488,0.03496129356064144,0.09977462478204656,-0.09251852165399954,0.2113176349264144,0.348704105811289
,0.26167341003433625,0.6187195472376708,-0.03768466822327756,0.04418635344000998,0.09541327144942813,-0.13460031289013272,-0.022708417725913234,0.19290991602178922,-0.05891194705130645,-0.057529362765320884,0.12008638140420222,-0.0571824842566755,0.3699157202451777,0.07469811289909115
,0.05177799212310745,0.28630285749452544,0.060241554801834234,-0.06566663127733789,-0.14750577240321286,-0.20256810102447387,-0.119393034637787,0.11710337416368377,-0.07659466267417032,-0.03596751453968751,-0.09687626241008881,-0.06788431970848079,0.21614126361960523,0.03633710861824759
,0.09354005025603494,0.11312758566456259,0.19924935376875721,-0.1029611459609096,0.0428271741688653,-0.010773565365679033,-0.12532701917872904,0.03454673123829433,-0.20358746334449151,-0.12341075511501262,-0.3803703098636388,-0.16460166368780807,0.5852481681223447,0.18352623591595668
,0.22638653923333454,0.5730904283315875,0.05266512425792749,-0.04698698906431623,0.09834802629708479,0.03289381525651765,-0.11307760404105133,0.23093631946759888,-0.11981895210464744,0.1685836594765077,-0.1497219953284704,-0.14651646645501012,0.7120677003270276,0.26035032192269447
,0.3106715180155649,0.3655534463316368,0.0004895045465605066,-0.07567285202496195,-0.08061260313157861,0.0696686727815462,-0.09087475584773025,0.1554949766751743,-0.08138290589767565,0.0863110739837443,0.20191160795207283,-0.09007124519674786,0.3600972909695241,0.2527565278330901
,0.008132977751205764,-0.5529255860476225,-0.14849016347336919,-0.33983628388232057,-0.31847967400722876,-0.1622556857613828,-0.2526208721175013,-0.46442271406458774,-0.12977750690623835,0.011336133766834603,0.1019707787553485,-0.11148572478434551,-0.3370906244077957,-0.09873008752650995
,-0.033278833563806544,-0.7878237927908475,-0.35540934506414057,-0.3670831679731772,-0.22927081896808346,-0.1938330038385846,-0.07844340241300016,-0.3554139155447055,-0.1361664518988576,-0.011275526051517198,-0.14537412512952896,-0.21584133811031345,-0.24924954347143863,-0.04774343862016483
,-0.184869059564115,-0.47557735155100156,-0.3216546041983857,-0.39292301362109633,0.1198025076834044,-0.07115812575456039,0.19590730016795987,0.13646844024817076,-0.17274786932095973,-0.1963430375713056,-0.26556449385183634,-0.024868072939572244,0.11028051296875499,-0.167000215961033
,-0.23492990328048965,-0.35681159107930743,-0.11913491770136593,-0.19056464027688547,0.11697801237804914,-0.07993889779036462,0.22516923345903117,0.15252618112084854,-0.0679715435545486,-0.10144743908977785,-0.31005412844380353,0.1262665978233297,-0.45791206093623527,-0.3292632815476457
,-0.21907277406976824,-0.37428806765646827,-0.04716324985510831,-0.21147799691563934,0.02349410079928218,-0.2414111615750386,0.060547975285710924,-0.014862754438541709,-0.104239131186923,-0.02142224699919179,-0.3007248560965865,0.07676283718856942,-0.573445054684694,-0.21738499907297631
,-0.2902380283768907,-0.30772712861002216,-0.08581676454780146,-0.20636319063416989,-0.3117072201297971,-0.22854925110101548,-0.16035457377083506,-0.08158943354914794,-0.20630756813245663,-0.04847245265610557,-0.1301419772914508,0.08265599949498462,-0.475834453210524,0.06673144898039543
,-0.22908221051357167,-0.2853026174805206,-0.12893715081013918,-0.3384148525461391,-0.32522091134366876,-0.28697188646849464,-0.32735705139162263,0.05637759809650923,-0.3246952442601791,-0.09885477643663604,-0.19415905820188314,-0.06026539150329257,-0.26697234614752935,-0.05130451353652153
,-0.008502805553638134,-0.23560503871250768,-0.0775262628416286,-0.30711982396027576,-0.10343472060934565,-0.25782717539904043,-0.2814460463345945,0.02080278348617421,-0.20734582744992375,0.021060742901737765,-0.24926253299191933,-0.04956193126755739,-0.5078196190897688,-0.11492731545261241
,-0.060083599401187,-0.2998461636747333,-0.010305401614142303,-0.15849537405838346,0.11917599339719621,-0.03621425234213306,-0.03725689752049093,0.09404006205497173,-0.035357637991777754,0.06741012610735733,-0.0721668703123879,-0.004879215531682074,-0.4818916081276337,0.014392613114303326
,-0.1581551488664592,-0.18956424565143007,0.024154859892177864,-0.24325300954902654,0.03750986674677915,0.02890647245268145,-0.10640631143799772,0.08957026347545315,-0.2410649744106098,-0.2723618047556466,-0.07523212199695335,0.07991646927687211,0.3312702296898037,-0.02426471907766608
,-0.1505396688239271,-0.3305353136956429,-0.05723375076685524,-0.3561341556030486,-0.06233919046586846,-0.001748079388888503,-0.0467496468153234,-0.1901796058205267,-0.16163040216728405,-0.2670290935939007,-0.21276665886890334,0.22138956328123952,0.14841052232872054,-0.025999759697113822
,0.01661262924490323,-0.5904792070226496,-0.14656593396705753,-0.12961219879608676,-0.10167513218815481,-0.06904460410588649,0.09481256456919429,-0.37587511626157005,-0.06591986866948625,0.13234736351950205,-0.009501821050217843,0.2313154694148472,0.10380120683638508,-0.16117661608167547
,0.041936601459464456,-0.8561352172276178,-0.24154521697392758,-0.2878631791878844,-0.1272241977807985,-0.1361033458283351,0.07023741602342458,-0.22333648624577593,-0.003671334060113743,0.07555591094349547,0.005506924998604253,-0.11686222317617553,-0.10478930357991321,-0.17929090243253057
,0.014475545144116156,-0.9429762959901093,-0.14077042570953913,-0.40847370534761884,0.11585145756580328,-0.050722922163712436,-0.09327573247540868,0.009090965149520252,0.07208385140272422,0.10513575566848304,0.17626736710967789,-0.09901150377186836,0.130489451715575,-0.00724528177506007
,-0.2949830171679917,-0.45772664879778624,0.036406055222528315,-0.2641210930979366,0.06678209449565739,-0.12913239817470187,0.14197912045940617,0.08852087990622029,-0.11815767697996561,0.26225605951215025,0.026313087682702,-0.024822162870770555,-0.18842433675648151,-0.08098642902486021
,-0.17325760466661802,0.15136129628313152,0.1410136289931234,-0.040817813251394386,0.013021752985972735,-0.08386720768594194,-0.12423590143493576,-0.125461494637789,-0.14027036685212602,0.24346559502091697,-0.07545350956699957,-0.030064719470822635,-0.38528312830747063,-0.07230986486489417
,-0.04140566278265493,0.10156034797499275,-0.1305481903385707,0.06477435838436883,0.1560883514156093,-0.08826670763516295,-0.1930747914105884,-0.19364896859940103,-0.06837030750000252,-0.031163152250061294,-0.06215902020627244,0.10152100084029263,-0.6659266122891795,0.09529230665401026
,0.015814717350180033,-0.17541419495265845,-0.1226737066931597,0.08017990199702113,0.27367154965054474,-0.19273989461417174,-0.1945752918009657,0.05083695206489039,0.03076217727322268,-0.09185988825187454,-0.06429763401857566,-0.04851825019165316,-0.425005357754373,0.1241784254906027
,0.08805217472868612,-0.050929792985562425,0.18620905897822243,0.031701168831968544,0.30308568006771053,-0.11698008072438129,-0.016183312563740015,0.18256212672130442,0.08549198444453039,-0.004745517534019333,-0.11284128617031731,-0.1637100001787575,-0.0495465261515284,-0.016545528131570533
,-0.007154719814654951,-0.23627259435280987,0.13511908105076545,-0.1950117068011035,0.43090397734980546,-0.10707150404310874,0.10726639444471006,0.030315892265657833,0.03581613699916012,0.1427671188395894,-0.20686521872600952,-0.014349268044719789,0.025863513913500457,-0.0972459272065682
,0.05238044314271823,-0.32281046808563835,0.09374310965785207,-0.31907094965032634,0.14211234613170676,-0.1369969057143141,0.053055589301102345,0.12062182398861146,-0.025198919324912587,0.07951799340159577,-0.1979942992830992,-0.1412938116759608,-0.24031659147305431,-0.13890645578847866
,0.08124438020655138,-0.24966467814314566,-0.03115688182203807,-0.14527922602954274,-0.1301959801652172,-0.24364317774576444,0.00976209833380651,0.3672660532513117,0.012182022714978029,-0.1439141716467582,0.096716659902028,-0.07543399603333124,-0.3786061470710805,0.08001580595848565
,0.03767174244450325,-0.3564755291882174,-0.0018453553645926897,-0.036400498034072526,0.012983781516690404,-0.11987506397316681,0.04799562469042769,0.3432897889036181,0.21504914440185022,0.05207559287177187,0.058784235817905706,-0.023953357374998555,-0.2812248604905284,0.1767235588393613
,-0.13617142191754725,-0.1152175116423161,-0.11433989009251086,-0.2049229284222505,-0.002854894852084793,0.03204717805839098,-0.020144365712848052,0.20171141830975825,-0.2081427038051539,0.11142335712751208,-0.2668978605002657,-0.03499962133928221,-0.07527301577812236,-0.09380230148315274
,-0.19548891200188465,-0.3323846724563535,-0.12079547520379257,-0.143371528963736,-0.17166473099813254,-0.012581268311293053,-0.04596346748352242,0.12782855422718026,-0.34793995591096855,-0.03610818743477675,-0.1985130949700921,0.018716495985364456,0.09086003208476785,-0.20645994769558892
,0.08816081734835,-0.34022860871001215,0.010806852896861424,-0.08188970176127153,-0.1541230969717073,-0.17850760998412743,-0.0421490531352888,0.18571986410897437,-0.12082498413144191,-0.15307825520704288,0.028959419401605804,0.13258583263665238,0.21519077733931252,-0.0018912558004952089
,0.06320085825028661,-0.2817054143793441,0.1711048125748216,-0.09816852520562833,0.005725252329774027,-0.17605854242145932,-0.20256115549098774,-0.07231886402719843,-0.21176203077290856,0.05607774765370401,-0.09099613405793108,0.1314980476145484,-0.18813944354964354,-0.06555268213045347
,0.07545205495852166,-0.26523800732813035,0.15822557780174187,-0.049345956050753634,0.109591625398287,-0.0368486673570051,-0.20467974706664213,-0.07282122046788528,-0.14898447390876166,0.013828330854660571,-0.016165009078613925,-0.03834734455504633,-0.40289630461948855,-0.028200073627994603
,0.021685150420180346,-0.41943552347640256,0.017786460408923573,-0.04683231907851579,-0.10656336446125786,0.032931495039177,-0.08611433284205552,0.343421683581993,0.051113897123507744,-0.12879632429896912,0.010548466439157885,-0.11226527850271777,-0.09297539593662289,0.08863874653626982
,-0.05868509381475624,-0.5114919166667242,0.0087806518423568,-0.1583812563730433,-0.02820560273149537,-0.13776175144259512,-0.13285312661305154,0.311436625591272,-0.058022848879672094,-0.17690863385281863,-0.023815174284695845,0.10349062461865839,-0.19410750224287823,0.1033155100869761
,0.1154289976509931,-0.6610343452469031,-0.13736171442934833,-0.24065397818931006,0.0830396517969629,-0.2592528241904046,-0.20410896890906974,0.14385499380839603,-0.017509510919260736,-0.11494998303209047,-0.1398167627467077,0.07318949702670603,-0.3354198341318306,-0.019840019412663112
,0.22684940672281143,-0.4513457331982299,-0.09278364669411739,-0.1275254308783017,0.08673189248979532,-0.0519954095763382,-0.19499829836385507,0.0699677388788244,-0.02825466606136003,-0.032848657490833454,0.051732918320590134,0.06884599079080973,-0.1458871072492068,-0.14254957866088014
,0.031427761857236655,0.07395020667866072,0.036948788327987696,-0.23567899156352393,0.07070894375943418,-0.06267336775946487,-0.13989946319171925,-0.014492051695153225,-0.137648988017208,0.05628381136115576,0.09662357547753785,0.09876543275023905,-0.41393022154958664,-0.09923633925788242
,-0.08331468586490288,-0.21928826267361418,0.24644887604989207,-0.07214925160341605,-0.19464072236959606,-0.11392848662464108,0.0004868848735073091,-0.07795663526243568,-0.124358077125428,0.05531596450141434,-0.13007944491609186,-0.08895863259897793,-0.4833584621295968,-0.205979120631876
,-0.1897968387966522,-0.25260887393179493,0.21993983227810507,-0.1696935110992201,-0.2869044117522276,-0.13767717958589476,-0.006627420547003526,0.23964076723347597,-0.21342091324715193,-0.21462534056613297,-0.21697250286216638,-0.06391175200763467,-0.17043445559261697,-0.1007055327955323
,-0.3147682034369027,-0.3516951929965048,0.16399027876479932,-0.3309618904960191,-0.027089801590283947,-0.05822992478805571,-0.039330321627223316,0.3230240091231109,-0.33639691603557326,-0.3490642585492073,-0.3011956545569584,-0.06667613460220406,-0.38058696738232106,-0.035068528796798136
,-0.1474914860977869,-0.19023993130744477,0.1717379975825711,-0.17891712724585185,0.14693475427000502,-0.04368832007826469,-0.1984081971357599,0.1493773244721915,-0.08640393997294485,-0.11556569175592313,-0.09832297397799489,0.052289855507373514,-0.22592370982757481,-0.1023447917908887
,-0.01665089387761943,0.028207372598803473,0.25535000536409047,-0.09155306722485798,0.16403659945112817,0.04954730202736683,-0.054307250446332125,0.18491869019312346,-0.023933105315977112,-0.10374361422460686,0.11114817104507455,-0.0693877820126999,-0.5610136762878994,-0.05957076604917407
,0.21658682320571027,-0.10086166544823301,0.06773512617581687,-0.015440574984493145,0.2889270019677647,0.07583238112328616,-0.06503142200892424,0.272872383173781,-0.061186957887906984,-0.013454944519648819,0.20282023993871032,-0.05634996262409166,-0.6927218418033093,-0.013115021624325374
,0.039306187664686104,-0.20034474279536366,-0.01254807953860732,-0.21862494011915984,0.3746106132899741,0.05637778459902193,-0.1637563609212983,0.28763209173128823,-0.06249921160437564,-0.06384626498127771,0.15334199872603924,0.10371208677247844,-0.27470023235072777,-0.0655448398729497
,-0.059287185300309145,-0.05066095949609546,0.09724680301205246,-0.11132179111424748,0.32324799049239117,0.11312789134270174,-0.38860068836713213,0.2987196992153331,0.03986505041474282,-0.03789080375148189,-0.017507309770031565,0.11781946291972412,-0.3617046407666242,0.0625402176030493
,-0.09317100591641397,-0.45384744578986397,0.07892680825207235,-0.03908521729096897,0.15018166306565062,0.01360380891158579,-0.180620364268249,0.07065033450566055,-0.22509474351322728,-0.06818581724636673,-0.2604502332976822,0.1603688694209516,-0.7360827657874881,-0.08092023601416914
,-0.10228584024770905,-0.4553748557923115,-0.028082934996648573,-0.13096328906646743,0.14789480154265308,-0.107200276234965,-0.0758364582396543,-0.20077866170025963,-0.19824052600168587,0.032504619843665455,-0.13070056431231436,0.22223061691125673,-0.508912765134095,-0.16773969134053862
,0.012006530379309715,0.10990475316770698,-0.037929444198521484,-0.08957282303779378,0.03399434242470662,0.07283970032363142,-0.14903547461811006,-0.13158924031370825,0.12132358349495548,-0.04580075917807112,0.047232847735223016,0.04788616226832804,-0.22809380397192133,0.10154582324427314
,-0.21626313090209934,-0.05736646200173157,0.1744045928106225,-0.20786282557810865,0.24556841731733126,0.14071848321243388,-0.17465577740916052,0.13141973987944866,0.058573420096293384,0.01819393247232359,-0.09500126819084082,-0.09209172339108852,-0.18140732036716356,0.09744320998354951
,-0.23472447974538851,-0.3022315489467692,0.14311451873890368,-0.12668464234282967,0.16149116753996265,0.007439939102068616,-0.14302769185990333,0.10131008023113351,-0.11025297607733318,0.11073906412957438,-0.19502862032699317,0.14334664362120605,-0.0538096443596436,0.02804970902945542
,-0.11222348573664165,-0.26316566714831285,0.1697673858347193,0.08646465830239111,-0.03702169672576494,-0.15847851488651443,-0.0494963518609627,-0.16772576337734796,-0.17124032771560618,0.05022069889601064,-0.2747690450844991,0.18748136279678837,-0.20344435502751257,0.001559777527392362
,0.023224718677161943,0.008293532416413452,0.24971593270503503,-0.018692161393178478,0.08611445807630065,-0.03793950793693316,0.07161987442229169,-0.24447728967153326,0.039187680474693794,-0.14243785378372978,-0.26799377387037526,0.059265684570419176,-0.10253723894643911,0.15662686877849608
,-0.01961649836121039,0.1789135505930597,0.2028583134432802,0.052197651851196944,0.022342384711093753,0.017480233997970326,-0.20298006723804354,-0.11221225584339323,0.06488609675258417,-0.05675103387556694,-0.17105676713898785,-0.07118994906760526,0.014381574367550089,0.06880498209378369
,-0.2620920324998052,0.23207686021002907,0.09760712969845411,-0.00854966616450183,-0.07500706627442212,-0.04051277613577021,-0.2801307255012677,-0.06621279196341791,-0.13800684130519322,0.09496123951355502,-0.11741561825933759,0.009883639881333848,-0.06857709524596815,-0.1008752421949144
,-0.1939151631199871,-0.23920989679980253,0.10220079289289895,-0.10085013105147146,-0.2501404747223289,0.04989364490376801,-0.2331872299468295,-0.08633554930738689,-0.0499626605297876,0.14136933095737583,-0.00016950852177672503,-0.08446699815401962,-0.4619918746619772,-0.18757240160761593
,-0.05948420963879715,-0.18378281787259398,0.03847186066785521,-0.10837697355779054,-0.12705246968521466,0.24048781045272252,-0.019853216412471498,0.04367508918546498,0.1268286039425696,0.009922901933563636,-0.032637909780292,-0.16752379359601322,-0.44390029665952496,-0.055426599858802425
,0.032980640360791756,0.030773286236201017,-0.004189400148046908,-0.1585071959995278,0.15727744389984377,0.25144349454528614,-0.020002319640084223,0.2640678102207474,-0.16729565876722874,0.25835005825386537,0.18768497094854023,-0.07500230033246345,-0.08539943226795998,0.2518031873946567
,0.09885754922001866,0.19198021792478928,0.09126045342022979,-0.001528536411579203,0.16054230274307668,0.002772176929436456,0.0713955202394629,0.016250799049387664,-0.1721232054809318,0.1454651836957887,0.19545470859466835,-0.02210678623047872,-5.526618942986099e-05,0.2473574689340301
,0.16188166795661452,-0.24355293385217597,0.1497207733612589,-0.1117372738837354,0.154529919136482,0.007979019439374058,0.1773692126059944,-0.07310133192968925,-0.11377500675805607,0.07828448925828035,0.028066477311877717,0.020672548710262747,-0.38737696550366535,0.1842965462338529
,0.12390975398651209,-0.6629409199271127,0.17245966775834468,-0.1930270987699828,0.12717728821645277,-0.06573859149470232,-0.038614810199181955,-0.005424985565974782,-0.10620186852443367,-0.12106213790822962,0.16610359826502574,0.07594559574387398,-0.3707899795515765,0.1757616892898837
,0.051095500979292066,-0.4841037504016539,0.1432536811184427,0.0024165238779203465,-0.06632094520240929,-0.1684982263541055,0.05480979840169699,-0.01249429447619181,-0.23092074433321835,-0.10373558338930011,0.23903920783167426,0.06680142673600785,-0.5456771014124159,0.26058549992970553
,-0.23979761182472234,-0.2160505865317938,0.15847038942570807,0.06833481686655832,-0.06885206881569408,-0.09064931468683862,0.10412722464610637,0.09673495437092323,-0.11932237741943447,0.030022779890309253,0.30043772833712423,0.011066662863079103,-0.19386466185072707,-0.057412616158728676
,-0.17991601660356574,-0.12203209840093669,0.03563826144248926,0.007962544669900836,-0.12372061163349216,-0.20227465114337329,-0.12850757859655232,0.2139202095988161,0.053631900369313805,0.07625284012385015,0.06884184771418071,0.07331947735736626,-0.10814418787425843,-0.10780930045265884
,-0.021229113696662985,0.03016375646519521,0.08319606304653412,-0.02008971358428383,-0.03889050233685845,-0.1248583159081061,-0.04368372549011109,0.25163190041141925,0.16214083099264792,0.0556323183468469,0.14126351995050862,-0.06409596686568284,-0.1052884802643505,0.026019224341744338
,-0.083482293021334,0.5736727490337636,0.06271987788340469,0.04766617015653525,0.02833902673413598,0.051289574500702886,-0.23934422181832396,-0.0022775913400841846,0.12579584383067094,-0.06143233973015229,0.19627790851462748,-0.08600124511907656,0.2771575973414454,0.08668470569957006
,-0.029242897188087872,0.8350350585775013,0.13782289005413625,-0.09188657893809027,0.1379158861383099,0.0400490240018008,-0.27880277383260293,-0.004177671681311972,0.15261794901588935,-0.031496697302365324,-0.021910567020529955,-0.007181110335257688,0.15599388454417262,0.18024599903703284
,-0.044564690351180505,0.1398506422612809,0.17642520126575853,0.07666139920355146,0.2890103525545076,0.04531708831562512,0.043264649762023474,0.0829630254086684,-0.020363727448004718,-0.05852993280208055,0.11880147709192025,-0.03612548325638028,0.23195383343457437,0.1790325147363119
,0.07534840029606614,-0.2811218396529965,-0.009519960371157526,0.08557828695040473,0.12179333804840138,-0.05629343528521953,0.1171093466151778,-0.09192303657630024,-0.008082867859177598,0.11127945174433596,0.1620668139772408,-0.09983977110390956,-0.020229968624636756,0.26818992663141056
,0.14695470080693854,-0.38696107052584244,0.05421012836772642,-0.06285536390636062,-0.12349499550429745,-0.0888236652920534,0.044540924819504696,0.09870533003144516,0.04126895205602938,0.1594564905156154,0.07419821515004407,-0.09894059069667688,0.006001926415025308,0.13038594372877918
,0.040432347469722206,-0.29944541114577644,0.11837023929968013,-0.07101796643946202,-0.1765274141051371,0.014946033946469935,-0.04481657353791608,0.24496898676729068,0.09833536437752487,0.2416621052507434,0.00820302938271839,0.09263345781585862,0.28462514800195576,0.059253631152000955
,-0.0015933245680721062,0.004608205262107653,-0.015622662125840086,-0.12001941453985415,-0.035923550815156115,0.10456820882429364,0.2008967038964237,0.1598482020940781,0.08872918373159856,0.08482240016960134,0.1961194459184629,0.12630145139596466,0.048062132101262284,-0.11382891958310454
,0.036250792336356225,0.02517171437128491,0.08380706378975779,-0.03688243977307223,0.049458032592409204,-0.041820004162028135,0.05678192853632358,0.050552316339922035,-0.06573860789599319,-0.28333643323860236,0.21571524104036607,0.01855449004141987,-0.13136021549754248,0.05375748759856054
,-0.12777513549531253,-0.13903976094807385,-0.04919951977619012,-0.25527280240299366,0.0021085018146469107,-0.050839281272705567,-0.08469534722599388,-0.06201360511868792,-0.17590996572958154,-0.16535374990207927,0.2588909045253947,-0.018806322934960807,-0.4328831207692397,0.11212272007752533
,-0.19066221883759818,-0.640453355328393,-0.06078719789146216,-0.3378136551177643,-0.03347302426096889,-0.00024216170138589006,-0.06555458083384479,-0.07314193885888558,-0.05382515828997409,-0.006892075479386257,-0.05932278634779754,-0.06698783297098465,-0.5729641161867508,-0.04091910557000768
,-0.029139997754137642,-0.5101937570027253,0.025477141463502603,-0.10553994449700274,-0.14784578999499576,-0.19481138271859144,-0.20506261671563517,-0.05511520352644671,0.07100429815408484,-0.19420223521449428,-0.2382361944050481,0.05947744330375067,-0.15630198624532318,0.034234142286642066
,0.14368086523161971,-0.0795959459591171,0.1362277770961167,-0.18950771754808257,-0.07688924877050149,-0.010398497171311477,-0.09379068640101923,0.1433065653272424,-0.021415545011698817,-0.17822195885606062,-0.11915610988690255,0.023169104473273236,0.38089524868317276,0.1613562969771899
,0.1871272745209902,-0.08018032364212994,0.1560007848043493,-0.30016338431509365,0.11126388398774563,0.23324558197380096,-0.006470262632040002,0.4041855429575821,-0.2312920549610006,-0.0754460514352567,0.08320357984430952,0.02317877484134748,0.03090162632000052,0.008769690107064828
,0.19229638021955217,-0.1925515027467724,0.20846172881094216,-0.12702083928669208,0.25714704987630826,0.14087847835275943,-0.1526334910891283,0.06625035159235983,-0.2568703184048675,0.24806274542863144,0.0299123030623033,0.08364326607085776,-0.06969414989507682,-0.08746752245210608
,0.07595122143605992,-0.4601723476272886,0.1660209200657382,-0.08900394679003579,0.29912573672676374,0.047753474036909216,-0.1738791407706339,-0.0801478386077464,-0.14363174468051165,0.08409829329448416,-0.07662688271309279,-0.0333926603333175,-0.0905990905514726,0.11565792089290765
,-0.12747282003457241,-0.5313843954011418,0.22610446487084912,-0.16956537219372278,0.11111004362315856,0.01737780111498482,0.003255514706860986,-0.08458533535555081,-0.006863566815845653,-0.06399318261707443,-0.08470903509606828,-0.0351385670173409,-0.36480054186724836,0.05341687638618595
,-0.0999534293139827,-0.38818636985063243,0.0588987923782794,-0.13565090680682834,-0.11983385438729091,-0.2000940819259532,-0.20127910480166097,-0.020648371573771883,-0.004015935444489994,-0.16186426627117875,-0.09795654235049912,-0.13893166997433007,-0.3454694088862376,-0.09077672842486322
,0.021327952822861,-0.10307969436785935,-0.009432009355836993,-0.07259243904176077,-0.12262616478477414,-0.09196698699272002,-0.29137499642271497,0.00804231232170866,-0.09507542325001249,-0.029687071310835617,-0.03704197426841389,-0.1579460940367339,-0.3318145223357713,-0.1781703845978144
,0.1575815340471677,-0.13883802892265415,0.07919763504626194,-0.0062281932154948354,0.09692632405683042,0.10423039783267013,-0.16788840991689546,-0.10806794405856984,-0.25360626700799793,0.1714716453934733,-0.07958510937823902,-0.006134934034454512,-0.23281209168521333,-0.15073326163644696
,0.3027248772242288,0.03996304314208281,0.06619361453636939,0.19853213304071068,0.19825538113605037,0.034287586529796646,-0.03247900998291455,-0.14262364797419252,-0.006963939702533483,0.06262474792168578,-0.03724469167587415,0.02312484318165592,-0.059834901349540164,0.005341447669008207
,0.009134346164579445,-0.07107536788746115,-0.0017929603374285076,-0.023313668088166054,0.20109879745148956,0.0058026547067639685,-0.06130504081337538,-0.2446826111557432,-0.07583612537926968,-0.14651980141819618,-0.04228138543824175,-0.08200849640093574,-0.2789354999300514,-0.05682819340712964
,0.009055062418447854,-0.38810901483386456,0.0691941229224899,-0.13256122749642957,0.24537065405847916,-0.06760561180307571,-0.15986581333745176,-0.02357578346013895,-0.25488473824350577,-0.2504743970069146,-0.22907597976579952,-0.060791258431984956,-0.47548675247847505,0.051192810284639415
,0.029219255423144026,-0.1492378910957335,0.10917876223973381,-0.0911684295074041,0.21649601763125179,-0.06518484279788408,-0.1891067896773082,0.40087088757357486,-0.06507426004061305,-0.3884581807010242,-0.3725552281524755,-0.11847388530074279,-0.5288502131932606,0.27793341367820845
,-0.09655253068447589,-0.2041325799326237,0.18267347788343924,-0.028560185416468983,0.09818186853937833,-0.22896667232261075,-0.0004678140604542329,0.23291351366521826,0.13292389108172878,-0.013685903241962503,-0.3630565572145965,-0.0243743785608692,-0.4081669913415992,0.13422408477052775
,-0.18250714455297345,-0.11978496483828957,0.23396432781133725,0.20285408476982547,0.11199616673165064,-0.0303491222501176,0.20341183195595205,0.17030245012917528,-0.06995607823289295,0.16205500277954768,-0.058286099076855676,0.030016400406971774,-0.3913205006279215,-0.01835521212071738
,-0.00592411223173119,-0.05470423109196598,0.1349464244421123,0.21227671285356858,0.1973967419958316,-0.11421458973538474,0.14916237218237932,0.11570094264118816,-0.037643543858497476,0.04247203186780904,-0.014662138587635827,-0.07894106008626989,-0.032706068081910115,0.054977917365468164
,0.2233875590289936,-0.13248567708414072,-0.005342393844473563,0.0024208658023761624,0.271269912172774,-0.06911200915677414,0.1366432715484562,0.3043864219024719,0.18537755594255817,0.19683914809468153,-0.04520759373597946,0.07330065191235778,-0.4543162269327379,0.11671407668174796
,0.13444083916854807,-0.06697164167857589,0.14045584924730387,-0.0361798416613222,0.18795525832348955,-0.11020208779440828,0.11811452098718571,0.1563728371107358,-0.17853968809931167,0.06316610406720535,0.05874038641952049,0.05185347960894499,-0.28151266395629204,0.2537521652796186
,0.20002955058621655,0.3035789754306854,0.10692436511206695,0.04949257117405632,0.044147333806509675,-0.08489292730447051,-0.07939086998800088,0.09202444139632932,-0.23099335939064353,0.16849566026802437,0.14895846542414062,-0.06809691936030723,-0.32118315979914175,0.1458869457632566
,0.10914039824380566,0.6687593264722121,-0.13457623619954917,-0.029923286602458535,0.13286095401914794,0.01755510425662224,-0.3140331330531828,0.18654986262849355,-0.08712095164821718,0.17024768035503882,0.05870297332844485,-0.04045043455495168,-0.23843244902822772,-0.1748103593678394
,-0.18656431646263685,0.296708282412374,-0.06888226761977453,-0.15076527108366528,0.0681219050682677,-0.022212433882600784,-0.11151686128460488,0.043342377693957136,-0.052980591153257345,-0.02042934185973413,-0.057654210961952015,-0.13143955881861774,-0.13939091399448944,-0.0544468926186344
,-0.03361118435621326,-0.23280796621272112,0.0013146058977733075,-0.06450575322157617,-0.017977923803738874,-0.012623018532509168,-0.20058681376109852,0.1570470440160926,-0.1623374071411142,-0.037416571059732215,-0.05383072081734462,-0.025940152034777068,0.2796173156895026,0.0625035803907071
,0.17525691641801922,-0.11174701426451704,0.041890247289288536,0.07783109076888721,-0.13986575699315565,-0.009239294793149886,-0.12667551412294195,-0.034126571802555614,-0.15941846993016306,0.00876043027805966,0.025099580076431895,-0.018469473257490383,0.9721545209227075,0.04167159451290592
,0.3107030378457341,-0.27965504929661084,0.04234538834094413,0.11100748896336189,-0.15370632927358915,-0.0314132403988799,0.14995119784685546,0.1473127295237329,0.07127410778682448,-0.048828479058181246,0.05269512157678017,-0.0005276144688498123,0.3848844197177652,0.042500331472262315
,0.18209580240110312,-0.364753391292318,0.09114913960891845,0.09018625818758784,-0.04657743493776854,0.04199498036870875,-0.04700896151120787,0.009942213441221074,0.08628023225154871,0.14317041442601877,0.2408360995851553,0.18783097283700478,0.10774784133474336,0.16658649822944635
,0.037345219611133525,-0.31379038905850165,0.05143532350994582,0.03786795372203975,-0.09539124673118363,-0.00715457928316223,-0.10356911428486029,-0.04681598433393785,0.028003802206704745,0.2012865652438648,0.16749204170186566,0.06256206090977334,-0.258752122875069,0.03637244036640942
,0.12385462084578511,0.04944873367705445,-0.013459207708425758,-0.054808187487014805,0.0043087317754644345,0.0011733996442888747,-0.08184268226157498,-0.013987782253922783,-0.06838432384618261,0.06154571782993337,0.08989655577522339,0.007971930529935094,-0.3390554401530062,0.07535244857239351
,0.07660473061678907,-0.09594753104068411,-0.0844767810068296,0.09011602986735885,-0.05239056769015707,-0.007197867580630545,-0.027249234501434114,-0.07991460620902324,0.04580632048588977,0.0007824805867240117,-0.18833639479656653,0.03772219932809963,-0.1693714480559545,0.05341027561161642
,-0.012100366437492589,-0.07238507507621665,-0.10144829333408927,0.2136731797170593,-0.15901102789211202,-0.006399093121445671,0.09747613628792601,-0.13498024706945896,0.15414780640640943,0.02842016050407052,-0.07623774661044694,-0.05341616250672923,-0.0639858918422917,0.09822888932273001
,-0.01664977319984954,-0.11121767623886887,0.07528235872855829,0.22641943518127228,-0.034531212062316546,0.10435123433902577,0.0933864564642508,-0.1109358607573763,0.1327744872674898,0.0211118632411098,0.24889957126314738,-0.15324354486280203,-0.2195507475552471,0.16682984405589846
,-0.014162912552710046,0.03082077346014283,0.07044912535862388,-0.022970709527223597,-0.14712461344556,0.2448374931585764,0.09771015539642308,0.3014351511776765,0.04765797449970785,-0.03567979732475383,0.03148914950788664,-0.007842042151246485,0.028311944811359162,0.18625224274085198
,0.0031349524750578415,0.5801496071281012,0.03743158818287106,-0.10052523357903559,-0.05172316783903443,0.1724031742390097,0.06230530289206947,0.026088990489407136,0.11998368224086862,-0.04444896216272715,-0.2214862875455367,0.02142064169992611,0.05600375121647483,0.21503222686812448
,-0.05859406140686759,0.36827335853153165,0.145938938533507,0.0354072564238693,0.061244308626187335,-0.09485387104884069,-0.14006877484388772,0.01453056085041718,-0.01593204890131845,-0.06533845613509807,-0.5012354136184276,0.017260141694021135,0.10181465427012451,-0.13218446292130226
,-0.12887401901999115,0.11331559547720771,0.12514418400359165,-0.013179881657777759,-0.13832837508585297,-0.11710198477755981,0.10854263101798294,-0.010992363811970473,-0.0035432067890733463,0.007228122104658891,-0.38676595414560055,0.10238491222317082,-0.007257323898478174,-0.09061734494913865
,-0.10441449639462934,0.24029757345477132,0.09951110361925401,0.03245544392643256,0.07378482557842278,-0.10954366298850256,0.21947430169461873,0.0766818445181317,-0.02090320337002573,0.04901225507168811,-0.11743848772491089,0.10640342658319871,0.050175176346572384,0.1885522023839765
,-0.15601269378659632,0.34304680293554485,-0.27815908026485736,0.11545721454754675,0.05666281831932012,-0.020218780228206508,-0.08732556664361911,-0.08873258766453701,-0.040267807857131015,0.23949382023985938,-0.10410392871957239,0.021066391504084306,0.1231946141542037,0.17547371960944735
,-0.04715766218261548,-0.17004815920238792,-0.27569082982607046,-0.21529555231602274,0.10552527291192941,-0.09004771689366788,-0.04799165546058632,-0.06733165887740826,0.030709320280393144,0.052711565686246,-0.0212472354561613,-0.12159537785874118,-0.2960674953509898,-0.0541835217864065
,-0.039597344692108655,-0.6024789739309862,0.05049558763749204,-0.39658213126127423,0.03043231569767776,-0.04265555191272083,0.02495120397146908,-0.11425537666776078,-0.06956191002762903,-0.1854522348089604,0.11520132757735915,-0.1327838827346556,-0.3247679698841104,-0.06095405100783839
,-0.18366555834101972,-0.18748367930777937,0.031697371438094965,-0.05373502947691187,0.13619511396381903,-0.025656619954056863,-0.006783922866804026,0.037527606244849465,-0.1974059190285704,-0.10314296390256276,0.31064973939571394,-0.06031824727015045,-0.24051841328746937,-0.34060681059304354
,-0.02476838098411425,0.4059220125734075,-0.0015658154887558337,0.052615123219783184,0.35333986631660336,0.13643927569105274,-0.04813908516363474,0.16036637314218116,0.06489304867307315,-0.07074666817425414,0.32630508215926074,0.00909901276237694,0.02324417423593126,-0.27629489741269736
,-0.12717908779521164,0.08058323495428193,-0.09897778324090936,-0.04425060123023457,0.068025289451704,0.018118592900666985,-0.020330461861478348,-0.1644121582658268,0.026273434997811984,-0.07688879556478756,0.08042770003080306,-0.0035964376539038964,0.11638590291221486,-0.20874216117925729
,0.004181076579580878,0.09764924651682802,-0.008992565381153672,-0.18168914798970062,0.12913118930960163,-0.15783588736050344,-0.11681241204956778,0.09259972832616072,-0.23238732734662795,-0.18299703808090992,-0.07214052003240862,-0.021928907307018176,-0.04459014701948253,-0.28267946389637455
R,0.03233413987336777,-0.23286399249520254,-0.03279774059650881,-0.19200806920613464,0.15542496605516629,-0.29462826395246544,-0.24322211233228772,0.3019085521332987,-0.15461650602203814,-0.04753817039233208,-0.13368687362402704,-0.027274515108723987,-0.27674097255445473,-0.23848333370495012
,-0.29482811458518055,-0.3904653534652493,0.07925267225199642,-0.23753000672951796,0.37994660689594145,-0.060038150185994135,-0.16457797923084788,0.2263108687573688,-0.09518654227292299,-0.044200963331352074,-0.07860937267784578,0.004135776675701819,-0.43160091068761136,-0.07696161195007772
,-0.3030816166723906,-0.2149127822884844,0.24231347949857715,-0.33321992096009867,-0.008863402276292665,0.06588273364749456,0.010439868226058347,0.06608538136964366,-0.05709828288534979,0.0971834861632219,-0.33548303734800006,0.10175190248104365,-0.5987452274972833,-0.045529218070235355
,-0.10890447863272379,-0.314472874503151,0.14535928432021164,-0.17498244032978727,-0.16940718931379936,0.040594145121562356,-0.06199702443343058,-0.05602704289275951,-0.026020101739578274,0.3069382016999914,-0.2972077007030129,-0.12755826172681356,-0.6102879489444138,0.18972989993382103
,-0.24134341211478133,-0.48348466787888655,0.06641421596905969,-0.1437604131562109,0.0983622096362624,0.023042809353849662,-0.10563869987545925,-0.0945584403162356,0.03470490702332251,0.1808854074919832,9.684440499497353e-05,-0.1346404615329217,-0.3236054190815174,0.14188706645779076
,-0.01280415648942677,-0.30808611620143217,0.03711548672924212,-0.16476015014931494,0.17519559482743166,-0.13645556333714512,0.05354438723948746,0.039413737319119777,0.15202956737733528,-0.0018034596411972915,0.22365495786658757,-0.0440808702256279,-0.18684028258902982,0.053793193533038484
,0.03555840991271926,-0.2579505214214644,0.1534892072811332,-0.11206939907909313,0.1694779786018441,0.05909392448131352,0.12366065197908413,-0.04633779654681533,0.2230106275697227,0.1312497595655895,0.144310591097697,-0.07096751209560442,-0.0958161371348538,-0.2117533322768885
,-0.05528609544064906,-0.036640110140154884,0.11479557045296317,-0.26915478645663954,0.19236388622163444,0.11902423300817562,0.017399004794520334,0.037977327046964306,0.3522150902973495,0.3455201972515757,-0.07651270578982663,-0.03471071674326251,0.0567021047730551,-0.38124854224145593
,-0.07019404199796532,-0.39254290263963143,0.17928831607980947,-0.16057732080133982,-0.0562270069676697,0.15512507311737608,-0.029948554883970725,-0.1733357285373087,0.27152409180438297,0.22769611541748525,0.007338791007115131,0.12480130802071886,-0.5685887084803213,-0.07272923320728142
,-0.09510162693257058,-0.330696400113298,0.1000690983531922,0.07899825985097804,0.01647882589947843,0.07837972689907673,-0.16272042589158014,0.06122686928890226,-0.04464875933445259,0.12109270285097774,0.11788282541211792,0.026705439752461722,-0.4964979167025335,0.04214558725541438
,-0.18567007213393033,-0.3974818871591198,0.0045526813266362634,0.004564908208303636,-0.042287153130540565,0.09761726106223129,-0.19405632577702264,0.09051823746771649,-0.11859302238503097,0.15805147468902453,0.07895150983516391,-0.02457088417899213,-0.09771468847593291,-0.0924246137875039
,-0.22973409246274784,-0.22683144137143277,0.06934958642218794,0.01565944115449747,-0.11645959555211172,-0.12465756975493693,-0.06034654956544247,0.17025181863265978,-0.00934077496822552,0.18750238299975128,0.14460433903276732,0.03432410878769515,-0.1865294758542824,-0.05946314105725574
,-0.07791020924927025,-0.005107047286047859,0.12339519861959837,0.029788444088906428,-0.17473247727862107,-0.1471821752095568,-0.10864695983199842,0.0773305566014626,-0.0349976792621518,0.08472993685464306,0.2181744640204379,0.1514713457387046,-0.2252931117681714,-0.21610780017980513
,0.017177417542839104,-0.5176936140332945,0.12355181536705899,0.006010936349349655,-0.21599345799690312,0.05466899299745439,-0.10392221894902189,-0.15974532603365998,0.03503372450266563,0.021279076114177557,0.1828753398055404,0.0004744411711717857,-0.2657473744068108,-0.195821210091406
,-0.05241760373055703,-0.5257851924095077,0.11049577371358987,-0.08957709891865459,-0.2698983341038455,0.002637382962273316,0.04914165778163695,-0.2255521288762383,0.0008323700808190589,0.06438871926858236,0.028887729564515643,-0.1024369940015784,-0.290992578776659,-0.12642704978945205
,0.05843497359970938,-0.22437064996313905,0.09107113328990658,-0.11895390429856528,-0.17489524312389865,0.08971954271865232,-0.02582772406762303,-0.26383473938353247,-0.02170543484551238,0.10082826065494284,0.016083249922442193,0.02375848410163014,-0.12927245149159236,-0.026869704649908354
,0.04353280138323926,0.04688733745628917,-0.08073412144677847,-0.23372269752424354,0.036051240064829404,-0.05223450189986007,-0.015292257820144867,-0.17526639509770917,0.1391717413377105,0.1986446351203706,0.025221793182593953,0.13227045483846678,-0.007107235930955684,-0.06343500626544386
,0.1478431428471759,0.4610331556460304,-0.10776516022877883,-0.27472764574694075,0.2563771467675204,-0.1835002031200058,0.11084656467775371,-0.13872808217073263,-0.182340445989287,-0.05810504309107343,0.08570752177285684,-0.0028088769262436188,0.29806536735104844,-0.39276996215257903
,0.22378491548879864,0.5902988013847307,-0.012299559966387066,-0.24152335133961797,0.13709871045188182,-0.045520951247689276,0.1990731317757537,-0.1218435944676082,-0.19725012036247858,-0.05170674250984029,-0.07416262531880259,-0.08249737740006398,0.560004983730933,-0.2818674304043593
,0.18548617520735833,0.29932822711124574,0.11357473332538151,-0.011761531324239696,0.11755789504938932,0.004719913119312495,0.03416630867291487,0.050025257663939664,-0.007232686391144266,0.040565138349524625,0.10334177477301192,0.0827007675974394,0.39546384858178835,-0.4815219699758489
,0.1505715028336769,0.22658616843692148,-0.052099621921546525,-0.07310910753416697,0.03353056165185365,-0.052547251917522485,0.06165698554760423,-0.16501364226225476,-0.148151367359223,-0.13356900652160195,-0.03445815921416894,0.08686502184604844,0.020676332335954287,-0.31895850712222246
,0.03776688647435869,0.3247380016068198,-0.09009287435216891,-0.062288454851591256,0.027205737373508152,-0.04133578437951808,-0.021375924603646845,-0.36471873423988405,-0.08068725508213556,-0.1419551123440822,0.04985562126748967,0.08726875944405607,0.005318872326701511,-0.09160222313898149
,-0.3930975806656506,-0.284681949546231,-0.17171699062436963,-0.2655440401799707,-0.16149496941841066,0.025486746215852247,-0.08607553466078913,-0.4156722792926558,-0.4479555847856465,-0.0224201469909346,-0.2850021810183899,-0.03534391293497272,-0.7726398917512669,-0.1693985743726036
,-0.47635280898836896,-0.4936460023517537,-0.3738234997923501,-0.5238956463230819,-0.19697429345329037,-0.08636305866673584,-0.2499642512417203,-0.46736868511324664,-0.4252710114175929,-0.26977127775755255,-0.4714850955204211,-0.08639637636585548,-0.9558214786031174,-0.3310159496409141
,-0.43919503480446304,-0.26105664304817844,-0.2859761136599859,-0.428104328444705,-0.07725807473321086,-0.2587819340497646,-0.30919244507314925,-0.3034213289966595,-0.3338180761059995,-0.23051602252634118,-0.24799496902494514,-0.13525960226818304,-0.12380907236413376,-0.4119628654860258
,-0.24112856777629965,-0.4466475599625521,-0.12949613424204076,-0.25709773578232004,0.11613460812847132,-0.2398772345603887,-0.13753037698611165,-0.33995638658007593,-0.2723606667435736,-0.1453932557337739,-0.13611835148892026,-0.08036419049122019,0.20381521843421885,-0.31632154010839864
,-0.20046533040115702,-0.20293603145322645,-0.1307240175636409,-0.11310819499261301,0.35572864111131947,-0.24079623537311004,0.1341218719980734,-0.09519394215730205,-0.15227306656375958,-0.13741458082934713,-0.1269718252330037,0.03297366456512856,-0.06616166640433073,-0.01632482634407569
,-0.3566413982829988,0.11784266975469462,0.02857963166304523,0.09017569771286793,0.18262646869756988,0.06232720024023838,0.12128302042333369,0.2853525233691303,-0.1714515509557751,0.18830857699453935,-0.28606250750064754,0.007065959872293455,-0.3467224124624659,0.12455003925232397
,-0.3329137109867206,0.052440054435503924,0.00669497554674778,-0.08079763788366914,-0.19779832430205183,0.19565021782376943,0.02700731449039921,0.08538700098366611,-0.004181306177872248,0.24986035528469824,-0.19596351193002112,0.014958859006929264,-0.4112710764909175,0.0026577718493825757
,-0.3547112156791765,0.22000071579762537,-0.14767215374278866,-0.2083943103384778,-0.08471609073537967,-0.19472532072088525,-0.29379182481773636,-0.07231164296248944,0.10849435397541721,0.24580894683464458,-0.20424038076415818,-0.1603551786976629,-0.26096004021248337,-0.4194890141971853
,-0.24178978155522887,0.18543001730309622,-0.19458603715730036,-0.22448259625452577,0.1535466312109016,-0.17036516497583584,-0.2756230195113721,-0.12997426964244832,0.07209935182407087,0.0864907342795336,-0.14939605806335096,-0.14404784523249653,-0.30504607092976715,-0.44408776990504795
,-0.27991849820451975,-0.36873343208460874,-0.27211878803911527,-0.5120396041564022,0.13543369488940554,-0.16542606442646643,0.010151130719399125,-0.07319225163466085,-0.03583693837698672,-0.1896143679623679,-0.23218195989673715,-0.21836060142117278,-0.08152113226344204,-0.23228383925507123
,-0.1668237737689202,-0.23296392063623816,-0.1806911411677246,-0.4736714687769619,-0.06897442668280068,-0.08818154620162072,0.03433963872059678,0.07641292161837437,-0.10500098408573288,-0.2250018183474166,-0.09435733907404514,-0.16247235300628302,-0.04887595601383008,-0.060624621822040994
,0.15720495935912857,0.1017411576869703,-0.12024193254845669,-0.25946598318465186,-0.18231480067510397,-0.0444575524059977,-0.006369919846796641,0.1567995277625501,-0.023038385453421285,-0.09460321955461652,0.06421196431816352,-0.07425054867545229,-0.09593797667951286,-0.09255680539608131
,0.16827263769602094,0.06598835706555925,-0.21179179821561975,-0.03162411624453017,-0.20982401291664723,-0.056092152582194146,-0.14897662745403972,-0.1030939966503063,-0.18161020079781523,-0.11039473651421856,0.16773976387204864,-0.024718957711444736,-0.01362414572167415,0.011128510133131986
,-0.11540676601652512,0.171663617209634,-0.09201093630655374,0.06390774128711198,-0.08139650556621905,-0.09279610919991853,-0.10445654143605093,-0.11774758373684839,-0.18925085687606846,-0.15239118361514273,0.07539209157090702,-0.1011421652751861,-0.44223533043310603,0.038097513373212225
,-0.19014810887792466,-0.21510299872815367,0.10628689698398773,-0.07622668288340206,-0.09157417373260111,-0.2986378906438941,-0.20981797790125206,-0.10940730569501009,0.03749123695554288,-0.0032791611886458212,0.015943021836564583,-0.15122352611513534,-0.519278471420384,-0.01848618547987953
,-0.31505185014524856,-0.43052966709177654,-0.10483332921281989,-0.022427086134430823,0.11219091015452663,-0.24841197613346605,-0.06513235350470051,-0.15000520146436155,-0.00036507223736514954,-0.06250289973409222,-0.06404150284547344,-0.15082661444927498,0.06567355162935233,-0.0234841167720757
,-0.25280116766523014,-0.22112966004500667,-0.06664258491773571,-0.05482340435917148,-0.048497683444571345,-0.28693804202742873,-0.08892602553206796,-0.028791819528333516,0.008312565291858769,-0.11719466857145792,-0.17560375226121053,-0.08984851442453952,-0.30914113308703833,-0.1580297735820355
,-0.2665880490289935,0.0750755343343634,-0.2338895986873902,-0.24490108950418452,-0.11193698885514441,-0.20994975849047157,-0.12086100106042372,0.026552431953030097,-0.07735867261491756,0.053287882254960985,-0.1840285780495048,-0.10348429640158328,-0.7355630888686107,-0.15528244528941526
,-0.1043797185562371,-0.3308144440464483,-0.12350066047499979,-0.3349892169347404,0.1055239866933463,-0.06503419812764795,-0.23787382070567387,0.10070590412010588,-0.08449551481918047,0.22728329373541967,-0.016768474386444236,-0.0431365688905554,-0.5797892173217823,-0.1768058677173721
,0.06813973156583217,-0.2830191937064956,0.11119303224043998,-0.19396666695426754,0.23064138744017113,-0.182843176406536,-0.12400010962927949,0.22080279621998994,0.021944310605570137,0.3335980498159738,-0.11142038958789827,0.08379181096141275,-0.4982069385469969,-0.18592303438515595
,-0.05257862084896493,-0.3549449837547925,0.02292305749616767,-0.1678532608858759,-0.09580958313602939,-0.182499682964982,-0.014931345919623723,0.25705161484242506,-0.12623945021715532,0.22128423361146252,0.08308069676255929,0.09182060788025481,-0.22580716009384996,-0.1338044208342191
,-0.13288511034329098,-0.40305036209817,0.05370243449430938,-0.08518197887349767,-0.052587715117174895,-0.09946719794265263,0.04155357085959034,-0.03507380850013516,-0.15782504145920187,-0.05606776504636005,0.14072394390052773,0.058462764155244554,-0.17443251309279445,-0.026538216788743157
,-0.050034699859735014,-0.08570733110262231,-0.026186617628550228,0.06438287535671494,0.19898426201073957,-0.0027704196266767817,0.12606532601519124,0.056382600770599284,0.07806145710839657,-0.03185918943899328,0.1893866010207756,0.04854787577242693,-0.312797127897022,0.16911452199065194
,-0.10458898292301354,0.16342684908872332,-0.05467390396378988,-0.012020960145026561,0.10496001412051349,-0.18783125301473053,-0.054456701293407274,0.13585659878645095,0.284975583617441,0.13548467231305558,0.22851563558953586,0.00875774244127006,0.25002834248497713,-0.11280842241688158
,-0.27571068609266686,0.22446939486080095,0.02277675430683134,0.17385073051917438,0.06187252576191952,-0.2909850757871042,-0.2619985241998419,0.2525069269419038,0.24016838064677165,0.11110559377482314,0.03879782535752805,0.03179476234102417,-0.0016290744560284866,-0.13449141636017753
,-0.2177144251499041,0.17568652654909803,0.11648533484876687,0.15002599794124263,-0.029107306028341533,-0.1497274312791138,-0.14443642402575665,0.2941604723964186,0.09076886695083806,0.21997543506597383,-0.08509482751310042,0.15859166392802118,-0.059027054794107345,-0.1046898720309198
,-0.053874288146128664,0.4829717043317779,0.004125848449695296,0.13069047168356934,-0.09102924140435652,-0.15650234796079615,-0.157078285495201,0.3075266343244353,0.03385047754528027,0.292010263357309,-0.16043801238366862,0.18884257704576696,-0.07664945658660724,-0.3133316713103843
,-0.04004046451843041,0.1083045220918722,0.07889045127691084,0.03713408157846571,-0.019623457193674212,-0.2382654898469788,-0.09791660615764029,0.3217046748155745,0.09136182497062012,0.09649762896241472,-0.10763298038818506,0.12353275344656124,-0.4191236876867813,-0.2772425846565762
,0.0016412499555347993,-0.4349128406278224,0.17902916618141348,-0.09603528324421928,-0.023022915410328942,-0.15047037142769434,0.003887772306581182,0.28800065814486386,0.08725440416165696,0.04483361661682903,-0.021574766896971163,-0.14780696382671166,-0.6195765127268937,-0.19112709537153802
,0.06176010502656036,-0.3822774857530006,0.01452415587509631,-0.08742043038250508,0.15850250898173646,0.06428061532005536,-0.10826032450602488,0.23550465803225348,-0.0350180850253636,0.20813255016283955,-0.07180821093318349,-0.10392710331560691,-0.37062780475019536,-0.01070857737599299
,-0.038983065423036804,-0.10423182749276334,-0.002936140122942428,-0.074978670457367,0.4438708822473087,-0.08484214343974822,0.08925334486450036,0.08329685649974887,0.0006617254107269356,-0.007183479464280833,0.12950774955454186,-0.09840479397362009,-0.437347959294458,0.07294856348333711
,-0.12743579902597651,-0.23557338953947127,0.13184588442939382,-0.030220928700316448,0.3702310214096553,-0.23312410059649846,0.17709939061347638,0.1146160460023117,-0.02441102319597307,-0.18198218227750312,0.15519098168141612,0.06122144208500776,-0.4807659939319147,0.11446466168849018
,-0.1652692136094147,-0.0984472389244951,0.04572902673250536,0.06597920324430705,0.1064066930915644,-0.13301773112683365,0.0013198389964985508,0.10089926681896484,0.07182087732670767,-0.07170334962800709,-0.05828649608804107,0.2216150904684642,-0.22367343213511806,0.0036722909938293998
,-0.05842441225558082,0.2579341615103813,-0.0009596762768108365,-0.07535143411377461,0.25441745735262145,-0.05705951948511085,-0.19266365333159818,0.09437453594936354,-0.02249885707953701,0.0363802768401871,-0.011526586527836955,0.198574093080971,-0.2045052243605687,-0.028944613323051434
,0.08558778572217955,-0.04878982558683712,-0.0015789543340063842,-0.16094223009376546,0.12064607576453971,0.004493874043904018,-0.1489767261897636,-0.10810241845799673,-0.19385126378501627,-0.04537210322137932,0.026560357895536433,0.08141740341635414,-0.24809960117304883,-0.04502624043817899
,0.03612360642348723,-0.038952936607413065,-0.04345335071222697,-0.08573336038784873,0.05820915470665746,-0.10849418040217859,-0.25001236036914787,-0.18568837218030027,-0.1235646447583384,0.018812197418225412,-0.002855083648047995,0.15031826634169435,-0.4627111896045462,0.0002638923972177898
,-0.09714295487237401,0.11173100055975992,0.026131533489009172,0.057039965048515814,0.2743238245289208,-0.1334596461093468,-0.06471017722498135,-0.1404728154587762,-0.07602415384307963,-0.0010534873467910116,-0.2026999677131663,0.17073844619179726,-0.7349775389901259,-0.09215108399357846
,-0.08920409922485112,-0.017339036154577193,-0.016703897843295058,-0.057826848362046,0.17094788504178354,-0.21029253131324024,-0.1983263005932025,-0.03620525175708429,-0.13871783638675128,-0.02333075205746923,-0.2727165237701672,-0.09394376200787125,-0.5719666505904755,-0.27447841262855305
,0.1216038272408236,-0.0003244468946879934,0.014574404639300995,-0.20332969689898758,0.14314954591556994,-0.03456694966320437,-0.28847210621773334,0.3246770019783214,0.00900161769652107,0.1095786705135359,-0.022960114076391123,-0.010437164571920302,-0.37481227694496133,-0.07717387502640508
,0.2579636121372526,0.014772550583261676,0.08832858081787004,-0.07119085350706052,0.019444472824386688,-0.15181568974931312,-0.16378202633472644,0.061225573675143724,0.12475663123167023,0.11123962227203668,0.03387515633128325,0.042632305899487404,-0.268308655679837,0.023093652516142243
,0.13102425304836968,0.03628837376021955,0.1267642588386242,0.06110477626023862,0.1540608467268604,-0.1993790098500154,-0.03612301486127935,0.11015299011679908,0.038976576937808115,0.028009753081235725,0.05615580128712632,-0.021234148709557192,-0.3618775744841799,0.0789160835430999
,0.02825350004813839,0.26465071480943336,0.10012205580659632,0.0054662868109047035,0.20456205039180378,-0.11866320913987223,0.09422941789913428,0.17649873635918062,0.10805142559217057,0.027262916824963332,0.023292664959247564,0.011908614695530034,-0.125264474533645,0.23741471469903339
,0.020367153659559108,0.17046508257999685,0.12098432667798438,-0.030249671916989605,0.16699029984788688,-0.22900329821603735,-0.05253343295361182,-0.0653697270387833,0.06082906658569299,0.3517628438489537,-0.08644066137226245,0.000736808100997394,-0.17074002843109407,0.22576731243339904
,-0.17394689623855542,0.27920431377377913,0.19340154073499047,-0.13728657132064948,0.24384637754352245,-0.21717806233699705,-0.09271895258115213,-0.18805817248584217,-0.0563693416826494,0.37681955646595033,-0.09642760208962564,-0.0001319492332872373,-0.25024643918361883,0.05735415924205314
,-0.12554453709742625,0.6890569298485643,0.011816321322762256,0.0044213827394142865,0.18125967679965257,-0.09278701886387176,-0.21933215033375178,0.20524868697643775,0.06985328787040139,0.14016076308057737,0.05640173416961679,0.1975802425941051,0.015218700642648178,-0.03850187515139491
,0.08520124063087285,0.49159142213610596,0.005850336861767429,-0.05604859743131661,0.343750354293683,-0.08455654970012826,-0.2513823826644629,0.24908912904733474,-0.0980885891399216,-0.06257228324218114,0.21182393980355324,0.18401129281916528,-0.11007349375722598,-0.03354181267687325
,0.16718933919448217,0.09120295786362287,0.08637828059317054,-0.05921258618413748,0.22021640973665874,-0.04973303164542845,-0.1856698909647657,0.32234927438014,-0.025714273545471362,-0.08391145631611317,0.3230719818264635,0.015164369407406049,-0.06484438309484873,-0.05746209770288822
,0.3253544907490882,0.10870859530353968,0.030889670022304926,0.05986007400179388,0.1265389220610915,-0.17894935688907718,-0.15309848009635657,0.42782042052048785,-0.04301141399634206,0.07432389862781988,-0.08341248214126237,0.06809739931601162,-0.2027058236727499,0.06996800771437892
,0.380247365953065,0.4103167163673812,0.11063860091419542,0.10424234450380036,0.16243330663687802,-0.07511685070902517,-0.08625741518695837,0.39765380300549913,-0.042761072108076635,0.29994029294236374,-0.16766849271588874,0.11368975381821919,-0.4701684299897415,0.0638558148251421
,0.22930500689290442,0.22887772184758554,0.040274226803667997,0.0963620745241998,0.14940314556337303,-0.09994551278147906,0.053156515026948105,0.2124718463571292,-0.12897624115010148,-0.008138565928914591,0.10963255841597973,-0.00425629235571955,-0.27435459077972907,-0.19410141573056577
,0.03344668517825556,0.14291805836908178,-0.00033043708262822793,0.022688137015451363,0.2799555813931561,-0.09612832373567942,-0.12832705013635162,0.0981554324327452,0.023229163318361272,-0.17831364896659588,-0.004049441004506102,0.011886486806895127,-0.3099509306027704,-0.09912282556320168
,0.13306119081763756,0.13114564988405494,0.07611686831321772,-0.03878532916346051,0.2021464441420986,0.1140741947546147,-0.0023788172309342475,0.09277211046083346,0.059194099738048796,-0.16876733219721166,-0.11151106276941672,0.011251845264190192,-0.4316958314776113,0.0274609179707062
,0.18873375155698746,-0.13807466070411722,0.1045374943640157,0.07450949367271613,0.20610935880283152,0.18407436670276403,-0.14749258309475077,0.10227193724103989,0.07853429424466196,0.13620947024983784,-0.011043348990866321,-0.016091360355005375,-0.3897597608270461,-0.053069163445961035
,0.08543753427736409,-0.1701061988042939,0.14074117313139478,-0.07599843360500023,0.45276687738033355,-0.05511338873686431,-0.11958666473003565,0.13415272092550545,0.07818278772185945,0.20518738277586626,-0.09621548612142523,-0.11750926665638672,-0.19234649560190553,-0.03780299507754694
,-0.009913828652890224,-0.22385576418837802,0.23494710607603836,-0.06046178766356497,0.1858758440826337,-0.1071971777634462,0.03264612400967936,-0.10051346404919582,-0.04854728029976705,0.134902857105618,-0.2098288538914397,-0.09679733467908247,0.28272682934948257,0.06133621372778129
,-0.2636432361594637,-0.22848636492176239,0.049389855247357804,-0.0021765211336840845,-0.05413905290488069,0.03281197860739077,-0.027065528563676604,-0.027386017449543776,-0.1120100580971499,0.08035687637864128,-0.12167937526656869,-0.0905752691582329,-0.03835609437862139,-0.14585227304234197
,-0.12688133962483156,-0.1473759678851537,0.0437064856836644,-0.022510854841860668,0.05352743395646878,0.12475325441973886,-0.028091491201003516,0.3986503753624022,-0.006244317973532914,0.12921692031335097,-0.018408837138722888,-0.07095709725157352,-0.14501092039896224,-0.13035043119782386
,0.31233489894483124,0.017368353521162075,0.13619994335250177,0.042092423478554894,0.007512331631556326,0.12330716439672905,0.033819347718579196,0.1966971724914515,0.03150701474446341,0.06081649369463474,-0.04854893804865758,0.002928963068958991,-0.14790421205481152,-0.046616817635807384
,0.1856075009681548,0.49842397094299223,0.17580770200183365,0.09081741265608351,0.12545000054489486,-0.12531818889243548,-0.07949107039831335,0.0742129144444361,-0.04944411611669169,0.1478169098116579,0.08401173450094493,-0.09612507947188029,-0.279098872346407,0.1040867829857196
,-0.008784615939639018,0.6648724296348654,0.23735085176526644,0.27072662096488015,0.3036637202853285,-0.056084546577653056,-0.2563523632132294,-0.0764557391515877,0.0219512690278038,0.17261910495243304,0.157865291005046,0.005426057741542899,-0.2682865736737051,0.10893292908244176
,0.22465583297401726,0.2415236145727994,0.193867616241434,0.26277105097087017,0.4998901945214556,0.028550839920089277,-0.1550219929782115,-0.07550250625348692,0.08428454914563156,-0.03728783063443983,-0.15689287517543513,0.15221866193871345,-0.3349096264139539,-0.08963850148804003
,0.07059746548947397,0.09756037346034252,0.1708085519823247,0.34501413067197717,0.2312724315918866,-0.09861158999071337,0.04633650022897654,-0.04054338895146005,-0.017334342279777232,-0.16968648596137162,-0.1590992468251047,0.014036299767127223,-0.13489016250273583,-0.07867907646267742
,0.006572766334734559,-0.07134234353739274,0.2193499772980439,0.13085282737770174,0.11111625192625474,-0.12016733941020129,-0.06525839453189991,-0.12671805636426098,-0.2828520219339251,-0.10642461788835977,-0.09210249858148907,-0.21960618152156539,0.39425013143747056,0.060927202396582864
,-0.09670415326911518,-0.07570967995263933,0.1096942395068421,-0.10802538754366006,0.14441468195365614,-0.034146189805455154,-0.12192960276818751,-0.30384369126616995,-0.3056774891835432,0.19914038069927592,-0.17952007919479973,-0.23172560067101886,0.10471803663013782,0.00989044651667535
,0.035218155573449164,0.04163819504416417,0.1391487170529295,-0.02332886086763021,0.15732979068149297,-0.08840150035613147,-0.05634875074701216,-0.1974291137722781,-0.03815641226193584,0.14075077651790813,-0.02269813467763973,0.026753107373984484,-0.018081222424455003,-0.041304190556051265
,0.07970419944019122,0.0013371993606481121,0.11859692311069503,0.11381229082442601,0.013707233019858418,-0.15371007763378927,-0.04911703068686561,0.08759733031114861,0.04000891625579659,0.09933963764236176,-0.1227251399188206,0.03434371789115564,-0.22193714220562002,0.03409799763073736
,0.053246213985445615,-0.12976139435675402,0.10989401705039097,-0.06151318123192013,0.07099755640413662,-0.14611385293554982,-0.03634286645523302,0.5062710873774467,-0.016070897561945668,0.16050047157057853,0.07974140113555783,-0.060437691903975,-0.11609997082559607,0.05999784042155066
,-0.2165504580852201,-0.3326051535185485,0.07577320422804296,-0.18238114345556522,0.06860365907280565,-0.2820765136593224,-0.11873968788747957,0.2267999337239666,-0.02710652944420315,0.022471525250089032,0.058733153252992006,0.028109800922604407,0.1505206938175786,0.050823512032705166
,-0.21150353333886135,-0.1814704543514142,0.019568442373427548,-0.16827077720053263,0.012933426092634268,-0.20018359271681707,-0.04457664860009751,0.017473837784675667,0.0143045226573086,0.1045261568872012,-0.057232885850946665,0.1461946914277366,0.3696203130350928,0.0074848873998121
,-0.025315601627239618,0.08154895235154205,0.12475546426016106,-0.019446545665524943,0.009560980926219372,-0.16676574319089404,-0.100394986563299,0.04039519393973518,0.031138562392770144,0.27017423184692296,0.24223109754281769,-0.0017949023523126475,0.37839100865342773,-0.06980129549709357
,-0.1183553760778157,-0.09540133078204385,0.11999949324790717,-0.064312119962039,0.2484874663458902,-0.07422490549331241,-0.22485173294870275,0.08203573964757807,-0.075448283513266,0.20626967068339397,0.1571871162798926,-0.04831010825121119,0.1704419682707199,-0.12418131288222681
,-0.16247155302782934,-0.10530752498354817,0.1478039929940901,-0.04237705163144381,0.24236199111398277,-0.14757116673420861,-0.34600222896617905,0.010615124417017514,-0.1056804807740013,0.04665950399000287,-0.15416481303123838,-0.07124273988194722,-0.33631933803032915,0.07278098607235005
,-0.07801979674694312,0.007642172943623022,0.060061977976809525,0.1408688275029718,0.1163758302886355,0.09337950846838591,-0.16641552492412126,-0.06459773544017076,-0.1541270426696452,-0.004652487704414095,-0.2231363437379237,0.014817495812555002,-0.18758796491083765,0.15389044319974096
,0.01822167499746766,0.19836808559120134,0.054232046181479136,-0.10415793350149362,0.011793218856255876,0.1108336090726108,-0.024490051914365606,-0.02319572963963867,-0.05938322985220333,-0.06889867641912757,-0.09151708399299027,-0.03317006391178363,0.13194707104015485,0.2713224201667251
,-0.19214776773123193,-0.0549509241289892,0.15514662275298363,-0.024861494811474264,-0.10567294800245772,-0.1634232346787897,-0.07226828271527606,-0.008174136594822303,0.10623451952936701,-0.07894720423938356,0.038296974190243686,0.039893081574946816,-0.07211169093000983,0.21347419739349596
,-0.07301510299144917,0.09169639881859204,0.09545327279144238,0.027384089981975723,0.00362550851185906,-0.24132891272803098,-0.22281017196172206,0.11433679425639834,0.10000021222397262,-0.02907541037430971,0.004439482493748976,0.0036656779221454407,-0.39834233759441307,0.03598952687707464
,0.11560673287925048,0.314204207379676,0.12214169392436483,0.0292021824376764,0.29594340811030917,-0.17170016099024238,-0.13359873729484698,-0.03785395111180754,0.05803288229644537,0.09300242975263363,0.04135326952156046,-0.01995070448448514,-0.3639392279000425,0.049155920022667596
,0.0059086539718532765,0.569252556979029,0.15980627250922166,-0.0650141783491977,0.47567241344841776,-0.04197757116451975,0.015376653551286146,-0.23008917625434813,-0.15042879263906345,0.08780205749554436,-0.1353863059730378,0.0054289628366358655,-0.031169382779497868,-0.037628386635787756
,-0.031768079545237624,0.45957640101404207,-0.024008904988494083,-0.14263125424919332,0.168421856282704,-0.1970403211418146,0.10322591986348222,-0.0081141083780733,-0.016072767507555163,-0.03860677665770548,-0.08880154613380967,-0.13027908073834693,-0.07629060676156921,-0.21427577629616815
,0.05120799943364253,0.38945817856525927,-0.1273065230621483,-0.11675691247233706,0.07548026867550069,-0.03000693204830935,0.16512805341842787,0.02510660276453947,0.208157168710418,-0.09008987306766926,0.2036129804583034,-0.07462459909089962,0.05809550877238258,-0.2144462435766887
,0.05848856661431007,0.12548706016105843,-0.03047558459425923,-0.20233838114312325,0.230895790143874,0.09487048603226712,0.1337774008312776,0.0428082845949049,0.010697049296881525,0.01784839978000355,0.1044447119640643,0.04631425641324156,0.17567995753456112,-0.07820586174375845
,0.10395713575808632,0.41019944364805455,-0.036891450495339075,-0.17883301245172126,0.07186147324796407,0.13665150393719824,-0.015903777351678833,-0.18865822620250633,-0.12338937979341057,0.13324953030305717,-0.057690563963651326,0.00995741037292275,-0.12996824040061752,-0.0020696746189727755
,-0.04510498691533543,0.32265146326082245,0.020536674424749688,-0.11387882503110396,0.25571842417730833,0.21966622307589534,-0.08497844830690646,-0.15169689526771468,0.016667120396772817,0.17057969273424803,0.022932505109701195,0.054453532369993764,-0.1711507091981256,-0.010183435306455439
,-0.004706562464572979,0.5117935737011323,0.15879909974681877,-0.05275932458831758,0.5323464598324897,0.18682331867245425,-0.002626434531324093,0.1323156172232867,0.11014044483726942,0.17199040764145682,-0.026167513863838202,-0.016367668708818436,-0.06208797427369047,0.128417941345996
,-0.033333612165918305,-0.005775029252274105,0.2128266475856885,-0.052592781066895945,0.22256515639921962,0.09766232609945824,0.0020249085054602307,0.2003286890449632,0.04795232892482645,-0.0701471788323205,0.020683731754967336,-0.012930659418427238,0.16432519715478203,0.16466349452732865
,-0.1200725784986232,-0.27373689069799784,0.13342240416364373,-0.1551290372165131,-0.13442351594067062,-0.18821452956092855,0.011532661352149693,0.12489598856174632,-0.01663833680411666,-0.011354733676518377,0.12768382346195228,-0.006755049520915004,-0.10898185338686725,0.1348711006759089
,-0.04555768711726661,-0.19954454287928988,0.06564565551374739,-0.31225321609621437,0.07202013558609482,-0.17440046683152916,-0.0018843938667180182,-0.03773558774972864,-0.13763025558187975,0.04243341054799933,-0.09452582839541589,-0.07097178814641662,0.023315820947455067,-0.02659270769607822
,-0.07689426433478241,-0.39249094104930604,0.11507882721349662,-0.23617626974228972,0.11519990714242165,0.013972868687735614,0.058028504925973695,-0.143424223272328,-0.21502223002630205,-0.13231497463384415,-0.05359479037676514,-0.00014826175320831802,-0.5008279186636608,0.016557866453107587
,0.0775887083174257,-0.01691043257423542,0.08338054421101732,0.012009740029104203,0.0563212978194725,-0.279143433024861,-0.05306206478575153,-0.006400126502361844,-0.018348464386775763,-0.238595716382401,0.11825696884515438,-0.05416865751256759,-0.5899709891773555,0.03460871880080133
,0.16406564758163417,0.10454628435377354,0.07784496221586006,-0.038910517225888404,-0.08556414308620314,-0.37713993499873866,-0.11514992840178964,0.3883784868906327,-0.08594800619453585,-0.09352483624509243,0.07156916719733944,0.015547295292184776,-0.14775871111566818,0.12664774976379425
,0.2164263382364427,0.4495860973007259,0.07537303906914769,-0.019310691632831077,0.08430660879850506,0.052249309362574804,0.00961824322055367,0.6356306075421072,-0.11984243289590939,0.1604501340940851,0.16011125996437436,0.11582962595076365,0.36914860361217144,0.1433618979892566
,0.15496417034230503,0.3406117119637158,0.03376176974529103,0.059317048153315004,0.047424674355160505,0.11116364111101164,0.025058947887531706,0.06019029947626915,-0.03205628526081771,0.20069153404019147,0.15350171359782194,0.024775162536232635,0.25410520586017915,-0.021474371782495193
,0.10397012104388383,0.2069627232586127,0.01269197106340682,0.1601152510771263,0.2008120156727617,-0.07675998686076727,0.08617474567711446,-0.040031483114849026,-0.15388018102246384,0.12134195088733576,0.10796770564107169,-0.014473104820078717,0.00712294425970042,0.15297471682278052
,0.20675224727234673,0.4647659497284082,0.09045601186684984,0.06390016444038105,0.26958086887466143,0.06832710056783986,0.06239032883127565,0.11658122101551503,0.0038132686575560646,-0.00904293026620837,0.2801337789444491,0.08161083119060422,-0.05685443398169603,0.21241412111822366
,0.2965389119798471,0.28006089972645837,0.06908598107564493,-0.04678485605022749,0.0779619624897567,-0.03613918665176783,-0.07043013928588643,0.320447459338574,-0.08768743051345566,0.08587295158525828,0.2391385203079418,0.06174456198372975,-0.3635983716988629,0.029595234023161627
,0.368055401953919,0.04903291385201355,0.15850495338973364,-0.038882685496963096,0.07691970684785719,-0.0036592473534555188,-0.18713022045383923,0.11796796394974007,-0.2516417852737094,0.09904775012200466,0.17094808048588145,0.030332273491932214,-0.43192560646677763,0.030960937615483793
,0.15391610715083365,0.06416208155133704,-0.02252631350080235,0.02964596789673027,0.20790484954030822,0.09483096550052494,-0.28533381145368775,0.05529352529496599,-0.1684270203719255,-0.009803099811526042,0.04320921945147747,0.06087632798833323,-0.1853411578243066,0.23386999299287697
,0.12707825798121536,0.3993867949091481,0.015305308218286677,0.139291561524693,0.19721274752915183,0.018597320884430123,-0.06439458779317857,0.11295024874886933,-0.015539925852632001,0.12740890182634293,0.09412776347451851,0.06886822764852174,-0.11323651042414855,0.20094826137371294
,0.11203590731666362,-0.08602460729115634,0.09473440658148433,0.08391600539512727,0.11099111108332675,0.1441935584213319,-0.00790936257147672,0.26888262156112736,0.0332330510580247,0.056402241161791336,0.17943147065239545,0.16558197612666092,0.0776162454132554,0.17398966662857107
,0.18009017318325746,-0.2033167620810093,0.01612741480979924,0.13756890755186885,0.11131914737239854,0.07644430407836603,-0.14024735483910133,0.26178789744853875,0.07406379367175432,-0.0968402524225444,-0.0008879029866607563,0.1147699537277681,0.007333555730434641,0.2200366517853854
,0.18844959702965755,0.14028624070306212,0.07578083966658547,0.08630585196730955,-0.004349800952527845,0.05232964794957521,-0.11274269105969886,-4.425913753959368e-05,-0.21441954436921493,-0.13263797919827972,-0.03236743852487067,0.0340676091889075,-0.33290486961574334,0.09122342372746603
,0.128613105058474,0.38723163756683476,0.16376871676282354,0.031517538308972345,0.1952897625499293,0.03837495006800955,0.06833262535777758,0.1098837396252993,-0.15778166454861026,-0.07631024262659163,0.224024856775281,0.14616337481652783,-0.1983919960512368,-0.04215930084523312
,0.08898621047072955,0.5387907166834704,0.0866501159504448,0.00792124568633804,0.25807334428939854,-0.00969042190413162,0.03813217307701547,0.4173553233854232,-0.18516220815317488,-0.08506260056266264,0.1616934005544391,0.1940836747370194,-0.12069695119511842,-0.08214541805497193
,0.1306328214184105,0.23705571884179155,-0.0899273887885834,-0.13238179419505824,0.13184334922514282,-0.2274070032825767,-0.10377635456522687,0.16849464651390283,-0.11055295100070082,0.09555378055318874,0.104697061922996,0.21398667505550814,-0.1664524435329663,-0.0647305050670273
,0.26710666387963317,-0.0006665748702019928,-0.009369872492508396,-0.09460173750447214,0.0003782583700564958,-0.23889891193136503,-0.15776676514477966,0.02777723479174188,0.06522820793347801,0.19368011672516475,-0.021266806900031694,0.20089240216173437,0.09812640448344417,0.0456247758674089
,0.22874696971759656,0.005104163106097173,0.26261981518708083,0.10985060298708385,-0.00042035688034148904,-0.2412725741704673,-0.09934367911485716,0.10879572858240845,-0.03791161388201153,-0.1398034376970445,-0.12178138217481566,0.1669545753330966,0.24328992257048038,0.12637270416258692
,0.013046213543400579,-0.16494233681029383,-0.033225677262330625,0.005370541303661327,0.017140641106444417,-0.04898480648233563,0.0671896680539532,0.2086003197492466,-0.1785729324581925,-0.09340808122730615,-0.18270211370383527,0.06697175595900469,0.02050953987712494,0.00016782936780152655
,-0.0017089489741301926,-0.20882913860525124,-0.019524811258959975,0.08118804622724482,0.08509487787401167,-0.1321188430486507,-0.14240876456749793,0.19410941294899045,-0.059090612843021764,0.2667764600434274,0.07398852480395204,-0.07005306450267353,-0.4256486112533765,0.14427359861531655
,0.05499218134900601,0.06179148558382129,0.12718375729399273,0.09517512634382524,0.18931987498380995,-0.05205752520857747,-0.0018324662006697114,-0.05178046576412106,0.11359359035304387,0.1797955986467541,0.3648347842737472,0.01817561171915281,-0.23159112029128717,-0.028418093614115722
,-0.03393449701102948,0.1803776282628889,0.1084928820154534,0.12405187239783531,0.23522502015886576,0.09029082962615594,-0.035215748629877225,0.04269636573179096,0.08262782967283215,0.08512963771528825,0.24427132629768739,0.03727636804432476,-0.12442323391858712,-0.10080234654640474
,-0.25207374241743874,0.044111144402114624,-0.0024751298464163927,0.020422565451160647,0.10414078707224443,-0.2209331865515462,-0.3121578866459825,0.22675166154030987,-0.11315228193118851,0.06480367168718033,0.03481526652662789,-0.0602346386573576,-0.14016883861156262,-0.08927355945256808
,-0.25630819272796995,-0.03848446875413165,0.021679785394357522,-0.08606010638979648,0.0999446580629821,-0.23558682303304468,-0.19733051954812267,-0.048483637427910384,-0.1994252026133847,-0.07168325583376604,-0.06881329158845483,-0.024798551845243353,-0.021344765546773656,0.03225780457742186
,-0.2350815878374877,0.385469587854669,0.10093175390771554,0.0039273105528170454,0.2149258364047151,-0.13386555872942416,0.22552322305952804,-0.23538233521475205,-0.10849787692862216,0.0959117733214035,0.12911472964829088,0.02173602772889866,-0.09722324092571683,-0.02594749899658477
,-0.16696823077518727,0.4093703535629457,-0.011076159700234296,0.19810805259408773,0.15488935277237148,-0.06416824152114779,-0.10102452840509675,-0.027924384000303573,-0.07617394312733874,0.1864301151871059,0.06904444243504888,0.1819697868497227,-0.17379045960983028,0.03415445192450581
,0.0057478717037030115,0.19499458449689924,0.10420342059362847,0.11739132863954028,0.2592645705911074,-0.11184914920960819,-0.051969750140919015,-0.037358881180424366,-0.058275197853859505,0.1828130270522821,0.007904931511168488,0.26709675902149715,0.16810512286224255,-0.043721988521283575
,-0.08435041571670503,0.20075733746679889,-0.02023881948529367,0.06473379650812927,0.18896177718036558,-0.004458274527024218,0.11405042708388545,-0.10895546152607812,0.03777581136178307,0.10359254106935224,0.14675859886370918,0.20150373557986423,0.4813759190169191,-0.03266395309015235
,0.0207484765467571,0.43517194843611323,0.014338820655267879,0.09303168185423706,-0.04409130348804841,0.11672443246792785,0.21693980932572735,0.0820032519535547,0.09368896982580772,0.08421617069117232,0.23722071505343026,0.04828164056773049,0.7241966589513475,0.08553345409172124
,-0.08527615258268477,0.47351239437930986,0.06717427099574384,0.07571088097573356,0.044533960808172846,-0.10664788936237857,-0.06491578595791676,0.24912564064871368,0.03635550093227245,0.1464907682176869,0.3223921007296031,0.19205588834176543,0.5550625362653455,-0.05295644131909701
,-0.028275779510804292,0.3886879497528109,0.04975878018913981,0.16281434540427353,0.10879837397657853,-0.22896867492027306,-0.1628486547557628,-0.1435306882263368,-0.24555450571388793,-0.13462226843775818,-0.002008345310699434,0.04642423865269742,0.45152878014600567,-0.0628242632322863
,0.004477519123072042,0.27128063493079857,0.032617902104531984,0.1230837952131695,0.011334316211048823,-0.09374981871206454,-0.2589000617022729,-0.14978919560023402,-0.32719170439614664,-0.22979541628890604,-0.32590634706726396,0.025932144336729124,0.5679620160735491,0.019001184669822223
,0.045601078140007606,-0.17922269519930978,0.10855843538522494,-0.10456443890722779,-0.05578274102461626,0.0590902382795239,-0.05588786914974337,0.26229845458083273,-0.26529536316930163,0.019829354922891066,-0.007940382018006977,0.06722687942743222,0.3598443202115415,0.019227102980371856
,-0.04210311175630388,-0.18291993437989168,0.036085796711717626,0.06108573324659508,0.12618116519177572,0.08672709431405266,-0.027462511442304112,0.07596711067971533,-0.31762124415462417,0.19419543123755817,0.15955291613877737,-0.001181623256669942,0.2995978560861992,-0.0677464057950427
,-0.20507210665766087,0.21986661228451843,-0.002727239145980052,0.041297720768678214,0.1946218851521538,0.11619658101884502,0.11313979825405192,-0.14991043774339288,-0.28922431914723506,0.15135850367629114,-0.08200522419668456,0.16061614795921897,0.5654676395510021,-0.07661592982173046
,-0.044200267864855404,0.4262298115732784,-0.01384344170985278,0.054351083644086036,-0.056011161155912044,-0.194068502510551,-0.0855477907526278,0.08860024632178609,0.029062092861497232,0.18465828780995897,-0.05262663483978717,-0.07732365952177102,0.3166011567120564,-0.033943131875078025
,-0.08169750142498985,0.4511849298171606,-0.07438951315823136,0.22169687293709744,-0.007494991318193647,-0.22558369334450024,-0.09229181971229795,0.2560417872321912,0.08403787567095007,0.1623783441719921,0.24090431080036034,-0.545532222969417,-0.025138027784261673,0.0004548400978659694
,0.017871054446425384,0.2493946844091329,-0.009882726394864436,0.26789236204605976,0.07883265294284893,-0.1382035443754477,0.20617471644829174,-0.007225008543051349,0.02656322494102646,0.030792687418244553,0.13023151105975278,-0.6271422808015908,-0.06194678791481761,0.020047226825894514
,0.053422307897811355,0.04571857164881716,0.2919721056005881,0.09594385045060666,-0.11222360781680023,0.1612928320398314,0.21799227979307303,-0.060382404623501744,0.07914255283264102,-0.025344965829789932,-0.13143615882668525,-0.28584084436160667,-0.39590634339321473,0.16793755167231258
,-0.1275737813798484,0.10576918724554991,0.23662520204444407,0.14474798201916922,0.18361544097181368,0.1814992412153547,0.07185128015905486,0.011117239265510538,-0.03241477098744325,0.2940390845231285,-0.012680610645286156,-0.030329600855712117,-0.3736348646455721,0.1658871565160825
,-0.025021635886515937,0.1661485414371496,0.15156521330524073,0.03903440528089237,0.2661062588431589,0.09819459140271597,-0.025484305180551045,0.059486246598892116,-0.12018431989349637,0.11000501205053966,0.10472074508990624,-0.029854170924415967,0.05281851186404908,0.16654881854225453
,0.043400837130988926,0.32720215952495296,0.004625224017943551,-0.02108519055845252,0.022494328157319086,0.019045102199958894,-0.004195920277755024,0.30262609256199763,0.0620807920680509,0.022397503609689246,0.16185875175742284,0.01343902792379328,0.5816600393807457,0.25817027485686195
,-0.06616831061314818,0.33982080871770987,-0.12800674272542176,0.15795866484041252,0.011690587878666123,0.057637665248641265,0.02410451707674018,0.32374547280583754,0.17713616175980076,0.2271257677908113,0.13231786418437297,0.004533631080212212,0.19943811497230438,0.22554715971970715
,0.02706598359468313,-0.10659146144077472,-0.07913966022712113,0.08582338622473523,0.08089428712112826,0.05887107930525387,0.011056872644413376,0.02166573533659947,0.2590754812216122,0.30399346153063994,0.03198808073428361,0.047978082537608505,-0.0008116750403728979,0.13582891634529187
,-0.008408079196584232,0.18434284569707754,0.09710323938712118,0.003941727504137809,0.09574348713463517,0.14452549129348055,-0.05258870132230296,0.05864808145414924,0.12016923169428512,0.0497198703764979,-0.02253065785165783,0.09495915761669715,-0.07041176309113371,-0.06366151306470921
,-0.25083051114492383,-0.3807210252807962,-0.05421764090017743,-0.12371637359115929,0.0198656332386906,0.04301387271578551,-0.08043327379087226,0.14941462080309897,0.14796160117556742,-0.05445451519574247,0.05801420618034565,-0.01008122579823772,-0.04067397899768817,-0.26429916873480186
D,-0.32043297778866014,-0.6638695984686048,0.01816892791756243,-0.15828043191470975,-0.1069701546996449,-0.045687275259698144,-0.09660641484643315,0.047560907285405025,-0.04280918551078089,0.1642978572740341,-0.003883574074907712,0.06059569968721036,-0.16627212754618265,-0.16294954761950095
,0.033609700797946396,-0.14329018327792512,0.058520473373509456,0.17126048103299615,-0.07457272679312395,0.03501109812891133,0.15722888858188158,0.17156216751721365,0.04191815685835725,0.2042257225307916,0.06677055815080571,0.10498402947099884,-0.010141681635435358,0.2534596286251396
,0.048720688918671214,0.28515219234590866,-0.0904748251729188,0.17381486376250585,0.07104508052358885,-0.019122531114219448,0.19201928775414123,0.02018289064107445,0.11460035053376122,0.12789016074301449,0.16671355431287593,-0.020804300404044098,-0.04363090180609512,0.1325281459718191
,0.05857193046551631,0.1396382862258799,-0.0983957144051304,0.08461979923478347,0.03903430837308231,-0.11121463247360978,-0.12390125423541846,0.03540933905005757,-0.08862931144082607,0.03972693967518827,0.0853243744293985,0.05297772331085456,-0.1548111583493434,0.09793106667430279
,0.012955405316390643,0.041384301880266296,0.06568313547796019,-0.09692732110582869,0.16045175367377276,-0.04787510594769527,-0.2143811506677069,0.025703035206105163,-0.08499267509008857,-0.009739516264211823,0.13935430376850777,0.024437108961397842,-0.17924637415683292,0.11914877649903206
,0.08075568275913625,0.3277075727891518,0.06958703544473327,0.037198008301195386,0.07207502681136134,-0.03360594877888601,-0.0597689874808565,0.11016763984740448,-0.14692674596194166,0.073012614869884,-0.02024654123582959,-0.022496134124547262,-0.4510095093821834,-0.009028672075886228
,0.042757798410608935,0.07340040197581697,0.20916904235837833,-0.026904415871798572,0.07974503662568275,-0.1740136309982147,0.015945122516254982,0.08684188747303749,-0.1463236553219981,-0.0746191952971075,-0.18221652374573014,-0.004547567063991466,-0.3510162739342905,0.09293322257545555
,-0.09136067385626322,-0.3886801260394358,0.0058808431619791395,-0.08932713471773313,0.046310903527121604,-0.07963716980982961,-0.07895281678764972,0.30372555739635637,-0.044342021884937244,-0.15768986128271098,-0.05913699399650499,-0.036957529830210015,-0.3447200335293343,-0.09693075398974879
,-0.02317330251965869,-0.36777005768943094,-0.1214955725818113,-0.08287649630197282,-0.010641290409272284,0.014495373163265443,-0.030741934430986637,0.2666952992779318,0.03909575723062307,-0.1861689522451489,-0.00880749962029011,-0.10487151229427313,-0.16504285932910912,0.014783663276039902
,0.07221151888646939,-0.04330905298506741,0.14498137562062433,-0.10975405959363076,0.20156053399471385,-0.12922087290745846,0.09344329385687589,0.29862067346449994,-0.057835336568200196,0.014171539180564524,-0.05238440377700192,-0.02977367202957405,-0.30595609236116683,0.12884562043975673
,0.06101876246421382,-0.013096312982907475,0.11980180940375458,-0.19369720362492931,0.07429460898974373,-0.15760170114229402,0.13343901221799112,0.27987525751635667,-0.04780309654040639,0.0786703241844584,0.33414554398990126,-0.1155553592960857,-0.0804714469389233,0.10086271118446509
,0.10908215636017643,0.22287060006149553,0.04027596450373861,-0.1466614923828218,-0.0001458118417427404,-0.16855866512137901,-0.0179636619324889,0.010232413706556755,0.07649914289313062,0.20349370263420813,0.25423802278245294,-0.3595576381378192,-0.07179645864990904,0.013974314810797594
,0.17231730616885332,0.5581816339722024,-0.1964436713749309,-0.07420902865773682,0.1814810893087362,-0.10319289859540114,0.0690539676400094,0.013236737315831356,-0.08227686070993222,0.08116812801672231,0.08643741499842499,-0.44113951292623677,0.1436149099578691,-0.07712950163876696
,0.14020702858431672,0.3825070621640774,-0.17504013464770432,-0.10813052701515019,0.07931855066724336,-0.12239199263550243,-0.02467265325677737,-0.02936570909547217,-0.1706718920870485,-0.05938862721659113,-0.07195293398174299,-0.30987413476685044,0.5939268749274343,-0.0002874494849806741
,0.24481503549150577,0.14769642224016358,0.08116754652026682,-0.11370147648710402,0.08335832922159073,-0.12385360101017744,-0.13721325253802583,-0.0781948978920697,-0.36293050803431415,-0.15230805919703125,-0.08695119143508794,-0.07436410233620394,0.5490862422352895,0.02587573016569749
,0.3979293636943352,0.4767354283626837,0.12309215913775821,-0.1202149648930294,-0.022026549032333285,-0.028305876788077538,0.0011576848441786829,0.0008716977254011791,-0.29690819440088206,0.017673080128720185,0.24195389800362987,0.1530302398982867,0.8184122734674761,0.353361715980828
,0.38356737024604365,0.5863253059378228,-0.03342291091160848,-0.16399904778035604,0.027901114666713665,-0.16031713139996817,0.24353691346021303,0.18615681761480726,0.015115192605800536,0.11065631178799783,0.2997090585586054,0.023895750191246814,0.7015383554187666,0.1964245098187179
,0.08713412098964145,-0.043421361568530846,0.06732979392407949,0.06797576565150293,0.017784471678845566,-0.4512004818400948,0.2423130632423621,0.07788279845650653,-0.09113534808154135,-0.1010170102862248,0.029881082387358742,-0.18616855841243043,-0.3340060606104261,-0.043705274953751407
,-0.12172677983184,-0.48298024240717186,0.08089380249676613,-0.14782553610520632,-0.03141403300986485,-0.29399051959287925,0.019570749116315986,-0.098651191390724,-0.05487584157454325,-0.06145945910992725,0.010215100425436765,-0.1367044626677227,-0.6636503237394427,0.002923059506169827
,-0.2520978232800893,-0.3134417293314464,-0.051189568853268815,-0.1636340043062379,0.08250546661632117,-0.0523398930174562,-0.19979559465110147,-0.07518398537222537,0.09955224277741159,0.05362790516002103,0.18191284943794928,-0.1667210709638108,-0.3435836024851028,0.009377221857832572
,-0.2437236306727363,-0.25646558458743834,-0.12492752083517067,-0.05632339019214875,-0.1056507176894003,0.08342042316108655,-0.1620317121065674,0.1642677213971636,-0.13248794097714414,-0.019115414226333005,0.0015773263451843336,-0.10493052153759515,-0.24038474227966042,-0.05547251181381809
,-0.09664417723127902,-0.009495439176428358,-0.1929820634185494,-0.03664781247408924,-0.013901976221833872,0.19475770648821353,-0.15754595809943825,0.3305159457593552,-0.18513449655119432,-0.0165992170593203,-0.1590239800149226,-0.05781108567388986,-0.3606107597028046,0.018391127439162682
,-0.035009286229595295,0.16721379437205933,-0.10681592651775322,0.023969070481536445,0.2753572145212532,0.14857237115217087,-0.011471381334743918,0.10764970304263088,0.0025964672550059945,0.08062412569718998,-0.01448237356488395,-0.034483460548401,-0.23213275692944285,-0.044775965998164365
,-0.02598365596284812,-0.1637388551468797,0.10574549025614369,-0.027110838297162435,0.24744312962591591,0.2528379976286604,-0.0073405310608554404,-0.09869556855673588,-0.0554932904684919,-0.06590379783691795,0.16463036011917814,0.013166488235032584,-0.36491468505055197,-0.12169438675019983
,-0.11007139500342099,-0.4188922986224972,0.0498555588547502,-0.06806812763193641,0.024413627348323873,-0.10238511632858988,-0.12899344903456603,0.0093564863324561,0.01075368558481115,-0.015152004977630426,0.01574239587002081,-0.16613073733844447,-0.3947854837054474,-0.14759257920410104
,-0.1385340949004214,-0.45520168100893377,-0.02296487651989843,-0.18350942174947307,-0.003923624424187417,-0.2151413012615475,-0.15970806346437139,0.017656295555760173,-0.00229564385714856,-0.15738690588203175,0.005132223495822598,-0.2591977168881341,-0.034428736693781645,-0.2035383728966688
,-0.12247879222546941,-1.0356965687620578,0.11405765414332569,-0.49048820342219546,-0.015824751992728158,-0.1845022889357656,-0.29109090711201246,-0.11132756578515139,-0.06669601640134579,-0.3039496537450747,0.07291079338253623,-0.12283855223745287,-0.3476160808884111,-0.263719301286001
,-0.024873219261884794,-0.8410310010986037,0.05892641716212964,-0.37706210131199913,-0.21080697360462514,-0.0489273842305941,-0.35025239408146214,0.06941356616127954,0.09087238056314755,-0.10818220514724497,-0.013903447719286295,-0.10233368060368243,-0.4050801568536968,-0.20350545293954173
,0.18856184140012092,-0.42605688090683896,-0.03594024179996107,-0.0656825400084895,0.1476307637840134,-0.03730913271600477,-0.02746787991172866,0.12579653621292883,-0.10577574756184775,-0.14690992407069972,-0.015287248324227868,-0.13332439489586406,-0.31280440719943803,0.009601592787961204
,0.15348542406221483,-0.14699811111949077,-0.11095325762624036,-0.09956540321551838,0.31314030603426274,0.0031279840241476005,-0.07252398706628697,0.16717896908502813,-0.2979397126651748,0.026869490143646032,0.16814144515558593,0.0008952132562932344,-0.021883855638743094,0.12425485331693324
,0.17484565124517326,-0.23677876125152122,-0.14755277334671593,-0.18528638024119667,0.09902381133685066,0.06537395943104621,-0.1137898984203399,-0.03373971015943673,-0.28387909253757443,-0.13922873615653436,0.12064189969243932,-0.07270392074924097,0.015690069226897318,0.17022657416943043
,-0.1663446012655519,-0.32984785903459285,0.025147034110848267,-0.19783753768098453,-0.09156188106672167,-0.08220068373237241,-0.13430294387977879,-0.15394867454111436,-0.253638332263062,-0.03207644726778392,0.025267765309597963,-0.11076284493507876,-0.10787676175308947,-0.11686131704112919
,-0.33996750885021465,-0.3873359138536585,0.01941620276249536,-0.16575282324299412,-0.08014619997938574,-0.09313780188033258,-0.18428810254814695,-0.03271817966486027,-0.10888743507141911,-0.010812410481978492,0.16691410793688455,-0.1530885259200803,-0.34199644376081156,-0.2321953210099942
,-0.19479398260765093,-0.27422172704600956,0.11622336774368092,-0.09589105774006909,-0.16807058405832323,-0.07649301896542647,-0.14210625666503815,0.26370082030168834,0.10985197689896498,-0.05162767708399731,0.06408512523281172,-0.09949662457475475,-0.4880717911481798,-0.09440899662870984
,-0.15568831066754948,-0.31275972836734095,0.04553782852195377,-0.10642586970268572,-0.016029957231661195,-0.08625520722055083,-0.09284853008148261,0.08446879961818396,-0.08482498624563806,0.006133847502492219,0.05073775953505833,-0.08822966517386323,-0.6123681971266892,0.13251833546919972
,-0.2787351187126737,-0.461879521862801,-0.029090456698010664,-0.12582951455128102,0.11174971716864233,0.1523327109505733,-0.2500377235558237,-0.2681972498909362,-0.20438981209436757,0.04045917067102713,0.06693495902444584,0.0195867476151285,-0.42445564364148336,0.08302164142154866
,-0.24341179774451324,-0.08270127620095047,-0.11682679486950262,0.09822133810242367,0.19838709214714328,0.21738078089578636,-0.1668775313607546,-0.1980521143442921,-0.17845950147818668,-0.012518704305500413,0.10747107325738019,0.062143701113943885,-0.1795475658391582,-0.13445254862657713
,-0.1290961867530893,-0.00481791957281085,-0.06478356801069907,0.13781981349606395,0.17359275473866456,0.1521117806881767,0.006990252629948237,0.043284907378837355,-0.013560486015463304,0.003917491534351824,0.22653191624659355,0.1520518783878049,-0.4889830438176084,-0.09887278318651409
,0.021971144150734315,-0.3213691294013218,-0.0218114979245821,-0.09486138151220185,0.0554112838414134,0.29691281670398356,0.026081138784642736,0.09699272631320287,0.11832595639352617,-0.08480833700607998,0.020452116649835088,0.018728879223807452,-0.6970683492654793,0.3499411037685098
,-0.013681712906056345,-0.6205251258674858,-0.07857512931963902,-0.19189728780630383,0.17259324760114184,0.2197408792144779,0.016974175423799254,-0.01766203196878768,0.08603012412871444,0.0018327271833245705,-0.17086111903585535,0.14964974484674115,-0.6701631727712459,0.16177206488871607
,-0.17144269790322858,-0.6470049206985474,-0.06223991996871609,-0.13841384641037616,0.1893037483754591,-0.0385659063934698,-0.0003119152418379659,-0.037948424316461664,-0.1027129147126985,-0.014774190291711852,-0.07771433540458147,0.22093730857434657,-0.13082582916442656,0.08029173566901149
,-0.10387293858889741,-0.4275774366487375,0.08467137949726768,0.15201891990099362,0.16880970608569756,-0.212335168730726,0.07812515867408969,0.06891020934859846,-0.028910509465328818,-0.05735398770646577,-0.07377148302634422,0.03821284860725293,0.027383609745556124,0.312334797628565
,0.0821238883935392,-0.1743153416940697,0.11243439212763263,0.21102764217573586,0.01611752571750577,-0.26086370356743444,-0.12279051304585917,-0.11667839387587405,0.2561219674852864,-0.1691606321913581,-0.22395693642376188,-0.0818418742168181,-0.2060080221039587,0.01963731705818984
,0.08694033857854497,-0.24430898007204677,-0.08983678781164654,0.0397495993214036,-0.0812081970292345,-0.2439618694455682,-0.1465363217306655,-0.19951943947267795,0.24114881619363435,-0.07573398404269902,-0.056451041296139204,-0.024427897800629195,0.14692042558754742,-0.07960431794185424
,0.015432951462037376,-0.11232066869069296,-0.06985708163167068,0.061508426081520635,0.2404514217050679,-0.05105306708316548,0.11442300352141066,-0.009347458230316824,0.1996786964291379,0.06457088955129452,-0.02783432066272947,0.09500651931826891,-0.137191563965038,0.023254873777951823
,0.00801774583239864,-0.16401025149981677,0.10899379212280805,-0.17292968379231635,0.1305896414623091,0.12427595726590047,0.11860171954683181,0.1359499902963176,-0.05206608007740641,0.005226076594965552,0.02494485981598425,0.06056476576287552,-0.41978735978186527,-0.039640033478528514
,0.055026237395854105,0.2546352740009874,0.16896584377413001,-0.1564799993974087,0.15149558965676893,0.2893927074059934,-0.052029805391022754,0.012288465649498903,-0.07123248331609161,0.08100340617239472,0.0004470184171487845,-0.034404327660339046,-0.2336131126454757,-0.07975442841502212
,0.010159200146825394,0.48413404008683136,0.2191384252233638,0.0030954896397508845,0.06244863102472606,0.25917719594819033,-0.11561434728345817,0.007110679713008255,-0.11241530793771033,0.01842133596014409,0.04095994199163908,-0.015267919016870754,-0.10818142239195437,-0.026683712341820695
,-0.09607999211237106,-0.106346066006975,0.2839431228497532,0.08686275046631443,0.06830976603632079,0.06482248435705192,-0.14874373506156144,-0.12670922249965572,-0.18052143550645097,-0.013280929126534714,0.12729423440810142,0.03036494075831162,0.04773700382590856,-0.005214440814574872
,-0.04918490675758089,-0.17572551499147837,0.3368628834515747,0.06624302613483989,0.09301972824920901,-0.16223705713157832,-0.13765185717099582,0.037942954100423025,0.041286844572604106,-0.015656506999058302,-0.012796828379553307,0.009793507655211451,0.5121894954968892,0.10941548729019963
,-0.17003465753102942,-0.14785788502621072,0.2062063724662605,-0.019145526099629627,0.05887297132872602,-0.37852253466389896,-0.10083792464197573,-0.03009088420233872,-0.05817418716994328,-0.10136923548957402,0.05652534662381526,0.04873597411351757,0.5019404433437319,0.0742162770327967
,-0.298867144202482,-0.40783030483768695,0.18069420326848734,-0.08113182118868978,0.04606438196398136,-0.3241127186515118,-0.021244437206889646,-0.05925882006806386,-0.11283712955470099,0.14162364284316922,-0.018570101419900443,0.14215670627029628,-0.10745937466873381,0.09823433129888902
,-0.18934873893721324,-0.17057099669166695,0.14076357184771016,-0.12490345453669169,0.16178181329734212,-0.18852712173566544,-0.1122845248929363,-0.09158347632961268,-0.06015776323779255,0.22525189741083326,0.09258845434316516,0.2940174689882413,-0.05907196449665731,0.201216196791595
,-0.12291692471642454,-0.07219659922160988,-0.02578627611976829,-0.05210656468546508,0.243875509810524,0.07010211667434978,-0.09488171255599906,-0.001215508522589631,0.11799392483900575,0.07758849444508556,0.19465139898018538,0.24794765151322495,0.098753000294342,0.1329198509834182
,-0.22224183068361605,0.384033351256807,-0.06450932684280146,0.09265135842761306,0.3068531492951034,0.03259264638849742,0.022526978893816337,-0.09152793362901994,-0.01487493171764532,0.022082413817156497,0.11487484530771071,0.20435193375719696,0.2121890075471659,0.11054706117377412
,-0.111314008976039,0.7367134715002841,0.0005652732476383393,-0.009681798528359303,0.49402670105523877,-0.1432333232402901,-0.007426750960822092,-0.04589755065517285,-0.015685894390021587,0.010591375030142354,0.013010742728684013,0.11601895932135561,0.1796914538616207,0.17232832645293486
,-0.15032277673671443,0.2566535895140501,0.03786172205199274,-0.033860096955205206,0.2019144046578013,0.06436255065834065,-0.04202056329122599,0.03425542372622514,0.0791421916709463,-0.009777639001430973,-0.023807607473991632,0.17723991006657275,-0.0511164013426464,0.08958499950285242
,-0.10915800247620122,-0.16942888504381032,0.10008934130243885,0.015223407762517596,0.2666717342456529,0.10501506546382436,-0.08203303352728661,-0.002003558315297379,0.16822954748726401,-0.23318740749542743,-0.005957816968663145,-0.03758971329897742,-0.14973796437165954,-0.07486794374137888
,-0.11127151492465026,0.2500111993121684,0.1991221896977227,-0.018677258268224476,0.2608268532220346,0.023687264891157613,-0.09019942845610236,-0.027030229071848873,0.14271008311294336,0.012247772953126127,0.013958325532484309,-0.07251782129407187,-0.036854351840518954,-0.013526824487063315
,-0.02608455910297237,0.8947451817773913,0.20503231209671527,0.024838387373283408,0.05905173991275044,-0.02819967560180016,-0.051781767425924836,-0.06663387099843,0.11409831482196658,0.10832744296551094,0.05230962675388249,0.09864690872454993,0.38006360226303076,0.028330428113600828
,0.08021373253649945,0.6127727529627923,0.17612301494627472,0.0737285965459737,-0.1635347903682216,0.051140665447287396,-0.10559273106627295,-0.104026015786813,0.1793320063642791,0.022117031819246343,0.07692902577061861,0.07281542981516186,-0.0737866014056561,0.122502169348458
,0.04851417969798186,0.25737116865723253,0.07668416274811359,-0.09063348634277886,0.05451378030857537,0.09402879459076523,-0.1402527372701969,-0.06068054044864413,-0.023628485201850645,-0.020754433326502487,-0.0019024928916562696,0.05230240896599799,-0.5949707611092183,0.08432896062017806
,0.16235598209876775,0.05984892071320817,0.05878782340782403,-0.08476954579313944,0.12821835746601185,0.13961626247385844,0.08360836589066349,-0.051903347694782075,-0.18733756688942216,-0.029496566548554648,0.25057038718619484,0.03528778677618068,-0.4009623288664604,0.08366236288360616
,0.27726365106383954,0.09870541538758519,0.22853703359656483,-0.042492571952825506,-0.09642122102331101,-0.09620317257770555,-0.02091373815452766,0.08645919807981275,-0.09533135890674178,0.05823488581654785,0.16299819867101503,-0.0022331179244673917,0.08215835791059885,0.07457210637625093
,0.10441993335395508,-0.0014626979218250158,0.1489310404245938,-0.07994962246503969,0.09110652180200818,-0.08020295178492394,-0.17435534290699956,0.019557669908860355,0.008956795806642244,0.03250920947397034,0.14300736868314953,0.08746638667030923,-0.0001485710210811838,0.027052496767464195
,-0.08776065634697079,-0.16896075996053042,0.11405609442503388,-0.04750374620241175,0.24932521015107192,-0.03062195285966544,-0.3262042912585028,-0.14224290376001816,-0.10087915635927806,0.09683639122528895,0.14833930892530697,0.0017593187146623284,-0.2941364990875584,0.017065752300139108
,-0.025823006360487337,0.2635319912160986,0.05118390378257537,-0.0506154891502165,0.3003335597672681,0.09725861580217587,-0.2388904226751065,-0.16002191420068088,-0.04294245056955121,0.18251327275288776,0.1153138174450359,0.031907771768660845,-0.2889490784388449,0.05907181953556027
,-0.025235076717070596,0.29821240526164217,0.0737847027439079,-0.16587677072231838,0.053066145483193196,0.02057635452774985,-0.12572433076383543,0.01795882340195226,-0.16621944680402237,0.21129417363061995,0.009646603320493182,0.07081931922348157,-0.2124927722841513,0.14279265533242314
,0.16234625304267886,-0.08386426337830026,0.1659359821616705,-0.044327759150270624,0.023841736524841593,0.022673446387540208,-0.11774363170672433,0.2048496454460508,-0.09089305765926917,0.06248083540911211,-0.03692285815819854,0.08332989077959965,0.008436935711521975,0.20241422135392284
,0.22952343878288484,-0.037384487081676514,-0.08133677280995279,0.006576978741659608,0.2659725590407379,0.07859902462699557,-0.06608710807515808,0.07897037820556381,-0.15233833615622785,0.013003541450964762,0.15126980873247245,0.1211035945151313,0.02566288590323408,0.16664296558783698
,0.18098607598570415,0.17210135897534534,-0.04786611228802035,0.10638717677343197,0.42189781123464276,0.06278979099357743,0.0062374921442386625,0.14277032560250874,-0.11446190881448204,0.21245762960425138,-0.0427482136275042,0.17553890764880442,-0.16907837160393474,0.07223050216022549
,0.24360750765765252,-0.12953177292491766,0.13356279579570418,0.06869936067145403,0.2905004245534076,-0.05928258055109702,-0.05900374439002313,0.016776492327700246,-0.07543937938364835,0.24615721080636957,-0.02889776419311429,0.11220324062367115,-0.12751757028086724,0.13173127589017297
,0.2964137757498449,-0.24892430059485662,0.14312866161234777,-0.07876188488866498,0.4172095688195373,0.01808514473460165,0.09175747424087075,-0.0511211611182271,-0.11821420716969233,0.21538303846509702,0.022588579851603483,0.13590223803461984,0.19098876221556355,0.19822500221103428
,0.06586538761066524,-0.2540120926375045,0.14418078454626101,-0.02648830988591225,0.3657881177443305,0.2044644483548786,-0.03463928899567191,-0.08671696843373058,-0.22310398927442357,0.2956906640416645,0.1520737654369553,0.09513306635243501,0.19059838048578345,-0.09538287286591668
,0.03963683153609926,-0.1541625045588768,0.05460844528551087,0.04207167036253535,0.2812843265297756,0.14025535941111864,-0.07050214180354927,-0.005764829654186877,-0.2674178455113434,0.22117530669614813,-0.14684504341653787,-0.006363215082602539,-0.1072314424318459,-0.0812120863049107
,-0.09829353560431806,0.12050445951502853,-0.06782680740856724,0.004689667967006221,0.2813672899846811,0.2091807794581611,0.10209462882674102,0.25083605765102157,-0.09002906126141996,0.0919122606535292,-0.18418309691561002,0.10404461933829048,-0.07594055875281298,0.02159046102827713
,-0.11615443353527245,0.10490402446351231,-0.08546286419297547,0.033709971779542894,0.04084151818865354,0.36552106810142326,0.02013666304897273,0.4450613384466778,-0.08546284327636898,0.04425423744060795,-0.18720877681458742,0.2182992143048804,0.027146112452132682,-0.13634051866632052
,0.076994663303339,0.21321197327325025,0.05524094402585831,0.024709614418026476,0.03676917981626931,0.18049819258167515,0.025833403790859737,0.3843981421263928,-0.05820663845373129,-0.07599966133562648,0.08680425905299229,0.02362009488891662,0.2505443005242767,-0.2217076418953084
,0.020628813010808218,0.22076697504386936,0.12529251737684638,0.24184222698130645,0.012915743372234558,0.054755342494570564,0.094984282930647,0.13857444813502123,0.11040919211526484,-0.04124873530505589,0.040263543105406994,0.04444488491084398,0.18274468332065233,-0.07857969212874993
,-0.0784865814834085,0.49416627459389445,0.11573716722656982,0.12400681665010099,-0.11308498661653589,-0.1354546073472771,-0.05351128824465729,0.1868254069676132,0.032615580225122766,0.060935165444235245,0.08225467133260275,0.07976350057999175,-0.04979834780973658,0.08339507089976331
,0.09498243464731118,0.14822294892446775,0.023841140268776574,0.12503386681397263,0.016371164208560995,-0.20533256636596953,-0.014783092418401346,0.16267087021622748,0.20639177778941672,0.1403423965176548,0.38038873057110784,0.01726649463995739,0.053698148698278936,0.07907249935236135
,0.11396632656453716,-0.032305163341148045,-0.05012880067502654,-0.023638376681209116,-0.12100979288697458,0.02677612078372306,-0.009595383024567973,0.03953459019688172,0.24859550295875432,0.11915610568168458,0.1807807429050089,-0.1164873098938738,0.023763941895941734,-0.03496805560995578
,0.023828830781108513,0.2841096330458178,-0.12733577319187386,-0.23267125525995386,-0.1720652647650174,-0.02085797231340488,0.10258108431687132,-0.024959545906533372,0.023759317720192304,-0.13695022478138744,-0.08766211665818276,-0.05498826425818846,0.0005755566886910629,0.039428668499999514
,0.040484461692373824,0.41874974779102225,-0.021271255440361157,-0.04180620568518132,0.009830261432839896,-0.007707492426937221,-0.024804441143290987,0.06325900855227558,0.029185912114539695,-0.00745794205704752,-0.013308839297626102,0.1174494765087997,0.28043115174607475,0.2234085773412473
,0.15553378737165965,0.20151888996320322,0.1225943334792602,0.07976311781613322,0.04278138077266179,0.060484187638445513,-0.04886029587947733,0.06150068245144,-0.18674032655302247,0.10919259650759273,0.011885802229373885,0.03755209824707316,0.20276505147686402,0.09957220513315969
,0.219751337661147,0.4109176193817829,0.07306275572615843,0.10530441541065023,0.1749752653975181,0.07484220976670303,-0.008935204915481162,-0.12129523593416983,-0.11992116207487959,0.016292283241224947,0.16636469219513902,-0.04617149464533147,0.1328613708422681,-0.10686317021525224
,-0.04248130916167261,0.4113699751230849,0.0586162857391598,-0.09514017040006058,0.1302864462715011,0.20609422762459986,-0.16292570798842546,-0.2071574516894198,-0.04499843491870751,-0.013405863287899248,-0.03592363034552346,-0.05930768339490224,0.007054972137748504,-0.13852810248008926
,-0.04826542691815913,0.41345799385217236,0.06516088850482299,-0.1297470654579147,0.22771076118306993,0.2406119272646114,-0.16173942999108967,-0.0007716509627387121,0.0016211961447052654,0.2035488809417343,0.05551342308561903,0.06522523949810831,-0.03984665969485344,-0.018930028870112848
,-0.0011257523313910683,0.60367193543225,0.1132861218346663,0.009419940622085293,0.18067774205774897,0.25664121459447775,0.06958867082965181,0.3003523072197524,0.14230661187175744,0.23069795524109754,0.3149795637254584,0.08077814756101352,-0.060568343947838964,0.04148465510968622
,0.2437858175593724,0.42246282413865055,0.3454830595976431,-0.06106321126863798,0.17731136700802186,0.10765143301012484,0.23007611701976893,0.10380616062095187,-0.003973585204505373,0.18169049171434581,0.16508297416758455,0.07044013668414434,-0.03498881862420904,0.13884508940327814
,0.043741923587902055,-0.2884007520453811,0.28269408833761955,-0.18221989521043933,0.21635794089844904,-0.01955756821346342,0.054630645603082104,-0.013119729209669006,-0.09095234445842426,0.06325619724715505,0.10341363744172104,0.03471871081123146,-0.5070721807126685,0.26554429454819567
,-0.11577250599394491,-0.14614452428755267,0.20389688130839953,-0.12613243174894498,0.07870548051406216,-0.11379840753677309,-0.04917115892613225,0.28562881129823997,-0.12586878589072448,-0.01706396984141394,-0.018104845026477835,0.03691065869626436,-0.4982950680575196,0.038235104515300315
,-0.1143621485759039,-0.32421134957155856,0.11126906573683472,-0.047479682812900645,-0.0739054824440438,-0.016260129670926392,0.1033746819968844,-0.047624163371085194,-0.22342775846494442,0.09208380078446882,-0.08983877133549446,-0.02352649238482692,-0.3745083644159552,-0.06967390511784488
,-0.10061310829467715,-0.5914615776927299,-0.05071269286762743,0.10888456168178826,-0.006309963548149358,-0.06419215672193417,-0.042551831666198005,-0.24354625540783303,-0.06301044942160121,0.0210216490876793,0.2449587780426304,-0.04108745955758813,-0.3646024334820653,0.049408653429079984
,-0.012260569820543629,0.005000304549131611,-0.03656231581534469,0.21794754738663402,0.017436992055006803,-0.2942930368705761,-0.2743603347437646,-0.2120902254551111,0.12150298073059254,0.1496241457550611,0.24523583126381793,-0.09516875392596871,-0.04955019178836038,-0.000303306986295911
,-0.14124486268514405,0.32990521097040254,-0.09077017780169812,-0.03569653725964837,0.10159777829119716,-0.2833955783611982,-0.1582390620650806,-0.09363405760545143,0.0065603066961096666,0.04095386978113753,0.22881804067924577,0.14070038801050777,-0.40186320667460723,0.03906157031782254
,-0.18839078790003236,0.02585234158698153,-0.026658824092351353,-0.23318959317138502,0.014280438757513123,-0.07307407691693013,0.14974770156521539,-0.0673338028718902,-0.14890634021979024,0.13940956129414275,0.11331526201906883,0.19973598663458997,-0.47068422176622116,-0.11878667845495997
,-0.07289278838559694,0.4161798364911158,-0.017166988390646204,-0.047473569383378655,-0.13498395676952435,-0.1215949164755313,0.08997846287612365,-0.02918482580244021,-0.13473603714721621,-0.0021958802049627225,0.19034185798596243,0.04919121090897753,-0.3258257253000379,-0.00043248156607798003
,0.08810351895168568,0.2169414957934725,-0.11354969328733187,-0.07776107074447404,0.0494788722104271,0.014304397277570803,0.05844298346043589,0.24997127851094322,0.14647272352990978,-0.17305695953592928,-0.03908500402428412,-0.0561773193034407,-0.5401492601177407,-0.09044959850538181
,-0.01250123611440866,0.3514027048767809,-0.03408601353649883,-0.02178326780190437,0.041831553317255035,-0.09648984750102245,0.016407394638431685,0.152783055974411,0.12855990665310224,0.013487259412354034,0.183952003655688,0.05632652804611357,-0.19195584544375754,-0.08457127878881823
,0.04396875477722194,0.18394139946070384,0.1353815014712926,0.00924366715918018,0.20077324519697823,-0.11928763253881285,0.02666665529665048,-0.016074316334594788,0.15149331560546683,0.2016488267884952,0.3614071734837447,0.037584699688214464,-0.1412308602227958,-0.19077126637160208
,0.04924836684894156,0.07550400960785011,0.024707034828801436,-0.22339131587956404,0.23052080805453196,-0.1403874888392334,-0.025903769732120212,0.13566990808096763,0.06096908329738779,-0.09203498293262244,0.2458573059484302,-0.12352656963122627,-0.23883480644359928,-0.30689224303804685
,-0.07755474070249713,-0.19740657938055914,-0.0680674535918924,-0.11205802486081434,0.19196157586375226,-0.1658039753855978,0.12347465307899033,0.2732763227466344,0.0868326001892725,-0.030798821624348813,0.07669431035847095,-0.17053124431827074,-0.09997507248712525,-0.19982463283375204
,-0.041390316917747305,0.13117850343260226,0.07366251781474138,0.10697949537293647,0.026187091792856595,-0.14230830118219678,0.13830000181238636,0.005757141146083132,-0.014763638751218142,0.0439886296899255,-0.23654887224484245,-0.10376616692650632,-0.07372429167656286,-0.0666674959132545
,-0.12329366743962125,0.35693760046388456,0.07531036133769813,0.0865361227842818,0.14809988635882396,0.12994111735250455,0.015208031095807747,-0.07829883776457537,-0.045288283580454836,0.16440646310121243,-0.12377260426615252,-0.1609506018803743,-0.20795791725522972,0.008980040832542691
,0.004667716754284849,-0.033407210000266085,-0.03806511034276801,0.06589052345709137,0.3138043228322393,-0.1511571725843917,-0.020502786393435793,0.10182016533642735,-0.0809830872283359,0.39028440289914595,0.0154729346822007,-0.05890487197110387,0.06453577537144958,-0.12962726554986098
,0.18454551989435322,-0.2580371147788642,-0.045237423547017215,0.18265879518186995,0.17711653112533024,-0.11628068895325162,-0.14619279916945438,0.3225051388791981,-0.10215260278097905,0.28283592894000936,-0.03656454617698647,0.1810203986044036,-0.21821750104523066,-0.07579323030350184
,0.307495461656825,-0.30456351836993273,-0.08703919984301474,0.05875286606883178,0.06333755225031598,-0.14779990640632223,-0.1500526533853212,0.22292682276356895,-0.012802009018156793,0.11038066718027185,0.011584475517181576,-0.028892672604916948,-0.36152254333247813,-0.014738346569325312
D1,0.11414901200512263,0.1280401381161707,-0.10157091165426811,-0.008998526904027112,0.060330448954472024,-0.08132700639693251,0.23427934369851885,0.18139228183857511,0.055274419744395384,0.14454928813002044,0.11162183395903935,-0.005788608558196446,-0.223782802064844,0.012871788131429291
,0.12923055153332796,0.11514994997662033,-0.029822098995027045,-0.006408064591338575,0.08667691026104286,-0.07377849494645548,0.11194584859741784,0.23730783488924906,0.14284631748749704,0.16714323726549857,0.05705689200241784,-0.06659863892101177,0.004195241669767104,0.121717016984846
,0.1771394831971198,-0.25458790257159336,0.29949601621788924,-0.07997269613288334,-0.06818910825862494,-0.048632480032534856,-0.15153945134270297,0.39754010760337805,-0.06765976719082466,0.07601103023728714,0.019025267417876506,-0.010687726341657289,-0.2693240684305595,0.08183872261037449
,-0.0477865411244636,-0.4329337837171946,0.18772498588708195,-0.08580779837808634,0.12318429821770699,-0.2859586732612407,-0.32136036839854115,0.21098074493617736,-0.04822455908579826,0.023259589655262085,-0.14482708824104304,0.058008413114568315,-0.4706751637748209,0.06587046840669909
,-0.0628923385534324,-0.013940207951329902,-0.07808413118401758,0.03798619184788482,-0.10675265501333885,-0.13088846524631817,-0.1964576927586743,0.19110758079469772,0.23837343738386646,0.19025014957638903,-0.07451549131063195,0.047647956878711525,-0.43512012759604685,0.00075575412597012
,-0.025145937557251773,0.05571094384371009,-0.005627360235120388,-0.0627090505318891,-0.04445384930618741,0.19198576518369012,0.1388643003944861,0.4155164913353048,0.15394926099880132,0.12873077297908384,0.06501664868071863,0.048574803175685397,-0.08377418352941154,-0.07929410831569635
,-0.18920435253358298,-0.0691693844808376,0.2028188172006229,-0.16036689750936442,-0.08662975887851386,-0.10303652139594609,0.04540113940123122,0.29209467633799224,-0.08422599709715398,-0.18005286470744034,0.008612919014548555,0.11532976782351491,0.051621165200562834,-0.040662374851595705
,0.04140446652873343,-0.05971633670455301,0.09289246304062407,-0.13628535611663223,0.11437836413296165,-0.07714812401235045,0.006820159546073173,0.11885100632981548,-0.15604295764185772,-0.22547491207318193,0.0592696435147211,0.06116686249921565,-0.2905140249925545,0.023411787525437006
,0.014758117128327626,0.08360971156913981,0.005091549116716134,-0.11273635898767075,0.11066131249363144,-0.13014433388195237,-0.10241097216039503,-0.058800887870929595,-0.009825960596287132,-0.26072477315420756,0.1209555790079748,0.07202404924840432,-0.39855164381523556,0.039006588373395885
,-0.07918847342634923,0.2876465071187178,0.08841108796931436,-0.10352853634783052,0.01493350805852683,-0.31454876224139583,-0.20059102966392905,-0.14942153893813742,0.09511165211345275,-0.19034325035510513,0.2629279226341455,0.17462387353374514,-0.6270733544508256,-0.0695145614936233
,-0.1361441851435053,-0.19236510707883447,0.05167069586982668,0.05581970374317012,0.007349714929626783,-0.12544158805167852,-0.19942756398679745,-0.22293411879634184,-0.157520190986166,0.10015504173050006,0.013458480546566726,0.15087230872609478,-0.44313053538754654,-0.04641147520304226
,-0.12366933148335761,-0.20683835277915216,0.04116107511087107,-0.09698671271869692,-0.060766570219922184,-0.06685415674323346,-0.18486264638305583,-0.3655967044523808,-0.1254820220201522,-0.19750854310919547,-0.056467431660931974,0.055707319396296244,-0.042951401839750235,0.19908964247109678
,-0.2370432339063584,-0.42955197692192393,0.10944790670732468,-0.16287250848139062,-0.017234892358820815,-0.12306240461409464,0.013791527318913968,0.0014170245771703209,-0.07123019131587979,-0.18574798696548508,-0.1662238218670994,0.016369661353019805,0.06100055545612824,0.20256002027416595
,-0.09222138607336543,-0.3246516547147613,0.14381643813430064,0.008672175085743286,-0.11684388258033655,0.008666266952759709,0.16324087526496756,-0.1013106803205933,0.06457734614090811,-0.13331725347739176,-0.12330114215926323,0.08189130523627666,-0.18142536381673274,0.22593457228674763
,0.06267150925337757,0.009424611577058262,0.01719501956677218,0.06384134123079163,-0.03198923962556057,-0.010740252719301058,-0.012512931258539469,0.003081614055025502,-0.0151642118099333,0.031220518561149366,-0.0949403474480013,0.13078584481276959,-0.3021756070423175,0.18857849724571046
,0.09768938680828336,-0.2660328745087131,-0.06578516581350138,0.05311794673476226,0.20428658616088766,0.02575030689430496,-0.10595516493335731,-0.014912726809649203,-0.1893202966508416,0.09661271814745785,-0.10446016802841968,0.14870664318583646,-0.11644800588365327,0.06469253674247562
,0.14623137746478584,-0.21095580209085774,0.027069127090862437,0.05855603051010167,0.2745873891817423,0.06503905546870174,-0.22579381357074027,0.10040353699872144,-0.10505324228027361,0.027021156888919567,-0.09422100451107537,-0.023432574642378978,0.058054874365645014,0.006245746810990346
