event,eeg.af3,eeg.f7,eeg.f3,eeg.fc5,eeg.t7,eeg.p7,eeg.o1,eeg.o2,eeg.p8,eeg.t8,eeg.fc6,eeg.f4,eeg.f8,eeg.af4
,-1.1868673276337829,4.0730290885610785,-0.36307929306619235,-1.3215727712848762,-0.3037900683757625,-0.2666539945855704,-0.06562545166718622,-0.388846145855858,-0.7139050491916358,-0.15052330466615735,-0.8373644197370428,-0.5831656029289766,-0.2620000184758449,-1.054285601865663
,-0.7213480003757099,7.262125569388117,-0.33404795500445944,-1.2758486757794198,-0.004665595083661988,0.4347784869121468,0.06790787047529565,0.047452730562799576,-0.29271154167286045,0.33914874307930054,-1.4311182358204233,-0.4268625371423153,0.8500541894578253,-0.2593995210245466
,-0.42903370583542794,9.303289817806325,0.6097858336645331,-1.421864426262978,-0.4383613550553941,0.80422731371203,0.38724601869544667,0.2506151410093624,0.15285153412019314,-0.11702465185774727,-1.6724186466949627,-0.029020020417582473,1.8007703697468205,0.4309734274972213
,-0.15680216101415928,9.408588548075631,-0.08616842935783071,-1.7327337280401218,-1.1328370743930296,0.006850591893422222,0.5834761476837604,-0.20945223217748996,0.19856273226049326,-0.38810130179225605,-0.39330700456862,0.2142213604890428,2.941584772704046,0.3268724157256887
,-1.0659171999421506,7.5275492134566795,-0.3060389157335309,-0.9845633279640794,-1.2304910579095418,-0.16397066922319237,-0.07162854457706498,-1.1652461837880996,-0.6937717146562066,-0.5660033687375782,0.01641921432169064,0.10587194347881046,1.7784672286514045,-0.7887910831050485
,-0.8921968057367076,5.07937161687551,0.21789431404681953,0.41768953902294265,-0.9661591874362643,-0.732983849198287,-0.6954090933972857,-0.9598081554252909,-0.2867703296666208,0.0883890288224451,0.5301819286726249,-0.2714085811004198,1.3804187143307425,-1.0755486198480353
,-0.3063405179265105,6.276979615710778,0.04418187891710311,-0.5273347026150108,-0.4287189094917689,-0.34480104294215447,0.07698780287517752,-0.11680174136450466,-0.3065277165999652,0.5782416300438501,1.0305525865059975,-0.2953185537365225,1.738324404300625,-0.8425060432900464
,0.10633996499208313,3.1634866186665573,0.5508413161593327,-0.5435620990395773,-0.5590460350039324,0.17389425053748928,0.6480828196976358,1.0117964327464877,-0.1120741520614032,0.4576314529551695,0.7482179111063625,-0.3236431926758116,1.5315549421023822,-0.35845899173523527
,0.591753529654509,0.191125795452818,0.40644127500473237,-0.22075265128623817,-0.21557683973866112,0.6242688093688709,-0.12066496564300014,1.3906770807632884,0.408522730337823,0.41125957021377985,1.9662155362160483,-0.1824332940389485,-1.191856723222709,1.2524137983732055
,0.24061884560661959,-2.3559363450547433,0.23791635781984788,-0.6120571986746431,-0.30588639027783543,1.536378088656551,0.11723785219888498,0.2196505027089829,-0.22975044256633467,0.6233150100312198,1.464606244335541,-0.10631866637294515,-2.140078624818955,0.594801118937776
,-0.22861177050592482,-2.620601742820352,0.8211879044707902,0.0637258364962308,-0.04896979349840924,1.2028376578748072,0.7719253877193533,-0.20232338598369715,-0.29773969326274324,0.13521975219305774,-1.376709688979935,0.17682157255738604,-0.16638559194038458,0.05260120622139967
,-0.073199243379831,-1.6861271879269046,0.5712463647817482,0.7207575366008481,0.12749019433068465,0.694729435448383,-0.35055529772776994,-0.15807578690995489,-0.11952280154114354,-0.09924810169955406,-1.3026587790363338,0.10312659177441501,-0.5299237770421221,0.39910387449302587
,-0.059441195418658416,-0.8562578449133763,0.24527966118930578,0.4161995352872619,0.18685133741895335,-0.34893584841712244,-0.4090347035276863,0.1900448738339801,-0.49877840988728545,-0.31912911897438395,0.23704915874215754,0.14890067006167304,-0.537735775984119,0.17964966956240616
,0.07961842386668513,-4.451706637178354,0.2984508618421808,0.5964195331208401,0.32417075934344486,-0.5105926906826083,-0.05971374375623276,0.5329279702140023,-0.1879458623551793,0.2411293004268584,1.4855976980345804,0.08443684534705288,-0.7956778135233529,0.11620558556308526
,0.08478285420573646,-2.16132013889723,0.7536350424465523,0.49786411580856954,-0.11036400208002707,-0.008844887417317034,-0.15832408809813964,0.2828657782329348,0.17278300377610256,0.18863187040535564,1.5523398632140797,-0.30532135676803024,-2.9622903705086205,-0.3121519857478094
,-0.018785616347177014,-0.687601504831629,1.2255032866137878,0.566661139662252,0.05271781285949539,0.01710074657762209,0.16688122899323432,0.4243508585001819,0.03828353484054385,-0.1378580774723309,2.2690340610702386,0.00019672045944765603,-2.019984476586007,-0.12234981592229575
,0.18882528819387376,0.6587387861862156,0.42722155924687005,0.6458332025788207,0.41959423340959845,-0.3762206533555645,-0.11343661546186853,0.3824872981620384,0.1675373052197614,0.1292986280957617,1.6091496652777164,0.0560898490439876,-1.9753348849202872,0.4432678808879366
,0.49335211919935745,-1.5483358543989476,-0.09192707776804741,-0.39726290821029203,-0.11696877241816316,0.166966787044908,0.5544898360859297,-0.12827846135615903,-0.2750426046128101,-0.46168342217659164,-0.5657468787136549,0.3349151806232919,-0.7748197134795973,0.2624405558799891
,0.6423833811578284,-2.6748683336634813,0.15455985051028318,-0.5373832014797614,-0.3349485132478589,0.26144420323683637,-0.06887636463247834,0.13956558832879454,0.24459806148782967,-0.24994550852945044,-0.5688438729667823,0.299060057021459,0.2516504685628584,0.06982777253257909
,0.39362531654104527,0.6956173231467665,-0.07628598361074201,-0.2616135488483468,-0.7566262953368486,-0.23829273531296707,0.20352999227106297,-0.16181301711048227,0.07282066738560136,0.5506070822667088,-0.5041022609643543,-0.1513106498975463,-0.13348190130272133,0.11423928723927863
,-0.06657178559952655,-2.226016865223049,0.1785925521247721,0.5671318471113995,-0.7701611410415793,0.6591654837099602,-0.3011617757754527,-1.0053616038208466,-0.43559990062321136,0.5070000164039036,-1.6495817112935842,0.012647141698936633,-1.4014037236293286,0.1909444848659592
,-0.18551477550989098,-4.894682222508301,0.4886675879856141,0.2683436089610718,-0.6714702614292616,0.8414360899327858,-0.0019382373255869268,-0.8867549823212374,-0.3667832166611383,0.2207784342714377,0.30535682299226674,0.46033600117367907,-3.0765083355884157,0.587590085673419
,-0.20231148371483745,-4.9802024328917485,0.19525761739994038,0.46333607182818926,-0.4514363244660353,-0.034909506767449444,0.9839044276694562,0.17238700270346363,-0.27184091019163564,0.6429992301997518,0.0658657120827781,0.05505621548647728,-0.5464046680123829,0.6682440401662714
,-0.901394179248201,8.55193665429007,-0.06885357305002691,-0.45781051581759685,-0.6051880008675014,-0.13643224119336647,0.5978684578267888,0.37507550675572227,-0.38962802017862425,0.32189791461010886,-0.5991066776496644,0.14724105040943933,0.6273464101595824,0.8630722708237115
,-0.8216382085322949,12.022339957313052,-0.08571949696047937,-1.6785420591421991,0.018054454533677055,-0.10916789860107945,-0.07896692851167214,-0.23994408932733288,0.18099511708841107,0.2567276889584029,0.3514026385984266,-0.14793885540927718,1.217169846285261,-0.5359957802537729
,-0.9440771027031694,8.15729658168363,-0.2658122291414356,-1.336086543334482,0.22129376831867795,0.09491614355231308,0.02749896826054846,-1.171801111689952,0.5230239485938983,0.5443682649923265,1.3950915417276153,-0.40551572207997866,1.298532757020048,-0.9299581288275057
,-0.4575234636243646,0.7773674418604692,-0.03037164363877,-0.7077798957474752,-0.2127812793721667,0.5845548585537597,0.5548787942742405,-0.6842322801930418,0.30031109641220755,0.28384154528278316,0.34533881609637895,-0.2679239644798054,0.1132385290225746,0.06877356923784084
,-0.25558860681695605,0.23014306730422743,0.1552767908414061,-0.5737914514799696,0.044010313050887505,0.06468916356563693,0.23272655934450562,0.45657701058005423,-0.32045793648323306,-0.01825085510003212,0.819029183304577,0.23894394776618136,1.3145036682392404,1.0109571217777347
,0.14121033524818616,2.8531624401873117,0.2095473321815981,-0.7116652032711104,0.1530461304655145,0.07108867925233961,-0.09171923701268107,0.8519060213782332,-0.4489031010330572,-0.5195849130922859,-0.5513321860665075,0.0814841878940347,2.4132895779083303,0.780831237273405
,0.24620523434315567,3.332034744229897,0.5388257396043777,-0.705192926769782,-0.8155697335263982,-0.9999204404987836,-0.6645870171478667,0.45417996452396037,-0.9511240830710966,-0.9534677311967478,-0.5563530606272661,0.20240559278436562,3.138523180146236,0.41558410263600265
,0.04273774628431704,3.0149988847809794,0.8632373238887303,-0.34008459817494097,-0.6858582362805798,-0.9068218992225088,-0.11676973761415743,-0.14301358962766317,-0.7504086577591432,-0.2903131516167329,1.9333512680073526,0.4982507118058218,3.4294522822880054,0.31514807087059954
,0.24861192798453124,0.9069593022828275,0.48016337778208695,-0.4194771764759219,-0.22515343467453722,-0.22103647560226636,0.5712412357186831,-0.4287911065004528,-0.5690526457068956,0.20126491163965518,-0.04754540329551036,0.7507202368773503,1.8497987343932327,0.5588767250824067
,-0.11882446662405387,0.09442890726037145,0.4771802987701537,0.15585413465206444,0.020876833657069226,-0.13719942328225543,0.19567611928579065,-0.31856967269110825,-0.14516242667399368,-0.1607611869029567,-1.5473653613706035,0.7849715560676779,2.6271985353675196,0.27106335240206647
,0.13989482553352897,0.4084293011124499,0.6813946120356908,-0.13738751013833267,0.05494345296391915,0.37098314255126946,0.3703659423777527,0.6457114689564939,-0.49008458975272334,-0.4339821058314286,0.02642627318655153,0.3548342735617102,0.3135600919957746,-0.08417141270742011
,-0.10090839892923723,3.6402506956801113,0.5619017357141353,-0.7456207884578658,0.2760766156346818,0.6783118095531468,0.9188149837283163,0.32783875795995177,-0.5301732570259291,-0.4077622025233676,0.23534772004373522,-0.06540877907423646,0.17030614767681287,0.22085674297740165
,-0.6180299012683822,8.604803943769069,0.07737696934714647,-1.2786319821310856,-0.7212200472580179,-0.0749214789538977,0.21415336767829876,-0.43188522835169374,0.12402183464999934,-0.6378683933213588,-1.12297498446701,-0.11579793328074772,1.2423965145619795,0.5499358692784253
,-1.0918188972387368,10.174611298282311,0.09422293274531934,-1.1462982727811681,-0.9111830819383929,-0.21527686119078773,-0.24993962252127172,-0.6991807256614819,-0.030914192965932005,-0.5294241085832152,-1.3822328907672305,0.3698612917447429,-0.4229822817261947,0.47091860849185335
,-0.530906017049266,6.073566833154934,0.35319800700549203,-0.044895981929094435,-0.35938260170961916,-0.0774799168643403,-0.0059308500027708275,-0.841423879481532,0.11898216935041339,0.3499517525817978,-0.5661707404126399,0.47672126062574843,-0.9757900008018319,0.4669269605822267
,0.6850822909404957,-1.2659349159931237,-0.023076255418262213,0.437892590150791,0.20047430990750065,0.7208271457304729,0.197224023053118,-0.3514852649355878,0.1157553670504132,0.42990679941696613,0.1425298347612786,0.2562081398170773,0.3340625047935791,1.204460208366865
,0.9181046844283867,0.31907461223044825,0.10360400560355588,0.5089512640555705,-0.03290055166561062,0.3295315398121089,-0.3718937991680944,-0.48159159517806155,0.1799245106524281,0.19377244147672812,0.7397113875874879,0.32810774461302733,-0.8833365151999029,0.46152521218907977
,1.0524034740540966,-0.875516685875854,0.31765418399208784,0.31055597331388946,0.04413926455959676,0.5463967942221759,-0.22419877706580965,-0.4157942331914271,0.2824989476237957,0.7735692609785859,0.39642410434457187,0.1880579383007414,-1.0201040691892052,0.08872698157790494
,0.26229992374300104,-1.0535906634312993,0.42710900412007174,0.15628894123190018,0.41911394651259104,-0.1890706336348235,-0.2434759735474503,0.9150196777942526,0.5970176481216384,0.5562828744997836,0.5067241932533003,-0.18161340075276367,0.37460950964366424,0.29886889530178357
,-0.8881329504470237,0.46188330662795946,-0.026107161693426178,-0.1278678745128496,-0.307556605122371,-0.34789350183864876,0.40066858265622357,0.48666767852891796,0.6053062826290913,0.06283244807093213,0.6518702623573196,-0.2664649864203259,0.4050464929409905,-0.2675127225813185
,-0.7190739278293252,-4.621394258562171,-0.044974116134905616,-0.2200011513010166,-0.5386371270844135,0.5367226427988026,0.3844637982839376,0.04818273640218865,-0.5442627877919157,-0.4373762141239894,1.6208662562103546,-0.14326224227753728,0.004938735937348355,0.12425865249450294
,-0.07801598274833674,-0.4960769337931606,-0.15465598750725632,-0.32006824433828024,-0.22770551803296202,0.34120515456711836,0.6282356891703151,0.6019010219321522,-0.2799253004058949,-0.28536305988120075,2.16709789369165,-0.32300794424207574,0.8731061106537147,0.08851552134335032
,-0.07899461409213332,-0.4772875041296434,0.018923536277187274,0.29224006075329534,0.031958972040493194,-0.10357835398559648,0.03316270361842237,0.14750509057295377,-0.011683595218938355,0.19056116303473383,0.14309012058749684,0.01470704163357439,0.49178730099849216,-0.3578999556718327
,-0.5100904465727882,0.2634945505020553,-0.3244503608866264,0.3001628093582788,0.36213567900870075,-0.38420314749927625,0.07413443713025276,-0.3907057281386193,-0.16289518338270997,0.06826639741760376,-1.1225403856514575,-0.013976482199412889,0.43582518639951245,-0.8717623796112485
,-0.6475998342772743,-0.525205882445656,-0.24486959451571616,-0.6159421637395546,0.27682573666562865,-0.3746970816307918,0.4092586249925178,-1.065526764114645,-0.3809693455588229,-0.3500704433926376,-1.4070467006613245,-0.2454105361578276,0.6867821465112619,-0.17121680894708396
,-0.7673083095024379,-0.05774949647014837,-0.25307759190582085,-1.3493252985042739,-0.39473666929410356,-0.33496164626887337,0.01704329220149042,-0.5060160017193872,-0.8701479135099944,-0.7203187805595987,-1.635666848136917,-0.27603228688851955,2.345110203006314,0.43785956843157653
,-0.3908665270838394,-0.3752626646107277,-0.3629549447363751,-0.7105492226531592,-0.5423953736893365,-0.3367715518408124,-0.015634644573728183,-0.6005514909086102,-0.8723575845407864,-0.6734218051225923,-0.7333864547284935,0.010525238085045255,2.4810522767905443,0.5556794650771724
,-0.48755184521530215,-2.4940227988128965,-0.20042369568508664,-0.22513630997440184,-0.7038344811441352,-0.195855599209242,0.005275750770927915,0.35198709173385356,-0.38733338839699116,-0.30455120035894706,-0.6173123633150336,-0.004055205915890508,0.2303493821158006,0.22420745292918717
,-0.17280401673251897,1.8386558415466934,0.06639640276133048,-0.5571973264214286,-0.36263655587892746,0.7160833784314468,0.5528398117287293,0.09322154165935782,-0.21357506325619444,0.28954625449227517,-1.0348509103427745,-0.05741149932006632,1.435110845187521,0.3202462619220544
,-0.015142006407731935,4.134605017691476,0.026186449610313172,-0.34865898658811334,-0.38868529890468734,1.0532135240805298,0.28480823109412046,-0.2469431990465037,-0.5191906214800927,-0.20761393793813368,0.13213555573691882,-0.045608893314593314,1.5157424931482884,0.9795349128239083
,-0.43515250341133876,3.1345031165742805,0.16886551398506064,-0.7245731554167351,-0.19784549435148052,-0.2600672497748537,-0.4185856697958426,-0.30980846276225965,-0.43479879144834077,-0.6106541044656377,-0.6805016789476123,-0.1083164407403107,0.17799855997200667,1.5771826468532353
,-0.3868832531783164,-0.9886298530563996,0.39682180178437426,-0.5441804868059532,-0.2634423080723634,-0.7691568959678182,-0.5923843681944835,0.13645620867162608,-0.04734245848823315,-0.7508050522632272,-1.112927906208704,0.12545885157738992,1.258045242066764,1.0952564543960737
,-0.4358232913406343,-1.2884319316278674,0.3240063085380498,-0.6297881328102253,-0.5612304600416542,-0.6016384519629389,-0.7463331052106267,0.9180311287823966,-0.6385658972142557,-0.7444461339024808,-1.001420928304578,-0.13034816664949345,1.3781471599157162,-0.06645351271853613
,-0.8145747447574576,-0.8079362570164957,0.29559799237576867,-0.7927886196506254,-0.681080307787716,-0.4768567205710006,-0.9477641309882147,0.5261489167491007,-0.47820377363749045,-0.8275742413480185,-1.4288524444068045,-0.06366672143334987,2.05599102481505,-0.4940526074504638
,-0.433908690464684,4.459236767654578,0.4630942173563263,-1.011574130452662,-1.1392192257692866,-0.12969896965789812,-1.0311110329677817,-0.03914053510365948,-0.35612253271292366,-0.22751081472123114,-1.4376579295434933,-0.2723660239590499,2.2054075974654466,-0.36926075334119907
,-0.7241549187155993,9.587430712278046,0.13958155838552005,-1.3292499555880637,-0.6463409370876532,0.11612461213546361,-0.39201141612612456,-0.466282496697506,-0.8093235729721473,-0.43558825578375426,-1.532388824635567,-0.11887844902150271,2.9106407964342247,-0.3678083711023344
,-0.7880150057522659,7.315679476412158,-0.1689944727860621,-0.6224073017379408,0.3928523452295678,-0.30468900907795915,-0.6483269932788217,-0.05817242836658267,-0.3386537773987662,-0.528046753837398,-0.9828675029635302,-0.10005440890443704,1.024901990242406,-0.5906497557852538
,-0.5153733306795506,1.280984172656248,-0.21937076722351473,0.19300872909542266,0.5502203589596536,-0.07966844052159831,-0.37332564956944786,0.33485914262987965,-0.020503342397690923,-0.48114242485154135,0.11132189991937982,-0.2676518744752305,0.5788114768386168,-0.33532957893954624
,0.1191319782170418,-1.924246541805179,0.15115718493519886,-0.37151040356841164,0.32518047263825467,0.6085453772748356,-0.25822222912155746,0.09718510475770206,0.16089188108067107,0.11969152356881713,-0.15867306223834177,-0.26236799403403993,3.9095269566268698,-0.17222976038771567
,-0.3069422335542957,-1.757732343055028,0.8871982344963631,-0.5710001485855802,0.06664723080260698,0.8560173689104476,-1.3178939991635583,0.2676079571486374,-0.0761093383653829,0.4872322449213093,0.03690103654750791,0.18778042019047725,3.093896299279766,-0.07471776844495426
,-0.6866804019206885,1.718210014478395,0.42002103637825844,-0.06060331691754081,-0.14243081333595495,0.239936771864348,-1.5762963774670153,1.1738294605785695,-0.014118710816959297,0.9898758085972228,-0.4008246692502787,0.37713423775354965,1.5343604788114995,-0.5864895235635318
,-0.25686072240646923,-0.2569782248473217,-0.003702795918343127,-0.48705290544970087,-0.141315619438955,-0.5296527525966862,-0.8852167600796069,0.945407430831475,0.2261756860950676,-0.221689109684644,-1.4957010834335114,0.3223412434208435,1.5770540773749615,-0.2746428739148598
,-0.8340879502085217,-3.3953168913660643,-0.08845122729854696,-1.1500774766408506,0.09418124702619152,-0.1049003029539971,0.00610265365661071,0.4628030088554507,0.3051851694815365,-0.639460489027752,-1.9530392833710721,0.023591435370053263,1.620305299057588,-0.0293522124624388
,-0.6194977192434876,-4.189497387316019,0.010083291389174447,-0.7240287417207425,-0.385943420031554,0.13417222416568858,0.3930045209173899,-0.1412186701136918,0.07613082904958965,-0.45325173017440074,-0.6171022783754255,0.1474839421513709,1.8670346239663687,-0.24154560702152406
,-0.019745588642298226,-0.35158878978848696,0.2820165128062658,-1.3413890551928591,-1.1079178499888696,-0.3024942067495567,0.6490386743152693,-0.7285314773676458,-0.818160212630685,-1.1385482655614543,-1.4833235281435957,0.31673112063424025,1.7244790020049223,-0.07374458853727546
,-0.13447243573959197,0.8967469959807778,0.4359328299099905,-1.385955966380685,-1.0309736996330128,-0.14190069827542684,-1.1002870648876044,-0.5305750125360412,-0.7548659610011724,-0.8917351876096776,-1.050908092349744,0.05561408190739108,1.0643760340209063,0.11164031315354815
,-0.036669799957310005,1.0862156413744095,0.48438555056872745,-0.5552792645247638,-0.6278787019602952,0.42131602064485113,-1.1481487955641674,0.6103492710625721,-0.48442421503452376,-0.37560031887393297,1.5036931585734177,0.17731320412558832,1.067727025875027,0.8033897662998107
,-0.7661549864530824,-1.9749710871861699,0.7166386497040867,0.2911267279975838,-0.0954544580556748,-0.5136318999361887,-0.04323844394752521,-0.14902729127341888,-0.5405718423979246,-0.46243238456259955,0.14261726288465157,-0.03273476112122793,-0.40040229565789626,0.3119613166229199
,-0.5021520177391432,3.338161904192003,0.5251456282742661,-0.30563235145591794,0.06648937516598495,-0.5591729255450907,0.12021390052666989,-0.8318153830581212,-0.49573701694230843,-0.0024716754829831144,-0.4644047022843713,0.012006326792755692,-2.0256828680143064,0.6045785745053015
,-0.5056206098121633,1.7933715761774294,0.45018541859058164,-1.0087463499192773,-0.6865008794162499,-0.39700019251774593,0.15747529649014258,-0.4327691975616335,-0.7750735444788818,-0.23654608899995253,0.5668884269750274,0.4603552564875126,-1.8623319893667474,0.48722280223163383
,-0.24834991288254907,-3.0021832024396855,0.2962884126792424,-1.2961673549394095,-0.6801543071752985,-0.20688548551772415,0.3131255344519092,-0.6257690849174528,-1.1390871136315723,-0.5328151767514384,1.6220237189090738,0.36925069740962974,-1.3085525333180872,-0.19092873192379878
,-0.25308240855692865,-2.361900289283655,0.772763911005238,-0.31733549715654347,-0.42863401076227503,0.9808774071401474,0.646592964660576,0.20453202030661,-0.6503810662360527,0.05460648972693144,2.6686401810658014,-0.07336362796129763,-0.417128049299787,0.20251052699889788
,-0.2935276463649845,-1.9126670336953684,0.3963506634698241,0.29087247375954733,-0.4797031829075709,0.801505672804281,0.4359771405561469,0.28481467518608033,-0.44745841165539396,0.25742231666096155,1.023639554629439,-0.0976284624068942,-1.792199059649542,0.7040099110016392
,-0.06985430376402507,-0.4214498867830339,0.29404283863453035,-0.2628054127092374,-0.019761918263267415,0.35111429135706507,0.5997978680021238,0.5983255884664637,-0.2696560146482084,0.14942262797970327,1.316990881251787,-0.08602615469621142,-1.9757980949970095,0.4927719010183616
,-0.660755299662018,1.007677579256719,0.3923048170795108,-0.7733911089732683,-0.5619928701575067,0.5635130214316555,0.8416945941843959,1.087318634262489,-0.43852776467088145,0.13003506142739396,0.10528973289463726,-0.004510651546368561,-2.9452119276386624,0.3546163887337398
,-0.8538985695981084,1.3023543420780181,0.1585133547213813,-0.871234860213881,-0.4013705669368864,0.7068918251788517,0.7189014154614601,-0.13441257875357115,-0.004704306533724825,0.2598501343094447,-0.9877706363568152,0.47395540055901625,-2.063836635812042,0.3256289673241891
,0.31373536471947067,-1.8303269328824487,-0.13016907864244057,0.11529311901410326,0.20587084976957887,0.328134695575501,0.05801082460590153,0.3469491012946257,0.12328469579395511,-0.15722391537519445,-0.09357102684336609,0.6001133397685088,-0.9363199452742137,1.0444246542293643
,0.32769536345045924,-3.908447246751651,0.05809657754095179,0.42717636271919796,-0.38821856172953134,0.1638996075044707,0.07346501581438859,0.5340158693503309,0.23998519414896494,-0.12018842065695773,0.6816104010625926,-0.2095105948869187,-0.9886001698286718,0.14861617280553674
,0.5864891211689528,0.46525799483013214,0.4387250240974886,-0.14021756698818852,-0.12245733347048049,0.5564295728651204,0.4580818449701669,0.590264387712327,0.173285036317426,-0.4861208970204199,1.478459007743012,-0.4254621035621794,-0.1848304949363095,-0.31758536851531605
,-0.13778105439925054,1.924049309716947,0.37317605362364603,-0.263081108986812,0.662912502231057,0.19946124596021733,0.44278366860116863,0.08700965023538682,0.6038602350176279,-0.3986052767783538,1.237553536158302,-0.08501752105703858,0.0369811769591221,0.17596873767077353
,-0.2598050411560047,0.6991050117509309,0.5449925415182278,-0.07774231102147589,0.2815130615723733,-0.6471547017138026,0.3478138644510845,-0.39633730809836276,0.13083616056561712,-0.15266386748560834,0.21699282184665358,0.1464820925097271,-0.5441154841452719,0.07197325948820482
,-0.20517051805650707,1.3073454975878613,0.39312803112653394,-0.04359264585339376,0.1437608678825442,-0.28583962134583984,0.225048614940394,-0.011117241388046905,0.002742935035238728,0.23791677650826365,-0.05143312029791486,0.19319694792084255,-0.9987539355138958,0.3654339516477911
,-0.4818800966760236,0.322519622694052,0.35395549040117036,0.5120238453479822,-0.12619119929141173,-0.1806207202070659,0.2637726473745937,-0.0026407247611262,-0.589157601082015,-0.00963364066763345,0.6653389758502302,0.15055360785209237,-2.9113056065239884,0.38318458330523014
,0.2684032274629807,-7.741156535466296,0.8090165709534386,0.6228088324249393,-0.35004821148663423,0.5914581784577776,-0.7961347472650541,-0.18352821652080592,-0.43646295893742215,-0.33069176810888307,0.014495591160483805,-0.2532385370274569,-1.8880185342507376,0.7881524850648249
,0.5461115936727913,-6.6962193854722525,0.6858179066347861,0.03976529894051256,-0.21486152861414212,0.11518784162447686,-0.798570669402319,0.06184642157391726,-0.6650274813367342,-0.6124024683199913,-0.13351207721918673,0.06359337723152828,-1.0365592906452548,0.28600844036026707
,0.7426407449777336,-2.672183734126769,1.1813006138804467,-0.7242690914481493,0.09591179172139679,-0.21161952878593138,0.08819965382763209,-0.5005625981410415,-0.858679003298931,-0.05983918108687311,-0.1775967174084336,0.15900488169388297,-0.33303228532308926,-0.10827309959723924
,0.7148917085450155,-2.702627260635412,0.7505537683181499,-0.7206260792568014,0.010076893609159842,-0.427771701045943,-0.21158021858831152,-0.7926654787770462,-0.49543656664940167,0.05451845530555849,0.931840111963197,-0.029723073373672176,0.1202790915955394,0.09392821984127163
,-0.05710719196184756,-3.8282800633306344,0.5561345196776718,-0.06198180713303228,0.13151324495045663,-0.9064016123529709,-0.37431759192304365,-0.7582066550483423,-0.2812126515594331,0.15718837079911607,1.2080604918469522,0.2705539361840117,-0.38243197783837585,0.4259563194417354
,-0.05022390838876076,1.6616122184711943,-0.3473254169858158,0.8666889708752812,0.5066707955778708,-0.7672914798815855,-0.22106200604753956,-0.3838420498285276,0.26782837861542746,-0.025741001175768965,0.6284078310595002,0.29187762653078125,1.190982134403051,0.6833523016022198
,-0.15005656848771545,6.726810227722087,-0.6296182271924118,0.1775246347090694,-0.10796530196965164,-0.34127396993077186,0.1523798593079195,-1.0366854485750256,-0.4463459593348858,-0.5707721372691434,-0.7049809952679329,-0.18980431383499544,2.0044742164197347,0.3673108569737904
,0.10014148361653091,3.464246131631211,0.17401738782254444,-0.1859949974845647,-0.07404551552831111,0.057245134835562504,-0.13905272150223097,-0.32674457892002634,0.09392351706300972,0.1548977743393844,0.04393798650304749,-0.13914885513054848,3.256019172239429,0.5084538502132988
,0.4995311270834278,0.27515155062654384,0.06317456628184032,-0.2678990528122566,0.3828962558311903,0.05751367084170159,0.11842791922547564,1.3450360541215172,0.40913800498473546,0.16527214338552423,0.9204082828513713,0.08592072898367395,1.366168297416923,1.1385022552399005
,-0.11759165543394884,2.702396737896283,-0.3085924087853296,0.18008891568257002,0.5245801521616649,0.3498824573464429,0.09564670856054378,0.3712573372309948,-0.17508816856783144,0.5870568554246189,0.8527765704493093,-0.03839943274150948,1.17370152635141,0.37981544536012724
,-0.5793629664589837,0.2980934138618946,0.05353385983120017,1.0701949471591803,-0.11427521390372797,0.6408329678595525,-0.32509341614163206,0.9087590187157041,-0.022625375396349758,0.34624622211078426,0.6740566959602542,-0.1006917638731375,1.3892680236675732,0.18059134253166703
,-0.5443697609472894,-3.676448904274508,0.8385534386052692,0.4449228050535096,-0.38504151966624955,0.16424489107021084,-0.13892824237887405,0.6100570818277815,-0.03709770816097259,-0.05754742823637399,-0.06174179485649045,-0.05143623948733575,1.4758688978215548,0.2116787913048253
,-0.2672737339413066,-1.294817431584999,0.4857947127354176,0.7257538504883982,-0.15232947545528505,0.11758644892413994,-0.22221814175533808,0.08789563369067556,0.07220671591932498,-0.5211091122990432,-0.6900411331406661,-0.05631005514281301,0.5041020636769761,-0.005275509108435997
,-0.4657623815621143,1.0032241799763475,0.2933172839503937,0.6872427594266253,0.11163835990737667,0.43166395674381325,0.4983787070156406,-0.10219292909780482,0.0007348563645627513,-0.32776687923509706,-0.3272101378488809,-0.15666835789937825,0.7929142160658342,-0.33657681734821604
,0.08959961019858621,0.8012538641738436,-0.04657315755065262,0.09853420131404203,0.12348287348681558,0.2725405257370905,0.5760921374056067,-0.06560164070202697,-0.08631528494264272,-0.5859288525175369,-0.22951506414736655,0.051812555800087624,0.05654556165855599,0.2478496237637157
,0.2796078782389549,0.3159898945489269,-0.10752249838465264,0.0898734918979268,0.0741679428913796,-0.17409287518431577,0.21185553578794092,-0.5458376126006488,0.12258186962836291,-0.21919868284246125,0.8175162731016489,0.016949475791330215,-1.5825618533100172,0.023164709121359664
,0.6353748586757425,1.4559217541157963,0.7473439905697029,0.6203911607325013,0.11058823842477765,0.207768392149127,1.0919524885568335,0.15514618061756488,-0.170927701382808,0.04546204624786161,1.0473044324489957,0.0032423772139283176,-0.5754768876856249,0.09630788333444082
,-0.2137753744964296,2.4350101587099693,1.3591743834427568,0.16174989325050987,-0.0523458993577174,0.8350858850598376,0.7585435440344427,0.593452228975287,-0.48224266474122823,-0.003617210526882038,-1.6304385799154757,0.2633450063651151,-0.4653045716615857,0.6393232809853746
,-0.25405040284367014,3.180625237918663,0.5213861650377234,0.22293583272633805,-0.2175799830654872,1.2830564740075363,0.9738019594004207,1.1032066788210853,0.05179327190451234,0.14632780727463024,-1.5187701955602044,0.44700826618724937,0.05318677214889836,1.5996234809485206
,0.2728959805201299,3.1194201241747037,0.17255956285169566,-0.2994751165944963,-0.07094073240044507,0.7450102170869195,0.5940673623624616,0.9889797530077289,0.023902974935280808,-0.4033028982985309,-0.9664069236073487,0.26524974479204894,0.5069057846826371,0.9797058821740617
,0.10703828250505816,0.6134540139874025,0.3822142874462662,-0.411445288215166,-0.5456636069415176,-0.14331219994526162,-0.32310653429399955,-0.08508499547613091,-0.7174685766201986,-0.3943186065305596,-0.7209695591091434,-0.024022432639049827,0.41899037859008537,0.4703283031832601
,0.0242161285171914,-2.618940082417665,0.6269680010563143,0.1165929144350312,-0.061466817879157164,-0.13160073946047515,-0.15964877516798398,0.38098556196711,-0.7388444217158107,-0.842904020332634,0.34505464054120644,0.14143387035514807,-0.5543668057582947,0.7219463798688646
,-0.03493645642853026,-2.952481373671622,1.0268172411457959,-0.6164206105164999,-0.2181259775385075,0.18172061640708775,0.01763841045415527,0.5968835087158243,-0.47173288774077465,-0.4566844911117594,0.38779187821266237,0.021983893864650918,0.5107584276325486,1.078488700886922
,-0.040746320547829666,-2.574715687453752,1.3170839497665174,-0.7409628243793871,-0.5275240349895733,-0.00635846582806091,0.7259841319097852,0.5881557194198229,-0.5358817793901707,-0.6271499081926637,0.5367701589091942,-0.1677481503791411,-0.2609620104451767,0.6046333570076357
,-0.5141036424316946,3.144929833067372,0.4215089492968977,-0.3832363025753668,-0.15415519394888394,0.32028263316334427,1.5049383753340124,-0.2769018862015362,-0.5227212245610897,-0.4286700273115022,0.34166626943620954,-0.2866788770988849,-0.17750793337121287,0.39453535926728034
,-0.2956074761886452,2.0840183352056814,-0.1708472538699995,-0.2623743486275111,0.22628625289705406,-0.23391479465605658,1.0996656799096365,-0.4115480988801334,-0.08917427188252605,0.010295053547362416,1.3846433918486645,-0.16746810081818647,-0.6637880434578844,0.4787437877138704
,0.2695732530883966,-0.4679295976945069,-0.04627165136366944,0.04871791481656702,0.2234898488308184,0.36819612688834685,0.9227456681976767,0.18641453257484522,0.0700234560209926,0.05651407677927221,2.06108514359375,-0.280983497000763,-0.4623796078196703,0.47384293950519035
,-0.08773008050338553,1.0157433818888244,0.23368750784119977,-0.08978004787035465,0.7895413555673532,0.37679242467752194,0.3748747479283769,0.7700789666206039,-0.04962440088626154,0.4956712584922034,0.8167907054023378,-0.24884142498536924,0.5649948557134478,0.22931875293094403
,-0.37212270654122215,3.850229311231111,-0.013735901603456238,-0.5544465971337025,1.2771072036813287,-0.42996580864401857,0.03571242058944802,0.3238993006714148,0.3979968795375544,1.2322121227020328,-0.3514665219571299,0.143736568624891,-0.22243006197572834,0.4595679289934859
,0.052936950403815096,2.407560712831154,0.20445840168445048,-0.3625392785196759,0.7395023204377518,-0.21432653224368478,0.4842174327003851,-0.4335549079962394,0.20796362501709978,0.04189872267489677,-0.4375896106350445,-0.10286647282125914,-1.4348460176048654,0.42568970789227667
,0.6358403536930842,0.5179325890668879,-0.006994698692848318,-0.5797222371505496,0.580462088860209,-0.027625645440917515,0.1941422693568751,-0.23114856492531127,-0.08690467697277791,-0.40201495233020407,-0.7577519027280599,-0.16265585163347268,-1.9847475503162115,0.29035717490126034
,0.6363404401278363,-2.322650796232762,0.08753161305658406,-0.0036668159864363197,0.45547414582054074,0.22854975284789558,-0.11989859306369936,0.41037108683466367,0.24967510778045238,-0.06164782377690611,0.3941041891914335,0.18445310067717982,0.5637956642991024,0.4717472172329823
,-0.19019305057626745,-1.8406737315742365,0.22577256704496163,0.18741264031267374,0.4932923632443996,0.5907990928388971,0.5222390289406411,0.7612483213151402,0.4529041731886805,0.41959567355043204,0.30310815413235476,0.20296233491027588,-0.41365730192602373,0.653621144081059
,-0.008869387024870922,0.4412612813619871,-0.10317035543067556,-0.06851438691757064,-0.3055781991604605,0.14932194830984113,0.7969803323835571,0.05326589400359348,-0.1210644867808842,1.0613216487434565,1.099939199798872,0.021090365646347576,-1.8172236373122597,1.0072352242401836
,0.5704686077361675,2.9599547191134543,-0.021721855548946283,0.6034028439102445,-0.09265113414810731,0.1307627497792921,0.019385069859009372,-0.021615592161449065,0.022241516702823177,0.5748557955106572,-0.12379532920505695,-0.001167752175235782,0.33655003746127266,0.8616721716528832
,-0.04478710749254838,1.8792202408041965,-0.11253840367872085,0.5831270904096215,0.041558420307893945,-0.20009782933664008,0.04540936191368667,0.3545770723801186,0.6760654983629769,1.1314220325023019,0.11081513382281717,-0.28830165236681077,1.1111416071489462,0.07853635057715959
,-0.4217431696290199,-1.062064216858212,-0.1567142591978999,-0.16809919066854442,0.30135288500080626,-0.11879894750147806,0.36061901163877796,0.8583175081029135,0.018577991436210424,-0.010697112828381903,0.11164786532980683,-0.3501474860110788,0.4087772766157587,-0.12976986773909407
,-0.4844573046166507,-1.1494065008192114,-0.0925346897668981,-0.27425387417916225,0.18354253726796577,0.46172939479549335,0.4324646761603906,0.4827374068574485,-0.2896536492107535,-0.404059284702205,1.2879540466788237,0.28085245191493236,-0.6517322233895191,-0.06774235396391466
,-0.25512569881934655,-1.5363275755017454,0.07930764146892777,-0.17374527533171913,-0.5630215938090856,-0.4517076677003934,-0.14546542002706805,-0.32237762748832527,0.34311061712195867,-0.10771175926246193,0.07599937688199745,-0.1948440253845304,0.6021945898689612,0.06802593537893864
,0.3028377223058378,2.679750114867798,-0.003354833744081131,-0.3348450599701934,-0.8825475679201198,-0.7962611056334411,-0.731220087934534,-0.44105364713401285,-0.15715658285942627,-0.2406556054302158,-1.4755196479329997,-0.2274852326257271,2.4931428587055877,-0.2759019683546124
,1.114177203002318,0.47903635649140497,0.05446000647814783,-0.3832944940869593,-0.6083219595774243,0.21807487834820644,-0.15981565717566582,-0.7617955214197631,-0.4473762069428864,-0.28936059303154454,-1.3954354303684415,-0.058624581376385834,2.618910903072198,-0.05068235373536231
,0.4929618954619929,1.2812435568647924,0.21483863247136414,0.048178101009540494,-0.5860958016310998,0.06129465851439983,-0.39335200455574454,-0.6816766682180161,-0.36744537405403327,-0.28885062630152747,-0.7240859934422085,0.15428693913383287,1.3021491423721923,0.11759607883425882
,0.18845001258796704,1.4649859606398503,-1.0388234139301507,0.2129049407034993,-0.354096376112308,-0.16254519308552043,-0.49414005102275493,-0.17112592498628132,-0.2576481931102554,0.06877786555143438,-0.0822957120027356,0.30869698138521307,-1.3211146251499275,0.39791672349264917
,0.08406654196761221,-2.920175062998731,-0.9872283328735398,-0.03915391080698892,-0.05498797111184657,0.09791204647800403,0.09659193920291159,0.13353376196263667,0.3073745445326605,0.09233588086180904,-0.22722967232028535,0.10354123841676101,-0.44011033124690785,0.5658269116017549
,-0.6312130358970598,-0.3181529286611282,-0.04319546631001523,-0.2256212420023059,0.1033254667293247,0.15958109953485727,-0.08609211797605947,0.19955819450387013,0.3412487620768971,0.05892232117031885,-0.1555675276621397,0.055912969273872244,1.105810489590216,-0.145573317183414
,-0.41054128896435954,-2.6057604802796397,0.38430870224002645,0.06921181986664757,0.4355075064518164,-0.14305582289663146,-0.6551793938381985,0.6367399708805672,0.09097531382802858,0.02593293022048415,1.0772090180337406,0.18491849469937677,0.7827170036727485,-0.8226928199864971
,-0.38404240556973235,0.331037865642924,0.5627265359913729,-0.01047073254493407,-0.07787331687962012,-0.34788656035007964,-0.6128106400402219,-0.05010264558747978,-0.47616549363751043,-0.8510397972428503,0.6664943571852091,0.19810723353135584,-0.5274673416047394,-0.7181940747554416
,-0.2443320135326172,0.9115342731258731,0.3091069584303481,0.48826355951947253,-0.05512540634647612,-0.03303701765554338,-0.08631052612138618,-0.4166648320270842,-0.5109606424253094,-0.4727516852932999,-0.2884573105095987,-0.10806585769521744,-1.068492256721646,-1.3206817545399772
,-1.0027752651641597,-1.5983063778846562,0.4437652503075955,0.4314255024333413,0.24628159257584045,0.3973167003974411,0.5322353695990967,-0.35923328489698686,0.004238155946046625,-0.3462736305861915,0.540456795751513,-0.20066319749942874,-1.6657982875348762,-1.406986129627092
R,-1.1872225695748913,0.7013492919872435,0.6064427536173623,0.048651641528180065,-0.2557253476250455,0.434468331442319,0.36671554908024934,0.3464689049702,0.5314742332074084,-0.34949311794232923,-1.0029693303844571,-0.3371899374129247,1.1789801644747406,-0.45254687177081904
,-0.8813776140712707,1.770244583705287,0.6787764419333295,-0.8247391888197012,-0.1807542163415895,0.5511692978433803,0.037719161664126005,0.7657432739151726,0.051621622276294715,-0.018108719784592307,-1.5332233838282276,-0.13837828553337492,2.5031997081839203,-0.29421890805733003
,-0.6063968528137181,6.396813065591053,0.21482208700649294,-0.5393065666002513,-0.014408361350071749,1.065717541269465,0.08186153414981598,0.25384351523682186,0.2945941002503722,-0.19530768235347387,-0.9989132890102602,0.061505159209788045,2.171168732351705,0.19138402464460388
,-0.657771420425547,6.389918684772611,0.19921424253733927,0.20087646236865436,0.13412892245226732,-0.06628297327031822,0.10932057005791691,-0.6601357110866163,0.691467506798413,0.2370838371006242,-0.7061471766320705,0.3033214406778979,1.2624934703915505,-0.5406843346959845
,-1.1415237337304949,4.08546420559822,0.23673609496541692,0.2680306384872832,-0.128902862089616,-0.8657772103016078,-0.3843606701371194,-0.9011879051138352,-0.16866583377812844,0.4188015395870203,-0.0056060389953177005,0.42692226392530325,0.6259110482435241,-0.9190648624332866
,-0.9987817304975822,4.351494792855031,0.250924860575529,-0.38698288671032244,-0.1842392383030376,-0.6780551888172793,0.327443170816627,-0.7774573313907879,-0.635776552198137,0.09613697403790608,1.4460614000999497,0.08265402723235131,1.3687253034008824,-0.11709871586153901
,-0.5777236197848292,1.4409104857691777,0.06645814945653213,-0.2943385896074101,0.27654379784888244,-0.4568730526043321,0.511190328139172,-0.2910276816870176,0.03341680017433915,-0.003192671372654979,0.5807668830222669,-0.007190808196783395,1.8912334009323113,-0.8318294508764214
,-0.8863491596471155,3.2038034880091795,-0.3679508402075692,0.06427663433814718,0.2069174066792883,-0.21593890497293586,0.5703579077787718,-0.898435607177184,-0.11853564783611256,0.6570916047746737,0.6331435214343947,-0.11082865253553036,2.1264545789003777,-1.9158715291996933
,-0.9551084484365235,1.323433248221595,-0.20422447982388053,-0.898690257277955,-0.07468616126797871,0.021800641989081885,0.369806341365744,-0.972638114537128,-0.3255070356283758,0.5634512302720317,0.8626066574089888,-0.030720827389889523,0.8966896340998569,-1.362228073892538
,-1.0656448188875876,2.3793792822794044,-0.43317803496677965,-1.380366914958219,-0.21528815897981005,0.3531756256112249,0.16923151728582092,-0.4854193295100104,-0.08938130496187345,-0.3873456382037568,0.07702392128677601,-0.16921394690294708,-0.7808487546088435,-0.7734440136839986
,-0.5834275042951733,3.7565911505924103,-0.49417900332315373,-1.4434193397555495,-0.6480454369127797,-0.1257576858680048,0.3977130336529145,-1.1108653624014033,-1.1533770358480895,-0.839337065637368,-0.7466764143847126,-0.05080586192901778,0.27150372865721734,0.1983938176757207
,0.05224651788661592,3.0983959937496577,-0.19423577446606435,-1.1558320564392723,-0.45864423599196064,-0.37706833559644176,-0.325325164483014,-0.7604049349501959,-1.0638707444594886,-0.6835177019463552,-0.5266761750802941,0.06986917410137462,0.2717865392109802,0.09831822681143472
,-0.004731823459427669,-0.04856275505866556,0.28980726051206346,-0.7718273019211231,-0.661439069640016,-0.6127032310100924,-0.6414122326200937,0.17940328998449565,0.3262789146547738,-0.2967029316564354,0.6353502998897804,-0.3544117915411224,-0.9926395386632594,-0.6775030105203921
,-0.21633141347193377,-0.2710558117640022,0.40552456798230974,-0.4261004336755521,-0.990968298610951,-0.5250822727763154,-0.7085788126691059,0.21035003391212587,0.43639966268403657,-0.3181237213165227,0.15561136306843074,-0.36018956468432106,0.70454982035694,-0.8096250849204608
,-0.4293632184290943,1.2590253480819256,-0.01423517288214373,-0.33545058704512065,-0.5669267380547631,-0.45097265219459476,0.40867989831932644,-0.00832824188739746,0.09706849831156582,-0.38999619923052325,0.16107223248566355,-0.1509105718731039,0.49422861210150476,-0.30649286050955005
,-0.32751019703279627,0.32995123917567293,-0.12857802664223178,-0.3611517884089957,-0.20936220513240142,-0.1640955026581637,0.014683990721158217,0.13903880878677635,0.002344709036540143,-0.05818964542788137,0.4411501901836806,-0.09883167338678787,-1.332961563799806,-0.2637962929414806
,-0.32745804441827875,-3.8315291600940133,0.22961094587135825,-0.3889187004681235,-0.11073851842111396,0.5982968657589038,-0.6467181112822095,-0.15118956037638442,0.24917526559378003,0.7050634952834691,0.21206443858254526,-0.23185020366912257,-1.580757226142211,-0.6623863998458671
,0.4206079198825779,-4.791993848337482,0.38006140611245354,-1.3603388484038161,-0.2677019137396492,0.4436231622207178,0.040787067084606846,0.12593802139079827,-0.10941530071049294,-0.08454534572055139,0.5330978682870978,-0.23145989348168736,-1.0088976982509017,-1.4251667710079028
,0.19326464309926902,-2.2806681999058624,0.26066795750256627,-1.5556257419961281,-0.17243482588606526,-0.0030623996443952663,-0.47715290045264996,-0.21462524260314714,-0.7045105321329687,-0.09291563840402385,-0.5848457393096618,-0.14816999933296454,-0.9129354041298745,-1.2110011177097306
,0.5521452027107159,-2.8670462683051032,0.22188630400507248,0.039926995979440216,-0.2811838025690886,-0.2148408709639744,-0.3031113752104207,-0.33904102532744845,-0.527310266083919,0.09797878500197338,-0.042808451006794694,-0.14829091213797693,-1.2854610707794751,-2.542615908107379
,0.4132297560689034,-0.8025612203202969,-0.11151170120015266,-0.277398983408531,-0.33738939554449643,-0.08838581974886753,-0.16530572598246193,0.322454090284658,-0.33547771113355035,-0.6186909309102614,-0.020375258501100495,-0.34716141525993705,-0.6595089460886283,-2.169880964774281
,-0.009897847508870688,-2.839542862166981,-0.33994645439490073,-0.6678278107255271,-0.7141218207287517,0.7138258204728822,0.6250484805812193,-0.14178674994946414,0.2595465434229526,-0.5908423908129187,0.6797659551176001,-0.29054168431464883,-0.20503528838153545,-0.1860366642397193
,-0.47845764687514475,6.413740734357146,-0.2542733793917393,-0.9492722425578964,-0.8659443814014701,-0.08432000790045661,0.3919949214831765,-0.6135222340465852,-0.014623801010043062,-0.28082643499599846,-0.2935346397056414,-0.4007837890141779,0.4994616857620955,-0.23983136056145626
,-0.8987039872614486,10.544284067313486,-0.11057186138517548,-1.079151971027359,-0.8195343322890787,-0.15413622311755504,0.19817145763913224,-0.5108020412817639,-0.22566994218383615,-0.8043062006624369,-2.0625298205588334,-0.3098398939385479,0.024596898579001467,-0.28277890363351743
,-0.5750259894111769,6.470042511524723,0.45162619973330337,-0.509975607020241,-0.03974646795911193,0.49665653876565485,-0.1793596384111478,-0.2827038842541627,-0.3125526304327927,-0.8402269657059026,-1.6810757714838052,-0.12193696700498237,-0.851170923123499,0.8403708345745184
,-1.1961402248125994,1.8466715447886433,0.5025486346288206,-0.9039901241788528,0.43577135702480146,0.12766186150324077,-0.1992317405785836,-0.2607615832054483,0.12049199644169223,-0.608234057852206,-1.2346058067936574,-0.003184029087453956,0.42264512955797967,-0.26189404751665313
,-1.3181572707762703,2.0684057324576504,-0.12076004272923987,-1.560575382068382,-0.4475072388124227,0.42290816926420166,0.5237032119145166,-0.6784659548716525,-0.8243382273002565,-0.8644801740577112,-0.23138477005369118,-0.26819065148700644,0.5258697977938736,-1.4311008000750276
,-1.072544689361367,1.5109788739430905,-0.2156532539514705,-1.3880233104644204,-0.42594676652281005,0.05327204270342745,0.6172626653159056,-0.6985271022956038,-1.0295748461984764,-0.48451013946879246,-0.5497486137134486,-0.1586457423103413,0.7250385558653433,-1.1912780578499056
,-0.7442243624709584,-2.4887413142413912,0.18965736583998663,-0.7582515686917332,0.09561447545794186,-0.5310395605706917,-0.19121655688147587,-0.07890178945143293,-0.342523191195245,0.10290981580244432,-0.5143509957265603,0.14900479973693553,2.5317240429573946,-0.8376821417578973
,-0.48460256332308393,-0.7704418590634514,-0.0071708419225677425,-0.2251462414993544,-0.3471031369453703,-0.1211046254625772,-0.3104619935956182,-0.049669505218576895,-0.23494634402901485,-0.05366788219631568,0.6482663064054336,-0.1779565777968487,2.5857498375717864,-0.98075907984988
,-0.6173508377666362,3.077147087849206,-0.08289443327905695,-0.34714254180934784,-0.26086508913056977,0.1171433253802215,-0.21168806964872608,-0.29265598174124735,-0.29725707695758324,-0.16139404197007812,-0.5183697363992515,0.000145285480447337,1.526235287776334,-0.650409684357084
,-0.07204256147318037,0.670550780089683,0.24664146420308583,-1.1396849392866515,-0.40100197430276513,-0.3623690556201664,-0.2828274449064519,0.3321373656014223,0.012370682485547645,-0.32891669569852033,-0.6896075081239992,-0.03952519069081691,1.082471903397876,-0.6119171433388053
,-0.25978343362984896,0.3339759242458292,-0.06435674765333264,-0.38317454798480943,-0.6510011449098794,-0.16603483010945735,0.010527603461596738,1.3310694552088913,0.6433184952254303,0.20418608715416878,-0.13109043128545814,-0.22704210516573614,-0.9497811197654953,-0.5661201249695594
,-0.23594778898146063,-1.7791509770140241,-0.056331073533688485,-0.3933781937241288,-0.3399085701389872,-0.11386322538932461,0.22159035739716632,0.4426045602272286,0.32370774752052706,0.4619194570791242,-0.03960639749724667,-0.40208737250689464,0.6038490641561388,-0.3068984788421646
,-0.5912400114318073,-3.4927779631962457,-0.15289986937343664,-0.8490762338230575,0.1264807235669894,-0.6635267455381563,0.0008472918633187153,0.49222752473990933,0.44275076630485616,-0.1794208216620221,-0.19155755648751677,-0.15265835718790077,0.9341712040187681,0.32866391284473573
,-0.7312001593124462,0.4988130930815256,-0.005684656571206857,-0.5543355357148324,-0.5369967587705412,-0.08988909891224765,0.013324607855852079,0.8633763446623455,0.25374960362144094,0.10266404436746862,-0.4492646327764984,0.3872582291772697,-0.533194328020628,-0.6862932879012018
,-0.3057452973065714,2.7596286682076494,0.29236131456247216,-0.8156591480769895,-0.29883386138041623,0.09025283985679947,-0.014813948357886002,0.5913161588908804,0.22912475218997655,-0.14582396640936438,-0.01979708726544102,-0.11120262480127394,-0.427324270916586,-0.5673312623559474
,-0.5670062759130317,2.1963450703975234,0.33319028043824167,-0.5638007661698966,-0.29713892252464524,-0.49938799828881186,-0.20688811688832817,-0.15078589302797957,0.059831180126223134,-0.33559496254109733,-0.08242684714913313,-0.37531450238156466,-1.2594352085878557,0.4827035980098062
,-0.935653487386425,2.470687832026323,0.10982706318848726,-0.237715970783812,-0.03231831332597761,-0.6433284436197437,-0.7627504343144541,0.16201289038111602,-0.0325345662679506,-0.29652628989445345,-1.3164078596165467,-0.22631252805140356,0.10279596039947693,1.2457233293913805
,-1.1624400520472165,1.8892697959513902,-0.1809124795466921,-0.9557753833896815,0.1789703988511717,-0.004808250523445225,-0.5437619710420452,0.1905869358833745,0.1167611077104271,0.3364792883302483,-0.566160794110178,-0.15168461379514195,1.1725985042004416,0.6576178000518943
,-1.3830187379565844,2.225189664576147,-0.09740249985385825,-0.8308628974221962,-0.3936710944912994,-0.2664328241248319,-0.5322647738690888,-0.2042361191681747,-0.33601083690587236,0.7116157688373468,0.5075883031856355,0.055861729729247675,1.175501426063671,0.10930891210444288
,-1.1355294908070386,-0.14989380339495376,0.0014015751674218621,-0.33186250464504286,-0.11675316141784313,-0.46801900305679683,0.09437203815117136,-0.17495429359827452,-0.23728791644803315,0.24691323511025842,1.454873840853822,0.358433208526298,2.424543902594766,0.4864798291520329
,-0.724725494509094,-1.2837762343893118,0.06586465124820501,-0.10850611035492896,0.4060120445338697,-0.3030097476544125,0.18660722866749502,0.016895813566965737,0.023524496572941964,-0.3769824263622354,1.3010511798681912,0.24926706298538467,2.031428258586257,0.22536532262651968
,0.11999885068780984,-0.4785715765086733,0.03911400738582144,0.34356849464456257,0.38144848127710024,-0.11674381437376659,0.3548919386415013,0.3048921569764978,0.22251883757174032,-0.2723876832930444,2.200447867369372,0.064705185064917,0.7750415795001852,0.04032520250122789
,0.716671733346361,0.9105708394407827,-0.03403253354729974,0.7861826596683104,0.20436411454018433,-0.48455780832338985,0.12812641142933764,0.6253720014502646,-0.2029082782029474,-0.033958952915644595,1.0779860222912214,0.03378289015169985,-0.2957176323165494,-0.11542464808277911
,0.5227430899356625,-1.632692365299014,0.49437082659332976,0.3361125508589232,-0.031039993935159927,-0.5937631115440931,0.20121184528816638,0.3079868871063487,0.10336664141017085,0.037205979033445254,0.3973481851552249,0.0032420039302093343,-0.16831247880268185,0.23623548852627313
,0.0829886942819303,-6.47132306887562,0.389081524027723,-0.01640030758090129,0.054684201578089356,-0.8343391896484971,0.8077396803495196,0.4882538144747314,-0.20538014964858978,-0.45221267368310525,-0.8554385795216071,-0.30949007381667226,-0.3012722847866219,0.12888180569140714
,-0.6832398290784066,-6.601300755573041,0.04159654531203247,-0.49105958940409744,0.09430863746307545,-0.4909761960600268,0.13450942731991897,0.005653647705685872,-0.26366870929910446,-0.5713389884735492,-0.21862393701871927,-0.234604464315869,-1.609970432386174,-0.1165248819305445
,-0.49576586900678404,-0.647971197358064,-0.2629016467230615,-0.2704180957052461,-0.35525151636648533,0.24379751721275983,0.32479374183488063,-0.006037580785915594,-0.25167532659843916,-0.22182739532540022,0.46177295743461466,0.16039053299649872,-1.020404255307078,-0.4961633745127182
,-0.4143127445123016,0.5972553612279671,-0.09904090671281077,-0.29150659796015904,-0.2924648818412846,-0.05800102012904357,-0.17646278690105033,0.0519145434279289,-0.7560673425126443,-0.3987968258571859,0.5443133043320397,0.3641784442787557,0.5036465625735034,-0.5275747304268701
,0.22307711391167545,-2.937156566775183,0.821035091825673,0.3163457949384991,-0.09454505032295389,0.014302539817851264,0.06639048934011196,0.8473184247306578,0.2585047614665535,-0.1916874203973929,0.32063335485117056,0.22367161655055912,-1.0144260709868904,-0.1789883764281599
,-0.15994151466039205,-1.57586369024663,0.9773552209343249,0.014666956317028957,-0.19514945216814758,-0.5854800663832855,0.08089400399713181,0.6087664900813227,1.522131497372729,-0.3818719349395364,-0.44765353984822914,0.09021707545719815,-0.27943634333921874,-0.1598069782887277
,-0.5265700836314507,2.8864899819710286,0.8467120063954555,0.18153074670761135,0.24145315641293455,-0.4231508877435637,-0.041522843063656556,0.0754928199330952,1.2761391159125117,0.2781940938008475,1.0070940112288023,0.21709127363003677,-0.49706138938656824,-0.22606747459766952
,-0.3218442005242642,1.4976076542538175,0.46406172055213346,0.9579695828770621,0.020533398451499593,-0.6533958121852609,0.20618817066835346,0.49567601190709304,0.4594672939798132,0.7027912113491236,1.9041193345448957,0.07205819167818416,-0.85398738689584,-0.19581969539212846
,0.16771820898742262,1.6049357073885457,0.3814472294378283,1.6171461682899058,-0.08888502686944044,-0.904057672187729,0.1796042476500397,-0.5196020248792992,-0.047749778613806436,1.0567905064887364,2.0358536728536185,-0.09965083026555864,0.791494359730925,-0.14049140680155578
,0.256874838774646,0.7075114439746848,0.24332982972121198,0.5185964633194988,-0.23142671227179296,-0.4233540964931069,0.840251041351601,-0.47328696491713135,0.3469539304122605,0.3664058269691223,1.2679423786859827,-0.15930431820440655,0.39784836735540924,0.5048759456648941
,-0.18487621338990498,-0.40492791471230044,0.4049261265210348,-0.36922721006258213,-0.23053730169101602,-0.061917071146858134,0.21213892915448151,0.5320724359204386,0.3994232268145481,-0.05787045801598677,0.32807403740706303,0.2701559582953458,-1.1341827120295394,1.8756274696232889
,-0.2658564647028935,-1.0282341700304283,0.2036726669198591,0.1289235136421104,-0.19892761428387465,-0.2767159814962842,-0.17410437091365338,1.0308325926548083,0.6095227541126841,0.44700460568049966,0.26452946428254837,0.003662679651702291,0.22105184162478125,0.2723016490169691
,-0.34659762261873966,1.0237586781323529,0.2194028774283604,0.6750940274188938,-0.001381693151419587,-0.18343942513352948,0.20094152441148816,0.13669181688150706,-0.11572038594702959,0.7909067662687986,0.20073800697047464,-0.3359746010756808,-0.03656033180109539,-0.3870312980201581
,0.1979758075403185,2.3482929677347086,0.21550028163677643,0.32541971884573595,-0.3882241690438968,-0.19325586863110455,0.0807013306862722,0.197903427355409,0.05904217272850003,0.6402890586429052,-0.5763740469705867,-0.07050129934152329,-1.322456894081028,-0.23414593155046484
,0.3057918674234615,0.24744885591880825,-0.04587794411037861,-0.23078449813682514,-0.37524924567166434,0.2546762127696329,-0.17552735210159728,-0.15979561667060008,0.04638515486920013,0.22773320725766777,0.7053898540182376,0.1684986679553244,-0.029362673222703098,0.0023206740894838166
,0.07983231435122558,-0.6796763701043218,-0.09077963773934553,-0.03890944952275884,0.224686214540212,-0.07074655305299726,-0.07371828693965031,-0.1355532913239805,0.08765888011047389,-0.08622913152801354,1.3661592609005677,0.4412050509723242,-0.05332615828624448,0.31701537928525325
,-0.20674568100492238,-2.8833413053693087,0.2346102558926947,0.27691246085464827,0.32265538743922684,0.4683770513266597,0.1256038694886948,0.8427501415427378,0.5226099168081071,-0.5200456199461168,0.9005599451322289,0.6873870927355819,-1.9609715767509124,0.8912020296011494
,-0.04970491094779472,-3.1982600635650904,0.39367998721170844,-0.05256050680574493,0.3187569455749803,0.27649411486623887,-0.0874391637954782,1.5466641699149561,-0.20347467843353387,-0.12279927635858197,2.4133424772274066,0.2641051736526902,-1.404747116610594,0.9723145854009373
,0.3377001375018741,1.6283219100131436,0.37240214376685354,0.3094349996522941,0.6759853149563767,0.3501360524021169,0.9080989738908292,1.1670737295575702,0.1556206344280461,0.35245957848062237,1.6735869291578414,-0.1957365004776624,-1.0105362543985241,1.1388151668435404
,0.04752535222707192,1.1021344476312551,0.14801624849668957,-0.13236943464531467,-0.10440382093472522,1.0606413602889937,0.3622611772787378,0.9235391169586786,0.1515459885358918,0.3545821899954253,1.2987796710446815,-0.07477375267641398,0.1334181394133391,0.495627843987037
,0.7465461955258509,-2.2521666567019385,0.18735566652652308,0.009584716349046998,-0.48743494919934793,0.502378515723259,0.16893289991707564,0.5009179141294491,0.2039319809079622,-0.09365303217907592,0.9450466646987815,0.27687282925085605,0.11123005721680353,0.3465468863196593
,1.107230133929587,-3.6894895260818945,0.5785000728612997,0.6870630898438723,-0.4123645613859974,-0.007005020362119203,-0.14617721262742145,-0.4741917510628614,-0.28141800662734684,0.05790051052118233,0.3459461702909636,0.10288429963232355,-2.4900671986293035,0.26394002482069984
,-0.5156451632200281,-1.8190209663687436,0.9435940535204391,0.2709460335553345,-0.6622831377297823,0.338930479111897,0.4290712340515738,-0.2514357780855221,-0.5068932773980942,-0.09364097797546099,0.5201232514343448,0.06980658690985286,-1.6384257179571289,0.11703667582381651
,-0.9238394115239332,-2.145409484673318,0.6191431642283017,0.4033645344135247,-0.6238166079091564,0.10781057383265097,0.85802419750106,0.6534715948347678,-0.3116722786760687,-0.22345751601991629,0.21610365188332828,0.17963268335853122,-1.2599331576687178,-0.7930522505338699
,-0.5098295776435673,-3.510583708551784,0.6334887787401114,0.40058947458293975,-0.33528667818345254,-0.21903912964478078,0.6789091780417457,0.17560246504420138,0.019348618319314177,-0.1419048232169617,0.9187085870564694,0.47698417303151536,-2.0647479368126573,-0.22469715726919048
,-0.8553884087437651,-1.8423368465129117,0.4033061832084368,0.1795817544871751,0.1253888337245083,-0.34102291995433504,-0.41126789404229247,-0.18807029806523834,-0.3975848752465612,0.39571863746029073,0.12199499148897403,-0.1796869346175657,0.07120694695274472,0.032490530299761226
,-0.43174427707878504,0.0600737911146925,0.4106519615324364,0.223020022971757,-0.2733963853663191,-0.5178025532447894,-0.5076996744886377,-0.18338727090586598,0.20287650349253264,0.5827540761650939,-0.9138491366335713,-0.4386627658566633,2.2580225300756696,0.24918374604755505
,0.5781883863339553,-0.8733396982544172,0.9552419258287018,0.964161727528766,-0.46707686171846285,-0.6781684153853466,0.12565341553906692,-0.009307016380203838,0.6003698591436833,-0.05966313908661021,-0.9280155333950983,-0.25018134450890167,0.5847024602087321,0.13068425881571977
,0.14166327179172386,0.6223707760419823,0.517748464389544,0.7711543284631112,-0.1983236450411001,-0.39016918718010923,0.05449052449055129,-0.4363811746440859,-0.1796284972280409,-0.25262069321553493,0.026275661620990924,-0.23044724863318386,-2.9855174497081043,0.3457468430890879
,-0.1406949628568054,0.7595158813556518,0.5329864278192664,0.029566743320286894,0.02767913701878724,-0.41181024053928417,-0.2708413021039134,-0.09139635123735157,-0.4288544722168306,-0.4069386809312754,1.2429589715463312,-0.32299830222459947,-2.9971574126337104,0.43968631480759346
,0.09992008878363368,-0.23300083275148015,0.7991503060884789,0.2352043676541955,0.21765400944181906,-0.4481432731529142,0.05542162721672994,1.2374616071508073,0.39094871241547935,-0.1607086392868687,0.5781012873788529,-0.027433294223979898,-1.1783423722670259,1.0784305021798757
,-0.7718444386855434,1.2473089383561429,0.21401108399771937,-0.25395332296013123,-0.3458473376582589,-0.6108869052213151,0.08942863184241996,-0.18598296940271902,-0.37507816975522423,-0.6278719381111638,0.29173669203157476,0.18556200854120605,0.20987010583680235,0.6035586490696325
,-1.0916800794289294,2.74167816116646,0.06794040690208196,-0.09947430167860007,-0.7266814930507386,0.11126650802976613,0.3434476564141329,-1.0013839300361542,-0.5908498160148133,-0.7212760971166465,-0.4223547677435531,0.2947092317392602,0.19586401880633658,0.45352891139598767
,-0.15689219498437426,3.482154493944564,0.43746972842316784,-0.24441893645481297,-0.217297494607639,0.017409759979044228,0.07020622987256933,-0.4891697815571118,0.2787206426955263,0.07505068032221256,-0.2044292348113838,0.004696187927864666,-0.6830545282960564,0.7436228682952658
,0.836694588815252,3.0082306790034985,0.6168670167237243,-0.24670424026611623,0.2636403529550786,0.0362398243087861,0.31905182980067565,-0.18699446328044445,0.1734443935099034,0.6252405354491694,0.28760642848881657,-0.17635273861744952,-3.759886977646343,0.6321954912883494
,0.23111408763485217,0.8491328553063261,0.5039367185413555,-0.027653528276302915,0.695270207859924,-0.052484395149973787,-0.2507207721985611,-0.2637041293535602,-0.3091415341549453,0.062152031133318145,1.1544860426805363,-0.04573286554888748,-1.9606481213539522,0.28155975861325216
,-0.4208707419085967,1.0774506233304983,0.5755371769611766,-0.45693204579203556,0.7653716162636031,-0.04840534529597484,-0.2220318558799281,-0.430493189594042,-0.5981568802991989,-0.27005635628257935,-0.6146291791383746,-0.053371416900522634,-0.7260216333132905,-0.4419316600794407
,-0.1278491951397188,-5.513151631405432,1.0062350346889202,0.21932919530203598,0.10426710777544974,-0.04045079366328054,-0.2294784406999648,-0.5453623454359523,-0.42827575406526824,-0.06250092245455863,-0.1860412472629803,0.058245292169849625,-0.047606066547942964,-0.4102481260837589
,-0.07853345042222708,-1.481909025539794,0.6228627839222757,-0.0698577397853209,-0.26831395661819524,0.08045524650431088,-0.06482736724034915,-0.24856801083590813,-0.4753520657837165,0.4351937058487475,1.7975320972101725,-0.2510456043131145,-0.08533524185521402,0.05277704050992372
,-0.2422512569239996,1.7565189257340534,0.5546212673230885,-0.5082948046417602,0.007946472032485025,-0.26426759206242545,0.3770619914721933,-0.6959514216858174,-0.3995426051931669,-0.4425722881103878,0.8495958513708867,-0.12152458962241645,1.3837146494787989,0.30193748126740105
,-0.8682812805518155,-1.384960699765882,0.7450366309694227,-0.760872976270861,-0.30947402837818466,0.1698459440090601,0.08094873097272193,-0.7976781209047854,-0.3705105410720763,-0.6274304008841153,-0.2444056670521227,0.1781692403751606,-0.3668983293115335,-0.02061694325336063
,-0.4891333092987589,-2.325570912665483,0.17119673853725773,-0.4024064575718913,-0.5306344077997646,0.005583231702092323,0.1866723210669055,-0.08680699217377168,0.24487008580846795,-0.3542628291677864,-0.11995869146840407,0.41614638429116446,-1.5924052541457938,0.37211423911484576
,0.12780102071015853,0.8319987626718788,0.20033085846720433,0.36535557724888235,-0.38133992167161523,-0.7176913762895986,-0.453336966013593,0.3796730414998113,0.6165073395380646,0.06513777258511066,0.9191636025609882,0.6403022404800535,-1.6542522113843847,0.4276862883745035
,-0.6006608719794749,4.077547712481482,0.33819528265081394,0.31272144687087633,-0.2190991101000346,-0.6881760650061455,-0.5667176612810907,0.5559614217366057,0.151011073436144,0.5776470463122253,0.8411604701505949,0.13332177792099986,-0.49257673240350064,0.3438287090412974
,-0.4851679006714478,2.648602335149976,-0.10361677094969625,-0.35990983607072957,-0.36976324486496814,-0.09540918388557428,0.2540582162089489,1.1288893658155301,0.166341770719132,-0.5068161347014056,2.4731074010956475,-0.15072731874654316,-0.572247664750545,0.5547374564904884
,0.21654353967756865,-0.17617168969460345,-0.05893719702183143,0.1660764689213301,0.02518237045026685,0.9217536024978735,0.8243680465835971,0.7251971682147467,0.18959774454092748,0.04120237258375013,1.0585016103414375,-0.2617020391845786,-1.026210647317477,-0.019496756767795956
,0.4891895165718027,-3.2712309323482085,0.44158987813903083,1.4682575912388862,0.15262795483526953,0.9682567261189492,1.489097285580883,0.458945328112739,0.5584410030481419,0.9321911742907224,0.5666541703338063,-0.18320764320694718,-0.22997225966566648,0.13748160535485854
,0.20997883038352128,-0.9713152133387443,0.7763186824185879,0.9368424901830231,0.058055788484072196,-0.031823599868347804,1.30467148263567,0.16536868031479746,0.24555322525966483,0.3094502481193092,-0.2512405217949185,0.11560795963748817,-1.6343206913836739,0.6193987714833512
,0.5263918347161783,2.1236106822148257,0.7877631646160935,0.6882591276735924,0.011833964194301605,0.05002135319225214,0.8275034792747825,1.2430485200062087,-0.013983763568765916,0.2910671420871018,-0.48202735767760674,-0.15512342930534442,-1.8009326273586266,0.5364456182916417
,0.1231609476827721,2.5712405892831685,0.83903677312614,0.02180919484607388,-0.32181220104643976,0.25560288411504684,0.4919656868555636,0.22547242709000487,-0.5727832311623677,0.2689981767492099,-0.9361808934344895,-0.2995101713758087,-0.021818801956481074,0.29311285242068086
,-0.3052517178141848,-0.4990364214957839,0.3937600557161643,0.27572828073693534,-0.3074573186546972,0.0978361110215136,0.038883016244496076,0.42826514035078506,-0.020111749632338444,0.1430691781089252,-0.2610502697221537,-0.22854579018430585,-0.3950128735986863,-0.14035382342206326
,-0.30868914034889744,-6.174047769175433,0.3912732027941288,0.697465265804844,-0.09684128749764336,0.4328018073347276,0.37660071363364855,0.4279057835003638,-0.05547760228903196,-0.06621713720389702,0.9703471260372212,-0.1546650619609802,-0.25337292246254406,-0.004881548021116931
,0.27625497283389333,-1.4198807326810752,0.32654093179858146,0.443713630657704,0.11357285800080279,-0.4904713011795208,-0.30506922039552187,0.37537624711085005,-0.4297340912142083,-0.018114676082837004,0.4119844020468724,-0.2741018297607311,-0.25875472061081056,0.4120051714692521
,0.12096514597578763,-1.1509282821152116,0.06097698990422703,-0.20104197466177096,0.17711324916075194,-0.8325414103866127,-0.4584093909647614,0.07613939415887588,-0.013717713782111457,0.6250991419945832,0.319172597978661,-0.42921537541982446,-0.42136221773384996,0.10542756844092092
,0.29619299293004936,-1.3027547425024222,0.08629032350636873,-0.3820452434995533,0.24443104756502362,-0.2180412715283078,-0.39429315454706115,-0.4148615032872733,0.00414846105313205,0.6253562337002357,0.7351419648470788,0.18014488004187545,0.2330058314375603,0.717305865890896
,-0.05105408498674912,1.085679814159164,0.21093061710496386,-0.7297952894915438,-0.09664297064355616,0.13908226165519558,0.23208402053641625,-0.41461050986003345,0.09618921322403186,0.3130148215820089,-0.7775191210036166,0.37005907474410066,-0.12311373390643399,0.3303381384918609
,-0.26750802901844345,2.644079703698015,0.3939503388548123,-1.0811719678839358,-0.7019524438881107,-0.3501743267080526,-0.20777209906226296,0.20645808172199345,-0.23151680292638185,-0.05541844281624611,-1.1497482128097958,0.25312905952820886,-0.6247801496769971,0.05872812300736172
,-0.5783368747619959,0.3101035570494111,0.14407332429203762,-0.6769546980979144,-0.6113060136395896,0.12302899179296721,0.20809486596538293,0.22222779831912343,0.0007143585341068588,-0.025179565361081558,0.40161481477695704,0.1379812341750175,-1.9298509891935212,0.16961121055612316
,0.1350720098950466,-2.284253432127926,0.1217798981527065,-0.2491661167152832,-0.10155873312849988,0.27997295142758527,0.2244143283729598,0.3085229076909601,0.22566473064045464,0.28865315196059343,1.1143594312475504,0.2944932405358036,-2.9933427913895554,0.5093202127301332
,-0.10340670047684443,-1.41295156697797,-0.0530439019066497,0.7224762252042878,0.4441832854388022,-0.446311790855843,-0.2819758196673775,0.9541848509123949,0.24878835482945466,0.20043421010387233,2.849134151571691,0.07164497330293094,-2.0310562746283716,0.4531056403181741
,-0.5052129306689465,0.7479686557578891,0.22512671101531795,0.5322036159573469,-0.25317135836475796,-0.341324348130543,0.1998003700273949,0.4769696497223945,0.837906559006896,0.16527862250103106,0.9374530051106793,-0.17837782461060062,-1.6096532132302177,0.763699034957045
,-0.4809445833212398,3.000626018282704,0.12368003682091265,-0.19235738352081388,-0.4753460487527458,-0.27117167067409953,0.00995814082659131,0.5222653677820641,0.3059833239932279,-0.4840925583033312,-1.2227954869961448,-0.158382909828111,-0.26688183151796857,0.9242909905336947
,-0.004964678346641047,2.0465806608578245,0.2102930479054637,-0.7609348834821426,-0.1582086751643755,-0.49649816415474657,-0.0033174780681367103,0.40579198952615575,-0.08037728091837872,-0.23887512715444179,-0.7663536213724363,-0.015700488113554973,-0.8032643959529522,0.5800769206248616
,-0.1764776535770334,0.008762924501055544,0.3063027206912425,-0.8435396534668363,-0.027620905101821122,-0.2804094923572585,0.6914056474088922,-0.2321222166972927,-0.5572662741103701,0.043328703090002765,1.6325027079746768,0.05542222475255418,-0.19151250710318093,0.7290646392563785
,-0.5824690429604314,1.5265662137486111,0.29690482954927533,-0.9432769558350493,-0.5492279825773165,-0.15329910788008827,1.2239407128215443,-0.28065056819702766,-0.8651550832854359,-0.07090202878596556,0.808158044768798,-0.0003386138093707699,0.5942332159177423,1.276901041344994
,-0.34414135048238087,0.5783392515094412,0.1500947402752347,-0.9956269152411837,-0.7209644701260903,-0.17816638995463818,0.9726874112749709,0.4407171049644383,-0.3882520326086519,-0.13462271666407882,0.028393693816954477,-0.030140360897039024,-0.7182470315223783,-0.36950744423526133
,-0.07603949378310022,-0.3543798072146763,0.4707423187162788,-0.5864587610957551,-0.6827245273054655,0.839157640009359,0.7267435993340746,0.05884666703108817,-0.0547381114267709,-0.07497039971589482,0.05516114253905225,-0.3305368299736648,-1.8000115616304195,-0.6606566253585496
,-0.23355288956563286,-2.2194942835502083,-0.006531104657521557,0.27485937870962185,-0.39260683378375383,0.609603766111365,0.4406774743784477,-0.04734153307384199,-0.5428229424704983,-0.051344673553705006,-0.303694591993336,-0.07657044962467079,-1.0690707486891051,0.3504690162609688
,-0.22857260361667,-1.2592049926047824,0.05631239043552547,0.4423036880403538,-0.628294560538893,-0.45347181526043856,0.9776317441977826,0.09035655578872044,-0.90304751767314,-0.19895062338226782,0.07852909445951783,0.03692715851562226,-2.7440135653272923,0.9762573731462695
,-0.27509224834072354,0.4483293770508516,0.4721685055927705,0.0874801834799605,-0.7310656597174215,-0.5619227679336106,0.5671291337757441,0.30065025278315133,-0.8741696438703859,0.0051981870223929616,0.06617771131387497,0.35411539578983264,-1.7690233837676117,0.5282933887153227
,0.00040737461445640097,0.6670925894726601,0.15928528612505438,0.00866956646999416,-0.4110311448438029,0.4338932114382859,0.054030966999393304,0.44277629393882234,-0.33665868882469696,-0.005418697970670892,1.6441155060170356,0.1966542527895878,-2.797707829303282,0.6607233359624137
,0.1379845109378127,-5.8528891463237676,0.2083740269316854,-0.20391372338155864,-0.1041760432123234,0.6986836461226253,-0.28791135554375025,0.23971324114380504,-0.06481851353366944,0.46943287661122685,0.7000885640169714,0.059902187390728924,-3.3039960698481803,0.5245060952844477
,0.8754776302131843,-3.4408541210855508,0.5855707393868705,0.32307853017515265,0.44149153755755993,0.4271932013962966,-0.2117759384866807,-0.3900915195376858,-0.03973253471239033,-0.329527577809155,-0.9450001741281916,0.137345313165122,-2.542777787134459,0.3110174755215819
,-0.44018631086237353,1.4119328591565774,0.34871951155090036,0.011713304322594912,0.3192703472939856,-0.05302644624582492,-0.25636225869163054,-0.762303029240979,-0.1349168164893701,-0.5630141632199964,-0.29724621859902944,-0.32487142059006896,-0.22615598211103194,-0.0708696545824606
,-0.5402387613007851,-0.1837181694396691,0.3767762792941242,-0.5588491195804876,-0.34579913527006967,-0.5047703542471981,-0.3351289515876503,-0.3941343821954393,-0.18682589172292197,0.09908792279593823,1.6749298767047744,-0.3257235039554314,-0.2996201806833893,-0.47262508289192023
,1.044700760654429,-7.6867642782962236,0.53596644410309,0.20492829013271302,-0.46355543220523315,-0.7186072642370696,-0.653045927218666,0.10121557902453474,0.16228112064286074,0.6671672937949972,1.1687083899107402,-0.08536255792626476,-3.3532257864554955,-0.5175689034504364
,0.36674434295866143,-4.059228830748577,0.7409174357039422,0.3211375628905193,-0.014340953205841242,0.1131980876292714,0.3515069030516478,0.2781206821854438,0.20240728116019288,0.9415962414540919,2.499705258996192,-0.2094220821994893,-2.256320388869423,0.1126618164021572
,0.36798821581092445,-1.4134730301384772,0.5224131035386904,0.3416646227198704,0.6733406527817651,0.4099170672585517,1.468700237312749,0.10037918253042225,0.3871526464593577,0.4406891605022876,2.863374295041612,-0.1939701001707778,0.21366247987935874,-0.07308184386417112
,0.8452014085655404,-0.24952543905762353,0.09033254745208029,0.13442474185710895,-0.028059501225614358,0.4645024815159196,0.7214950697966472,0.2740307924723773,0.49010120190562323,0.2547734836435371,1.8175501264481346,-0.1518492284786305,0.7835605778865304,0.08080450083990376
,-0.19171623296406587,-0.3153400869571676,0.08932511325701169,0.4008572324093712,-0.4098146884172038,0.22900468392345036,-0.03585644802623165,0.11809614092462506,-0.3623267190340088,-0.35600898177662815,2.7750323807723856,-0.056063643096854854,0.24140442137710957,0.3845449071390943
,-0.3381859793122732,-3.034350279114964,0.37068429664819025,-0.010108516195119826,-0.3431237313903969,0.009150346288318153,0.31326321172741844,0.024711751889123276,-0.2748896084432576,-0.12911569473409354,2.3748814846934017,-0.22563953613470497,-0.02526977260844706,0.630927109478213
,-0.2218798564315121,-3.0004800999503227,0.3574946480215098,-0.2003028261732843,0.0682892363082858,-0.12755485531408292,0.6675004362245949,-0.22594231379036805,-0.24744171854437613,-0.25131394983934174,2.481711664993179,-0.17893802689870236,0.4185115730898152,0.637311645597944
,-0.45562550396099577,-1.8530104652876878,0.310975080040978,0.03962178070936392,0.5596384839228622,0.17676210619685104,0.29675307228574,0.33506234012017905,-0.3042148370137976,-0.539466064344897,1.6831633938478472,-0.14082138910144015,0.9504635081926969,0.4212526299415988
,-0.8444851126592257,0.8753012244326673,-0.1082784217799367,-0.5064667519209075,0.17751646584252537,-0.5100334886976605,0.06806501139278465,1.1835629780486605,-0.2962145883576881,0.4167359400526309,1.5622951191506829,-0.0898139109215408,0.6091009535296044,0.20065675673735975
,-0.6409756006370746,2.4216546230667815,-0.11023609223464394,0.0325154003842123,0.1931695185579751,-0.5072079925769224,0.5506179498144841,0.4559762997109817,0.2646383507846646,1.0397162444662975,2.553272208406832,0.04035468298922712,-0.09031706708432444,0.5096381040990184
,0.2507386585871138,-1.0870935053915969,0.2841420348851456,1.4463852796348284,0.5673037930680022,0.08153968347845789,0.8320133528903627,-0.4820150239062902,0.0346809433718508,0.2722753064349841,1.2789481294325835,0.012253064668936452,-1.157385535858629,0.7684686034488519
,-0.3416498607313037,-3.868433863340957,0.7392809032762306,0.30742216932849525,0.7237087533929404,0.37269793260477646,0.40076317856649507,-0.383455211342645,-0.14122879489000956,0.36304517444597517,-1.042913141042104,-0.0045047886595835675,-1.4700901533640534,0.7316486008109848
,-0.03831998090768407,-3.42916224435447,1.054104826610731,-0.18670862734717494,1.6979430141302911,0.11531383343650477,0.453791277541807,0.36917515329301615,-0.001189795751695853,1.1739964235802107,-1.0801775185242424,0.13490972280175717,-0.8522542855684447,0.7480936036802146
,0.5768378243069804,-5.531848255084523,0.4816889618719635,0.2572616231323588,0.9086463752226275,0.2572120557178302,0.792832318374235,0.902345134624436,0.877811678227908,1.0620816334375853,1.7788600565352368,0.303613609121367,-1.618564094451099,1.1129501493186955
,-0.13993745606249292,-5.127002442315489,0.4126491707393207,0.1281980270417836,0.4715112601845927,0.3551561747292764,0.08887086917814857,0.6243757584310312,1.6935299427148742,0.9951672579372238,2.1836361528093726,0.34388259920946485,-3.3080159018208772,0.4685503313734932
,0.2781676302413862,-4.248803181917682,0.6114380042526868,0.324239790740367,0.10697870107125008,0.37679684472320857,0.16081600234308274,0.1413419818257974,0.6167058751448421,0.726729475754989,1.328010314223275,0.06522763049931013,-3.420260738932388,0.1570197051267842
,-0.04543623517103154,-0.9894581027559969,0.53826165259565,-0.015560156151675383,-0.21600759454226043,-0.23869428305208767,0.2553908945089577,-0.38148272421836726,-0.054332213920929594,0.4341473553930384,1.07720292709748,-0.04207535269746693,-3.4840730726498768,0.13607821863682593
,-0.4709703186535331,0.6280177071128832,0.7619883511249399,-0.38654304413426066,-0.20281884599928374,0.008142271172500893,0.08334821337612443,-0.36622161885446475,-0.26310792800608784,1.1237477521758028,1.5475537987697765,0.1293738043761663,-3.505751704265892,0.4380287742588576
,-0.08783973984433813,-1.6115687757527388,0.8945356659602895,0.2321879881596444,-0.5119917665371256,-0.2093319563921241,0.053940141537187576,-0.3375770364369565,-0.45312270563274487,0.4058225377140957,0.9925809448711933,0.42881779145709353,-2.509548278514227,-0.10950495288028965
,0.3628776580807088,1.9124647656007612,0.5083281569760955,-0.25507906691003496,-0.8804454365971612,0.028579366717596286,0.3364670851368812,-0.8073178381165476,-0.3207747857954408,-0.22104569784527098,-0.5474540259871407,-0.0470985402181475,-0.7411845608922825,0.11689225444285607
,-0.17680091496364556,1.8164687695837574,0.06226371314219881,-0.7055125707044493,-0.9686820865967327,-0.3020029482737633,0.038938799570468925,-0.7862278113788367,-0.3275351123438557,-0.4361459336354521,-0.7570882434885904,-0.2395695446019409,-1.4722901000272957,-0.1665175191848295
,-0.504152141680815,1.9500421295308659,0.08871957163776426,-0.7154013924388306,-0.3625257693939631,-0.07706881943071245,-0.09243988073844092,0.22790613710384588,0.2136575017393635,-0.3165090336831311,1.4271105589278827,-0.23497911251242382,-2.0600328458225787,-0.3911854751223605
,-0.8889484529025717,0.9264498707045722,0.1727912158800784,-0.3307964182035276,0.05983641611950347,0.9924139168017493,0.4756693189713845,0.39636641637464143,0.8568120970154653,-0.21414208021429007,0.2202150251734984,-0.2944411818963089,-0.8884394793042013,0.14908133749710556
,-0.5742395083559053,1.7306522303857952,0.26627283491359055,-0.8179868534382007,-0.05176833083121273,1.6353640835817675,0.5615711492040932,0.0158888466594049,-0.14857626350322697,-0.45709635928087095,-1.4668484021489103,-0.08898685635720578,0.3561828584987324,0.48166590176595203
,-0.36219152753151196,0.8055910662993487,0.35847187954124116,-0.802725328704474,-0.14238077570161442,0.24491910956870028,0.20801480529582672,0.0406829032943328,-0.3253019081973312,-0.24623597500320465,-0.4223635020834197,-0.2751789488749095,0.7144858062860415,-0.12809335011094294
,-0.1717527143228769,-0.6529594969127107,0.9961799518964058,-0.1799066325939122,0.18643463034383867,-0.4776989535995315,-0.36949470106851995,0.23563508010970963,-0.4636538446093641,-0.4679569170084749,0.845690575414265,-1.374866910568046,0.4649396490179677,-0.02354575511578597
,0.39343527797196204,-3.1053165206728686,-0.10334709942215085,0.14581975791293927,-0.19359816156149565,-0.7371768900705689,-0.16265362455811874,0.48460430747562844,-0.9610665598457875,-0.35082503279407967,0.16102438438147115,-1.518858762799104,0.24726216284261376,-0.11928172408972612
,0.7133951785126006,-0.5888187539809846,-0.5096161588954811,0.048442986999802054,-0.5919212972195151,0.003370812560496908,0.2861580877292169,0.19186894711453692,-0.6210761694824455,-0.43388726675014605,-0.756886151272267,-0.6728955912836297,1.6805389041279903,-0.14396725076244665
,-0.30578049092033927,-0.09521285947510583,-0.14482639629796815,-0.3055956017960622,-0.39191585449625044,0.3746936416193726,0.2795058357622568,-0.20293907596142047,0.14037876278794675,-0.10897294501353018,0.18291681872053434,-0.5049484812136614,0.1674537442323475,0.5866676534195492
,-0.3781144837733782,-2.9938228139963114,-0.11548644177062048,-0.06803456153045208,0.20500367383502505,1.159897763687434,0.28217759169441614,0.0852544509840902,-0.05176341718183282,0.34566899502353043,0.29531651505321105,-0.6345407444695551,-0.07403889112838968,-0.2208884382308463
,-0.015180806846058773,-2.4335645710829383,0.17586309409652193,0.3865951381139125,-0.026684806998118538,0.7628911616848852,0.17425856852423238,0.707158261749704,-0.06583984539180612,0.4161061136601006,1.3529688189614604,-0.12594850928195866,-0.3225042931920335,0.009022920563704963
,0.09059730929247135,-0.7188432378052769,0.6684138503038003,0.11235033865859392,-0.0955109068138998,0.4012834322337603,0.4361835194214131,-0.4807416546480653,-0.2866455902992706,0.3253538758371471,0.6240222141175581,0.06587857049475529,-0.9883605872815494,0.6697378548276203
,0.43360268000566493,0.526574483442842,0.6735301115985988,-0.15716261936978074,0.1102015326401192,-0.02918535816504147,0.5649792412402667,-0.9455787974551446,-0.1902664963585727,0.2772272509868339,1.5738503049621506,-0.34479430929338045,-1.5974441499316219,0.42238054485401044
,0.8598945930367947,1.139703707365772,0.813219751956097,-0.2001183631314264,-0.041589752523008935,0.4803920966768598,0.27954059337819187,-0.6053026801408344,-0.7185952428585829,-0.1407496341211758,1.4094175049697184,0.19470363516310443,-2.460572708913298,0.8265736472552401
,-0.26024874934963543,4.749882064342926,1.3701182339503215,-0.8191207949872369,0.28409867273975015,0.2601981044201103,-0.017825613678394657,0.3185828950328575,-0.6616342618005785,-0.4931182597453599,0.8290419077607357,-0.03176990057837353,0.9052380600127309,0.1256784437644906
D,-0.8723450265549325,5.403450891387322,1.20287690135275,-0.675680739176949,-0.019047810966737907,-0.46245098948212376,-0.24281659836032204,0.9461597462128868,-0.27501565517389304,0.11441624547979877,-0.027081668115450677,-0.16671030511781976,1.160745150001369,-0.15668869971229188
,-0.8375766625905895,1.4046362251448816,0.7204352048579789,-0.6576698582782831,0.23962254076821665,-0.9829001010753805,-0.29709280968849233,0.0917226872615091,-0.0941744475223098,0.09181884861384615,0.7103303368601287,0.14642971813738784,-0.3935022122017864,-0.3573932099250275
,-0.12480859676174337,2.226672351864819,0.33335061581871955,-0.9378566002720048,0.02001308958276616,-0.14387638308261966,0.32745157468173025,0.444578702500588,0.01048531875402297,-0.3266273631028896,0.9582113890148106,0.15640671164844447,1.0126150871291522,-0.15708313652819827
,0.45817784425338126,4.541336944071316,0.09191038298819684,-0.7893213527076767,-0.16554216302326047,0.8122689117914623,0.6230774573523079,0.5661282340765502,-0.059193721616284375,-0.49131952611254864,0.033029182331194104,-0.029892485541348303,1.0552445123467176,0.26902837416172987
,0.3416650864739645,1.4111333554364258,0.197916395375466,-0.5085977162989753,0.019649462930383537,0.21962534567884157,1.0210649293856984,-0.23887699205220833,0.44385211760862836,0.31509298209620873,0.2055692280379974,-0.04552955053820499,0.6330742186229229,0.5544706602761955
,-0.3909162443950893,1.930003457184844,0.20133643618744518,-0.2965455227252131,-0.28674797033889493,0.4086258760338404,0.8132533179763746,-0.4705563137103296,-0.15990923580606195,0.5720804113266106,-0.7906889496112781,-0.11665147414431185,-0.3790221291287751,0.3623550564178928
,-0.983595654118489,2.646269555383607,0.09076065297040278,-0.6001357958279636,0.0015790526356594453,0.11637278727097104,-0.37951532158576434,-0.730418442173292,-0.2660918434749346,0.24211258103047925,-0.24123357890404212,-0.23190944448257972,0.7717340641890192,-0.1127936204125827
,-0.8821967504421678,1.0410394682265356,0.08676296450377492,-0.5026710084347611,-0.06208762093479923,-0.5412231771595021,-0.7925599730194655,-0.5047333897197597,-0.10018984503697848,0.18770955103519174,-0.09896549560972435,-0.24871311185181322,0.8366747325874647,-0.401148314161663
,-0.949489664071969,-0.4584319482484503,0.2785095632331155,-0.5532766578025619,-0.48389902589780037,-0.6355969123854563,-0.3442446276499172,-0.22958271433803126,-0.16674868429268716,0.49680384400442745,0.5867394468209207,-0.17630316467160892,0.9132284530495783,-0.3077604908678462
,-0.6564850026117928,-1.7066968605933586,0.18031265641604224,-0.44835035734410433,-0.22360186483797104,-0.06458289800749765,0.28012467030832044,-0.3072253141222799,0.289435414528189,0.3206836890008222,-0.1991704366130584,0.11298927540099428,0.3058854438735058,0.03950386702354185
,0.014950503546631388,1.7452627997446315,0.3172136819425595,0.2522510000126935,0.5286883231605556,0.3158296519348129,0.4223427863183352,-0.43701597165573874,0.46019541333989633,-0.5105598068690238,-0.5433978826226533,-0.5119859004813536,-0.6610691550590716,0.19083192417257322
,-0.13130456841132346,1.4428230963593498,0.007251503816002934,0.19156860111991644,0.17855053288430633,0.2847292770489086,-0.3247000151061329,0.2539728659992978,0.40930738943392286,0.01897761923378658,0.07860427292011714,-0.9713169352850153,-1.7549224628872875,-0.2089218199028952
,-0.06011587537716323,-1.8044158313514984,-0.6633286419068304,-0.4721037546353018,-0.33053080548089014,0.18840848941171512,-0.09148843841122349,0.20102332412379126,-0.2281042073304347,-0.28167901935153716,0.9595161485597707,-0.8881216422953608,-2.819706365963425,-0.11701405339387573
,-0.2809346730190581,-0.3440842285917925,-0.37524703567785406,-0.8684329184046579,-0.5044720525758395,-0.16473706981876945,0.23930079133406754,-0.23907187411562342,-0.38683268386963904,-0.10195720706715902,0.8653159152957748,-0.468177404933419,-3.7906982750258766,-0.2256002777923746
,0.15729958920906636,-3.183039305094309,-0.09088096799762058,-0.3579713032467479,-0.5405402878321243,-0.25861411410307916,0.7635345166750688,0.2376716838691612,-0.15976654735073326,0.11815144002759703,1.0074976363993666,-0.30553133701230206,-5.973526354745387,-0.14535806329224935
,0.8048224921438943,-5.758766626530042,0.33258652644251574,0.3387974824345755,-0.4602843309616702,-0.007718130903622974,0.7322824347342438,0.3439410276769274,-0.5554357022416135,-0.16332434166490872,2.5799525860194965,0.1258588810731466,-2.526034363593234,0.15988369728943966
,0.21999042087959977,-0.25477260760425535,0.13941305015170344,-0.337786116157024,-0.5237713066089099,-0.6280169453197793,0.3930659567950671,-0.5124202089253692,-0.47216339390930634,-0.42861540596472614,0.47209352820994266,0.03509720163815758,0.8611146335205014,0.6369348937325785
,-0.7561391169530216,7.604049968113047,-0.10351730393628938,-0.7952020479089427,-0.040617889838453776,-0.7600798748149883,-0.34597899210147215,-0.8900506284952773,-0.8910353021956999,-1.003247541135034,-0.4935793521055352,-0.1786971556268791,1.9484120191916694,-0.2246166810064951
,-0.6736025559465738,9.136257850776149,0.013954496675984186,-0.9575587831871516,0.4486461789328142,-0.6565521265463712,0.1677626677030938,-0.47108135363046305,-0.7824070499860443,-0.9886107143445125,-0.9298140703011852,-0.2810321559479599,0.764978924643217,-0.6756635389041868
,-0.2279009041443519,4.269395952559911,-0.35176690024380336,-0.8492346118454333,0.02114024155637289,-0.9269363115576448,-0.8887225735989411,-0.5499780869418448,-0.17507859069625892,-0.2354468222987915,-0.8772465909651543,-0.28180153785692874,0.4749975849733206,-0.35496088994398084
,-0.78735402923707,2.8986642878504965,-0.4473109216768634,-1.0355117212562481,-0.18898003939621763,-0.6235876076633371,-0.9088340989040138,-0.12338817504093973,0.2310778468627444,-0.23616376353013646,-0.7559008518053403,-0.3308734725871127,-0.2786653183095614,-0.7939660702417025
,-1.2378941298461816,4.623059554979992,-0.2841500206753491,-1.1165161787500568,-0.395021483093457,0.05169856780618376,0.1163658747096813,0.5155797715788503,0.13593375470274344,-0.25535487158426506,-0.9560625511183591,-0.2284870619524108,-0.530604187013607,-1.2662344900841365
,-1.1988628943623938,-0.6880247182511389,-0.15036427797121218,-0.6219660019511453,-0.3108298787548606,-0.2985249580708653,-0.2844539776102542,0.7691395270883051,0.32806941954286967,0.05301658904370625,-0.56786794187196,0.005441912900624237,0.09692089796971573,-0.9425092954783363
,-0.21723642111429445,0.0997619440464484,-0.15623418110757795,-0.13959082685417656,-0.03273409209973596,-0.4960799130938658,-0.1871305789502423,0.5668219975262204,0.22779112778793772,-0.27279691457334626,0.46906947474504795,-0.043319394787248916,0.2617877738798207,0.14527656275604417
,-0.3962345876966624,5.369852991423356,0.13442306147205096,0.265142592049648,0.10303550629525574,-0.30310833726403774,0.03223839547514855,-0.3295725407161738,-0.2018838807475391,0.11353083021541707,0.11957859292024264,-0.16425695058493947,0.20264152892953544,-0.3311130101223112
,-0.6889182011501233,8.18792602170691,0.23113011198810518,-0.4104209199768562,0.11399750386863035,1.1300432543390968,-0.15989136897125408,-0.9995906353024724,-0.10544504210496893,0.4529862292356254,0.24671480904423645,-0.26359485857591214,0.7514546581196307,-0.37343883481242823
,-0.2665169555173374,8.5552124230113,1.0989601593529064,-1.274474011371087,-0.4460621146451059,1.010493366344888,0.6481469133502914,-0.40999224272564183,0.0332113479083069,0.06420212949962352,1.1034175551493255,0.03912870313539947,0.7898790735966876,0.2892615752731064
,0.3061201366882848,6.918041022763203,0.5269833315111443,-0.676155469860542,-0.35612226625986615,0.9776389200571127,1.270747787769285,-0.3581600778789434,-0.34876906054222045,-0.12750686950973755,1.6905959450641415,-0.11397815129802867,1.4669654216780859,0.3020080380661151
,0.06208308646297976,0.488829828710583,0.44263236222651897,0.2614508829208584,-0.24897102760735107,-0.10949582113641927,0.27053246255426866,-0.36688182207507586,-0.6424569241799255,-0.13471252141972756,-0.00665218908416812,-0.27619944844826394,1.4939263332949013,-0.36382997527293537
,0.2137800582971723,0.42460172464678,0.19002299704267525,-0.2457007135117414,-0.05009777132235623,-0.7922321962308337,-0.4281254393444667,0.4081184693312966,0.024116534705042145,-0.2828681141783893,-0.09532390369655919,-0.27960920913290893,0.1863885024458193,-0.290699258193883
,-0.6115086710836081,2.021469646126733,-0.11088658205079417,-0.23631697351992872,-0.08999474964519837,-1.1403603129470714,-0.3800000177736978,0.2111567735533412,0.2945657822296307,0.28367409889719786,0.25172121082367555,-0.0960734265739385,1.1405074877329289,-0.3691061132768568
,-1.381617147925734,3.595368982245834,-0.02304017653929776,0.3484029091680259,-0.62893369412652,-0.7517331693075424,-0.18349427149217173,0.00173122933365595,0.6855015751132311,0.08149467473742392,1.4487057165955388,-0.25274230678171855,2.2552029535607683,-0.7361624744621189
,-1.2450545715411652,3.6305969497744233,0.22053714547733,0.7042544099456429,-0.6746373821597371,0.11246576026553493,-0.31297754175688536,0.1969192013323422,-0.2494347519947059,-0.09227869492781823,0.897250226269871,-0.6088033649401173,1.818059086166519,-0.6877082890085797
,-0.3649762932333037,4.691480983620509,0.03466362753520254,0.22354532505180327,-0.5194404072472957,0.3646555785717189,-0.2841455521313762,0.49353086055637496,-0.6725683323074908,0.05757457317751054,-0.280178559294719,-0.3528154134914073,1.6407186241618497,0.4164049908553576
,-0.09793596826023908,-1.261096865415044,-0.07504532834405803,0.11019354590383729,-0.6228551141944156,-0.14043278188143568,-0.1270951846904812,0.4919120655870281,-0.31504373543794556,0.13240383754231388,-0.18967435627880808,0.21066524726906422,1.2727980845444147,1.0950714972802154
,-0.1572160577693316,-0.8284800852903031,0.37706807950079413,0.48060552271002976,-0.5628881505666431,0.004487347248637788,-0.0740442529328336,0.9437607234422003,0.6453736837804996,0.14910668960546455,-0.020690261428624922,0.2827072858422222,-1.1235007983572225,1.2544226169837125
,0.6303781121726344,0.6449099471268465,0.2245807824974397,0.11020293140877467,-0.37144076027031947,0.25325980576523777,-0.08384850136108227,1.0289164691867962,0.2971857587223119,0.17019625943730865,0.4942418905419397,0.18151312441924924,-0.919987594083055,1.1112922733323178
,-0.1596923235419183,2.9245628312170875,0.28301057354081716,-0.14428984179530202,0.3200798101845601,-0.5540994006038715,-0.3517668709923868,0.09439368382492948,0.0023173093553919026,0.5849089819060365,1.5618521793167248,-0.21821934238374058,1.7117382201507672,0.7497738357316267
,0.3157430222294767,0.8638710130696141,0.31057421995579954,0.030314055354501924,0.1288507509156916,-0.3744474647250974,-0.3691125017527466,1.1071348893831008,-0.12828576183397067,0.25565220802120525,0.12240546152164246,-0.0482594538259834,2.3677158905926734,1.159747480170263
,-0.27839558511177603,-2.172121136823957,0.08524872416531465,0.041142370661249233,-0.4386714460884949,0.07080925957398769,0.034474677428588854,0.657750864061004,-0.1865896469996814,-0.07358798610079773,0.31897478907695903,0.12377944389605663,-0.07754547062287605,0.5564611896121374
,-0.6948122001679184,1.7634989251740731,0.3594879313760561,-0.05831382751782579,-0.030758358508070148,-0.23525954520492087,-0.22451387398722544,-0.4027184466600011,-0.5005417536483672,-0.4243497102227723,0.8540438085982106,0.06385474298923655,-1.398646638367503,-0.5002540307613382
,-0.4709261136086285,0.2279230714579535,0.8157285517247974,0.29871191256042157,-0.011243895770514916,-0.4975660856536121,0.14204155060816923,-0.17455610886858813,-0.4181828316912808,-0.1859298903048101,1.256767510116427,0.4886920475962867,-0.050763892522606054,0.03836690004242756
,-0.05381598776989203,-2.3692861399140086,0.7246096096080856,0.6496988043950578,-0.40310731524269283,-0.6144617074446257,0.17795483443393478,1.0243510738576342,-0.2937572548734491,0.31929568283280324,2.1119993852979824,0.0932656092637276,-0.008224380080713172,1.1933898056928753
,0.011608015264515709,1.070793958420704,0.870752273302427,1.2414323894939119,0.20158281818828197,0.09150704335383174,0.10320173336039998,0.7082207504484151,0.20813953518943248,0.6614351037953865,1.8547842122601352,0.009399289299737816,-0.27545431738919096,1.4383920330748636
,-0.1627384527514343,3.1172312035373464,0.4762943202998707,0.250720386707292,-0.3343793012701679,0.32772626166742347,0.22388100351066648,-0.19835892976025146,0.14974201234572132,0.25145279360947415,0.8822059094228141,0.0796481078993431,-0.7089169126296943,0.8350344905846728
,0.038196281921919185,0.3915890290290957,-0.0552498073054563,-0.10918114212416871,-0.3247848465587745,1.086098757140046,0.21940207253378288,-0.3306354836420368,0.6034759463627405,0.4328207001990933,0.45299247670714976,-0.01153830594368391,-0.8810311300730655,0.857040765583464
,-0.06664885237657087,-1.9574839579370615,-0.2418257711583531,0.2570814429987923,-0.05291174956638789,1.0999815452512158,0.1036233114915404,-0.38984180298883003,0.2612505734063955,1.1609841988291358,1.392490185191528,-0.2578261942971195,0.36321824658976487,0.6984505956785958
,-0.11211685578650107,1.550259259911384,-0.007905439510803936,0.25272882494816207,0.34133841833501155,0.3121559765554928,-0.01005422069328144,-0.05179463305798933,-0.1095266303744019,0.5462684988517704,2.9904805575190294,0.026103010314998634,-1.4905366879622934,0.2482623274126625
,-0.3306146802396143,0.11068893474862276,0.23619504089226112,0.36719387429689965,0.9951930392288274,0.4123510903652486,-0.14067733754558512,0.6382694344910501,0.0359087928148869,0.21500811284024518,1.5581109656392098,0.10467781489564892,-1.3966945375980788,0.24761925971207113
,-0.4201419783953136,-2.6834932740485176,0.0489047953168889,-0.03346545538027181,0.5608481335341232,-0.1733900549254185,-0.6122576875957838,0.520215755732083,0.4415062350572079,0.03754033099178437,0.5971180701686462,-0.20255220889658093,-1.6585591633058454,0.06830483158801173
,0.360741525048193,-4.016938847466765,0.019399577023097067,-0.139382467330981,-0.10025632128503315,-0.35744534031073427,-0.7233340069600988,0.12089280913787515,0.6495078653941527,-0.3145698461175247,1.8733708819239958,-0.10448512227516452,0.35787843293499116,0.7526022362820052
,0.012562688687973552,-1.3833122092460135,0.1829329376081484,0.1728183647499152,-0.15296597538856443,0.5101237728261719,0.08174778665472464,0.3459430845037418,0.11153415761647248,-0.45027186479838543,1.3905176273577504,0.14897011153783157,0.034098838904886575,0.8544908728737582
,0.0012390124538529325,1.36577911708815,0.22947780534140605,-0.15119573657035015,-0.1322234229989058,0.8257996300256399,0.7734383104903335,-0.3155258526723888,-0.310213190932017,-0.6639968689207333,-0.024161604874389238,0.01811829094970566,-1.576795048574386,0.4246543053408733
,0.4287245908487111,3.0492285747170915,0.5910585151809867,-0.6726014989156979,-0.5823027262745699,0.3645009119454258,0.2794705316314783,-0.6068651307533598,-0.6528935108518291,0.20296453543871257,0.44545196151370675,0.17714382259689646,-0.9585279555466645,0.7469916264943409
,-0.0834083470061364,0.8993019079614801,0.2642939378036784,-0.6482834153914094,-0.6900729629599041,-0.6773648553193511,0.25488267267490566,-0.43192977578168434,-0.5950862075782714,0.03874670762058942,-0.964615559572224,-0.04415099042822655,-0.7091298944526692,0.38952198558942475
,-0.3514879313390397,0.7187087205843993,-0.15400520419696528,-0.6245381396472877,-0.847317590055293,-0.8306990364013309,0.022381492593538013,-0.8275561054015395,-0.23617330073850137,-0.47290414977182466,-1.598572471964965,-0.3931942389538688,-0.2973443976749427,-0.005900755626709772
,0.5321886014992335,-0.0325293364336518,0.18983893297594592,-0.6927197578439931,-0.5796218031624026,-0.4514385412582835,0.37125847793938055,-0.5173633716134213,-0.46777202090432574,-0.013511221530829336,-1.2211338404707222,-0.28777941692191783,-1.4235073423560975,0.7929164220264308
,-0.01764664157599589,-0.807705849644982,0.34215647579977226,-0.23594922307609387,-0.016352493644554433,-0.00036578733004391647,-0.08170650207256397,0.3509520804374355,0.11871673088617833,0.5075475247076369,0.9061058097906537,0.04060139559212692,-3.2904259202729054,0.5592033486133826
,-0.42830129969422437,-3.221059106334846,0.21391328103151128,0.34868930072883925,0.10067523605172479,-0.2142575465229314,-0.18517177695472745,-0.0661238994539093,-0.2137907912882161,0.24426181089297758,2.327422934656605,0.0887390976240476,-2.830736505013374,0.6307603395994918
,-0.011418049530546958,-0.035022817858265415,0.16067175758845795,1.0683023170403447,-0.2033310823568957,-0.5141676465339029,-0.04966732490173028,-0.6574131450744174,-0.6513279560622104,0.16118953373777886,1.0344565046275611,-0.07210241159536358,-1.4660288179952345,0.14685656848884893
,-0.11933135123696412,-0.20706886879232692,0.13275803970458083,1.3696376070224312,-0.7755251217575899,-0.5384797450732063,-0.5348034639370182,-0.6049631462373977,-0.5892285804880275,-0.35728819312197174,0.8313696258347438,0.06903617854743183,-0.032538044143264264,-0.21447747659005323
,-0.4022888802210391,1.4521905244421118,0.4120159085436724,1.268774357900143,-0.6581009563140027,-0.3933621491715009,-0.01998724064299379,-0.1094075043218886,-0.3722423268631955,-0.50051077653742,-0.2536689232911206,0.47020590653242006,0.7477054649807445,-0.01567609912384594
,-0.41216807360069785,2.8075150846031964,0.3248630344343088,0.7279297113518233,-0.24817154501624245,-0.06410175121807211,0.45133645041941706,0.14491202099439085,-0.2811564784537074,-0.2766971999781333,-0.9186441988759676,0.23102300687238123,-0.15785993328982884,0.2654741832840938
,0.01785229784913009,-0.22753592411127904,0.46025922603849817,0.35080941377309854,-0.17812908977504036,0.05190836007234724,1.1331958114823895,0.2472730903696566,-0.45035065734098223,0.3999963745830133,-0.10422304619334817,0.33920547731536865,-2.1771716172779216,0.6531185775233994
,0.07356543641350657,-4.278417822706639,0.4333787210835091,0.37728364819114546,0.48130855635592673,-0.3476039771035742,0.5938750734000573,0.12976145503172257,-0.2743054917420551,0.3674826945049937,0.7319325823220156,0.14015662398401768,-2.579454497600689,0.6666650847035666
,-0.10065952186739423,-0.3204093800343279,0.15457726327332072,0.47948124811816245,0.1570814333965047,0.028759376383971195,-0.05165903844156885,-0.12478204133175305,-0.520486710395062,1.0284437672649562,2.1081527648614875,0.08437183632436944,-0.41954056041164717,0.4874132099738571
,-0.2626022129337824,1.5700427446401888,0.4834200610538441,-0.09265687348672538,-0.5336185421713221,0.7676680707230983,-0.0870565230669488,0.6002095262065521,0.4226253707392326,0.5823705070398152,1.0404359520577704,-0.4390455593714548,0.159440274588558,0.2606318088452672
,0.1443375492056542,0.5715573929664751,0.30505346835944214,0.042287797234882754,-0.6535136050733437,0.28575144958978077,-0.4558951647747487,0.8472675114736914,0.5437187684175869,0.33244583058035254,0.21676140006166117,-0.5924322553148405,-0.557503535621712,0.3642185048354713
,-0.273984807418666,1.5736060568978039,0.3420644347500315,0.5338834974854715,-0.4030418998034337,0.05960761605845027,-0.09212263923558175,0.04326797543228164,0.028862730569968614,0.17292255305416482,-0.05354007511498927,-0.09619894331766907,-1.5396175464578221,0.2177318571795677
,-0.21851415237023009,-2.6131797312251037,0.498767682128835,-0.2989566319504472,-0.5325349973060953,0.11517230454372411,-0.10778315161425833,0.781866034017345,0.6534361562769601,0.15721650370050974,0.35474968583000244,-0.15868369494328033,-0.5041805010485794,0.378538873530679
,-0.15328431298485437,-8.458805307423209,0.36709621877735205,-0.5747355255079504,-0.6568391165935565,-0.5772933863173353,-0.42877094049510023,1.3866341610230555,0.6496292077648874,0.24049936620391443,0.7861012660850415,-0.32137425798604446,-0.98945334740418,0.19338882121243783
,0.5919532531854338,-5.9878382841406745,0.25634764713660835,0.2199965040788729,-0.1851868059446411,-0.6868146834930505,-0.2521455887456262,1.756205370852161,-0.06066344434194843,0.08803039676650877,0.5406058205523261,-0.09313041146294687,-0.675810935296347,0.5958508119410562
,0.34132232872343454,-3.2100603129431353,0.3227188625599668,0.10644052378680767,0.11619436262796282,-0.037450925555943135,0.1360892511868601,1.9956059139952398,-0.030512300847239427,-0.19346563713228612,-0.5845451465905734,0.029290800577124666,-1.155857463921161,0.45951400725936054
,0.051783153656733194,-1.2363410988198165,0.4347344059059644,0.19132418355891498,-0.008201401916004268,0.5057830868660785,0.39068154800594995,1.3492780089284504,0.13321757078196345,-0.08126357257693134,-0.10907391077694552,-0.2071735367621924,-1.959674197017936,0.34897847839114265
,0.46528509576404437,-5.278239023012116,0.21443555433753764,0.45704742680782323,-0.44220310735292223,0.2152842501689054,0.31498481603860184,0.8920121982542083,0.2804353688918495,0.6346601473106654,-2.2477743990740273,-0.22938434040863004,-2.7722781314879636,0.5776529424059417
,0.13512171946706822,-5.583263576280126,0.19802040137369947,0.4952160335645607,-0.18008823746360797,0.10597980134511971,0.19889557817133707,0.4808321303452487,-0.02634532408227648,0.11602457934333357,-1.4776441774859392,-0.053606528842763276,-0.40050190110761463,-0.1455606477021492
,0.2554895299288409,-3.0352357700947916,0.4426675221014879,0.5789168561162419,-0.4173711268177743,0.2460650974552577,-0.2357813733220117,0.24146155167072728,0.2437719921114506,-0.06625590242726079,0.6575366424777529,-0.12564205973271794,0.5494868348741414,0.31601036522271364
,-0.001593146789895886,0.15513918396630044,0.7323117227595087,-0.17453829217681058,-0.01808199959778515,0.7305725602146967,0.18422710645160617,0.31744237152745214,0.04480465803942289,-0.34984387006134754,-1.089707772308005,0.08889873578486016,-0.15188740887173438,0.11254825933667985
,0.7410941784038801,-2.032427954691628,0.6585318128589376,0.20644909685759683,0.988930957622983,0.8153568902556683,-0.008797398038738526,0.5111976970895742,0.025725446952574213,-0.07568917686748418,-0.4230748460764357,0.0126949909332298,-2.748285864311926,0.5914294949974245
,0.15883951220753376,-1.844115167610822,0.4257515947177183,0.11136636828797354,0.052826431918754385,-0.047405253834361206,0.027234893171272836,0.9904867985388549,-0.11697311176857039,0.11427403752309884,1.0828003763135459,0.4498906032161608,-1.5247037913980583,0.33945293268286236
,-0.11410926635928155,-1.8014255951696132,0.6120155928553112,-0.05484971786645482,-0.3622124286312575,-0.15164391227169685,-0.2011836408730729,0.9849889458734297,-0.092500420467476,0.26638884337729096,1.0108099672223398,0.6260676987657493,-1.9420240991684985,0.2416931009161779
,-0.21387597940774317,-2.0722464089153028,0.3495748033810211,0.7361574035197737,-0.3354399401043276,-0.52621984569501,-0.5787790408324263,0.8089995630934991,-0.07265018117582644,0.1355030851950493,1.164188136733031,0.39029301051927984,-1.3635937936634945,0.7611148419498129
,-0.5415725032248796,-1.747044099453508,0.025744299266518677,0.890516611557549,-0.5167183113949025,-1.1108407078375602,-0.6502424325757734,1.3490168101445947,0.14500493500813363,0.06231829917793206,0.31990858910799486,-0.19348323284669425,-2.2197198980882384,-0.25302238730321874
,-0.23257287364007445,1.1970529829703935,0.4337409272966656,-0.03836836645903578,-0.1376363872885685,-0.756707583873194,-0.38367200599712964,0.7882299266437878,0.5001964287398317,0.45162088522185845,1.3635248063835819,-0.21496225728057994,-1.5701345319996036,-0.31883613703112884
,-0.12991757527914843,0.6087399390195373,0.7437191073350176,-0.6702029001210277,-0.018384605139594203,-0.41486620049142636,-0.08606902664779764,0.3204333169873379,0.11883536409657301,0.034278447602258476,0.19084658143950622,-0.09279571975138669,-0.8435020777977816,0.27641138938774035
,0.2751345999736684,1.179126086313086,0.724999358498915,-0.8854547962167643,-0.23229537484113535,-0.22383803070570935,-0.7937794732544031,-0.4125895591192778,-0.3587096803596159,-0.1396280110419113,-1.154445977677716,-0.1925704675547744,1.7327158075615408,0.8936884739922856
,0.7537878219057029,2.2764948337575004,0.44350083130523615,-0.3558985987900408,-0.07009152864439055,0.14920965539923628,-0.29660630755255124,-0.4517644904194312,-0.31723408450174295,0.2660043112329987,-0.5371986444421349,0.004861522625622157,3.217876991877349,1.6643124289855986
,0.3113192313117886,0.8653199430237704,0.13481726998701762,-0.3724797863021581,0.2050761885475616,0.6331000642069515,-0.13055169496680946,0.3492288825835232,-0.15595363697692685,0.6993672331796472,0.3707661372635415,0.108320636313548,1.519229988155336,0.5858639177258181
,-0.1009631202926761,-2.4845530263314966,-0.04265633365944868,-0.00687243581019805,0.2946434480443068,0.3082884801037353,0.5290236269007585,-0.319404172367007,-0.6057694523008182,0.3925393442962238,0.2704224549776184,0.028152119526331728,0.24016712119003933,0.226164438339238
,-0.31207403668208933,-0.9630695999106145,0.5587953602398349,0.3141595526602529,0.41128455117533086,0.07476625542640288,-0.11429680894380698,-0.5252492758692636,-0.6316128807091071,-0.01830761224173814,-0.022354667497877727,0.07101408071517244,-1.152987513529496,0.8632921391950554
,-0.4333020893649908,0.3661599211761329,0.7625400740144193,0.2556298017466523,0.6734781471029448,0.6683797131421422,-0.30847522270538646,-0.5869162430922459,0.14449163135099957,0.577260490444183,1.4675916161716527,0.09388181110667704,-1.7681968175166574,0.5103934747134223
,0.132328584375737,2.6862274131029684,0.7665571599267579,0.37147283296881756,0.3823139939790608,0.9508883312653716,-0.07268411302857573,-0.36096200583632027,0.39145882756887046,0.6846635602129696,0.9843220663481438,0.24795030048226652,1.164494452630068,0.5745779291448633
,0.366897690288586,4.7786514107501565,0.5213600952214115,-0.4140213145200314,-0.33725705468355865,0.3795780238191891,0.05667131248564211,0.8061025178207164,-0.31243300355731285,-0.24339639899740018,-0.6086464194461126,0.39288915892558146,1.9492302444681435,0.030702469979120444
,0.00038894764077023294,1.6737417314656333,0.14389714136502177,-0.6480826535760168,-0.37292808137360356,-0.4238267420639755,-0.1306872361449996,-0.6056963726997674,-0.7256262799346085,0.10452829467202272,0.26579774199668915,-0.25906855152275227,0.47384867827041477,-0.14786213629128142
,-0.023061166149658613,-0.4219700878759252,-0.00504139160706812,-0.537642778544861,-0.39771890843676777,-0.2535265536581459,-0.44938122706601497,-1.0647222582579987,-0.8790319369489165,0.06645555614732207,0.1317578885787166,-0.41199774493618474,-0.7929854749081789,-0.06134437173773839
,0.44484776546033844,2.6766809298365644,0.14008946399358427,-0.21763312443702082,-0.5488572366292298,-0.3548170373072619,-0.20476654997342733,-0.9593497661313691,-1.0920869865417386,-0.2874847804017864,-0.6195553385981359,0.12567486083791604,-1.80998647744725,0.41762295649488973
,-0.12044158569484639,-0.9674890431560577,0.1621951197455922,-0.01783706722527711,-0.6790254200004823,-0.9560821964192499,-0.16375454327552827,-0.27088673031343674,-0.8303345173780426,-0.5694367288056658,0.6827783466328189,0.44393653088294466,-0.6818494600828552,0.07844902937498868
,-0.29867058837127025,-0.2049568367836041,0.12322250947224041,-0.6247468971783864,-0.00998798169210579,-0.5070756830015186,0.1310491673276381,-0.009111499857329439,-0.2487442088642064,-0.3363111608643632,0.8655673367371977,0.012406902242438485,0.025518423823208344,0.33074097229131283
,-0.12726945819140909,2.973527818976323,0.3992314594638148,-0.45172990795691287,-0.12427485484446443,0.7731221326052092,1.0747001453000213,0.3119171222494441,-0.005198951496423092,-0.5358052426810698,-0.1813427653601332,-0.31200144466880425,0.1563436925926479,0.5039100135606434
,0.6553901473973899,0.765221278552844,0.2882784076445378,-0.3885590411626462,-0.2780746058769234,-0.31318533349737365,-0.11047975214867013,-0.05888738388484144,-0.7690221827687134,-0.6574252699802731,0.3446664496727832,-0.3511487659247751,-0.4685673995130779,0.4821035902453581
,-0.09484300503097104,-0.3682327546191616,0.013690543207682539,-0.299442755257622,-0.5712857927217929,-0.3415082724821901,0.16463804782224845,-0.2006333652668234,-0.21993203270632483,-0.21135271405045525,1.4770674079640884,0.30898698771822874,-1.0309150413182486,0.1554691826979044
,-0.49246395577382446,1.468984107415298,-0.10180111880847952,-0.0006938752943988578,-0.5948366839074877,-0.501133977370832,-0.7377797124618608,-0.036740265985477506,0.7027929776378489,0.20221453828325084,0.613506036428808,0.09157279278063442,-1.2208611834633427,-0.361506039696162
,0.2101566221738091,-0.08233223234751633,-0.030676753775736268,0.922536469760674,0.2528950305329558,-0.37832226094314536,-0.5297569755377188,0.2665651586442192,0.9222941570785171,0.07008105459671868,1.6848198309608085,0.40141650311160254,0.4735386575954255,0.19812615246462315
,0.9728320454974443,-0.2887399999520516,0.33291277742767605,-0.0906663954152851,-0.4623750708811565,-0.7517508940999612,0.014332117510954336,0.6257616389736135,0.8461446386959129,0.4018534574976264,0.3911529758791338,0.24265544514953316,0.8467796046740849,0.46519732495318017
,0.8974642304180839,-0.2521180930969419,0.6523442516152915,0.3342140168828403,-0.4617477192213535,-0.4009980972058643,0.4032386615168106,0.6061774002000003,0.7101683091883433,1.0038258316380317,0.9624235378226299,0.2099466208598603,-1.3822367120546857,0.517097820590242
,0.4020651405546282,0.8235397233688861,0.35504549804292457,0.5783505555290517,0.10224722276670595,0.6023746358256808,0.4397634633547348,-0.5682241070181395,0.10242917183911222,-0.14590503216816697,1.9563771294262704,-0.037715212880498464,-2.6041054840294566,0.8038297567883002
,0.9720039368575448,1.0924440564824838,0.3657329096280668,0.1320358348627705,-0.054413529057738365,0.9399860847053312,0.7326434312412795,-0.830082970270243,0.09342048694968198,-0.23835114147434544,3.0164955507461286,-0.32019288321773315,-0.991697610255704,0.4638692894059841
,0.0644226364546008,1.7530234512945662,0.04380134187777104,-0.15978148658164587,-0.029728430030065832,0.4642544852230318,0.6171735329578986,-0.10871385991422529,0.24909592074857956,0.6361971449637248,1.8659759533354972,0.02711964339895934,0.3370218423762277,0.7304291429425976
D1,-0.1991997629676331,1.532712322109844,0.12252626722341947,0.12344410646053536,0.1251246172412754,-0.07281306584930164,0.009912432063462975,0.4386657401659354,0.7150514857775999,0.0005792139974071671,0.5633132851338096,-0.17652769361687456,0.3039024308192442,0.6285716351405537
,0.15481273457958117,0.3750898067477566,0.38631982937162723,0.027654362493857883,0.31497062622192096,-0.07040344483725366,-0.5376469778083589,0.15285389268414268,0.4395937282105045,-0.7111810515657692,1.1405655933976389,-0.2155006333126204,-0.9330925117119808,0.16858976940808473
,0.5845582564219541,0.43867454480137275,0.6877520854409754,-0.20209582087724354,-0.16741215802992543,0.047178837186319,-0.48799676617094756,0.2968097488817979,0.32048807966342674,-0.19442076693353744,-0.039034292390159396,-0.1750525800624254,-0.9004468842519231,-0.21032819738731853
,0.6238934661334474,-0.37704362520681717,0.43982601861266585,-0.16359869697709348,-0.6981580875164631,0.00973826165214773,-0.26602161788701423,0.0014623008620104204,-0.11017489880428394,0.9497449395800781,-0.8163394946412352,-0.1356535916084043,-1.5498811211622896,0.7209614885611668
,0.8013197813651599,-0.8966356875199055,0.27328198538246823,-0.5428013533998233,-0.08523394956171938,-0.3662737260540623,-0.05732100234577899,-0.33148218392190487,-0.24831006154870722,0.23929520694099812,0.5005797837845166,-0.03273360129913682,-0.5887933671541288,0.9425764049160241
,0.852389076668389,1.2087337739164308,0.2387170963999087,-0.1726048363736267,0.003909043700706658,-0.6006121641676679,0.12757714444637333,-0.08443600536510892,-0.14049637267667978,-0.17930661905866915,0.41661889028742044,-0.1578602067152203,-0.233285464632739,0.9172106516531002
,-0.3191739826357293,-0.8515174244844002,-0.36747989968607736,-0.9245854934683302,-0.13849491236017109,-0.422973355030336,0.8453723702895279,-0.3297531950596332,-0.47406518515873836,-0.010146466410120526,0.8123391127799654,0.006769171617761792,-1.0597667070948722,0.5616731116050203
,-0.6483125369572705,0.053993934192133414,-0.10356502332428148,-0.32299681235569666,-0.5911838812891653,0.17675324003101087,0.32520993741367304,0.44305581105162994,0.06897291488319443,0.14994810507136347,2.2161701675855627,-0.41369015854511126,-0.03914961039789688,-0.1698441313968975
,-0.3551395794500248,2.8221823690378534,0.13747258330449363,0.08532995602305303,-0.7617045977895532,0.4759017536515936,-0.16512959290337814,0.3616026162976246,0.8365000210644369,-0.1006673087238237,0.43167322790315865,-0.2414630423238504,-1.2431307761368477,0.2319321528993084
,-0.11434790376235555,2.5722011213238596,-0.20774851179675002,0.3714964139341226,0.1650917474161024,0.3276798715811969,0.6795470815719488,0.08036269672401339,0.5442609547860426,-0.008089580028268149,0.08268490112177601,0.12391347505807887,-2.023700659276659,0.5931718934709462
,-0.28299762491782754,0.5837710359071188,0.014813274672122796,0.6036339951355943,0.29108295945542945,0.4576804237873488,1.0570499184933155,0.3371309329704446,0.9212098702261636,-0.11464237968765877,-0.14760463874838692,0.08078413592836121,-0.2726457543530962,0.665753440646411
,-0.13630699847692726,1.47958926196321,0.6334123212251546,0.8665498438631754,0.0413458567796766,1.2304439242214056,0.3788772233739665,0.3462445095973326,0.8519600741994371,0.2579989640739013,0.1550186851274344,0.4232564309774359,-1.808149864299948,0.7015966798300272
,-0.30858681024980983,0.7991495636575879,0.4362678408083011,0.08293983347063734,-0.0015312547361823556,0.7002132678470068,0.2571695122473874,0.1363446155814606,-0.12488198328456027,-0.2153947186000971,0.6271196394571208,0.3858667174353347,-3.396143985280032,0.4842226547066963
,0.5125577974285312,-5.151028923124161,0.5198063096552036,0.47837251723058966,-0.6003961749011959,0.2759429640731638,0.8848316044860471,0.5434160094818024,-0.20378544027113996,-0.20393108378345096,1.4514081113396957,0.2328547666981859,-1.6692282606877653,0.45815785165144496
,0.26357909362479137,-2.8453536687204646,0.8741872919917344,0.7021566179954137,-0.30526800562964185,0.8028660911269292,0.3707947123379409,0.28207078979282996,0.21960537142957182,-0.5071376844777888,3.001228220495693,0.17032589065436055,-0.5512497401383145,0.2617646183430314
,-0.3564534863691415,-1.7741662231842064,0.6687006652212525,0.44123582466501443,-0.04957197610798149,1.2342838522447899,0.07196097214695023,0.9020444648287166,0.11061156696989641,-0.37722402381350484,1.2303863742740553,0.38891964309214594,-0.7757459985725745,0.6688487157924523
,0.1439665186293863,0.8105386696679703,0.6792943207115425,0.20444152604435964,0.736795498968553,0.8702482656477638,-0.11832016238617973,-0.18662704657017318,-0.585922025236752,0.24944446648600613,-0.6544089752041894,0.4853524168886419,-0.3049352762468408,1.9744012447479888
,-0.09693749623253502,-1.0469296865577624,0.21950351705955382,-0.0023575175736398404,0.15976873950545914,-0.026279425019044705,-0.16980799293221982,-0.2540755197451137,-0.4577424275446644,0.8950945803729139,-0.4616886295864767,0.24720476182162796,-0.7786153050725342,0.29631122927813724
,-0.008564940186500534,1.2152078991969972,0.10287856198786584,-0.6481916315508447,-0.6877803761298585,-0.5353051844289839,-0.40583942041546495,0.24516031018852838,-0.2932724401733346,0.23276913971172358,-1.2337160122638826,-0.24989359510870154,-1.7010446768089045,-0.36105805931821344
,0.3844726291676519,-0.6153325508489086,-0.33173493671581444,-0.3913797298797567,-0.8903324483190906,-0.3345988740728871,-0.17696388181543496,-0.4971833215552014,-0.5428729858359376,-0.39594887712633536,-1.0356987912702313,-0.5566776180282301,0.6115391161637521,-0.10126652246953541
,0.007725977101275725,-3.2633570017479294,-0.09958960988376844,0.5089273550037804,-0.5705036558378535,-0.18231414455167852,-0.09040375500708765,-0.37853934785770194,-0.030767919867325733,-0.15132488598352115,1.288987897114755,-0.3393398245966346,0.6891661965597036,0.2596562319707714
,-0.6329322722852757,1.6751617696079626,0.46203445189818515,0.5613264507337303,-0.13107114286925528,0.5100745944952393,-0.46510736869924335,0.1805242207425827,0.1650457391264104,0.14990240930302448,0.5371781873594484,0.15788174102399893,-2.500001209028468,0.08491841884059335
,-0.8432020272019548,4.725919582869316,0.0022545982397074926,-0.07790831550613822,-0.2928641653993017,0.5686013395361884,-0.6482846603457371,-0.16018822889438525,-0.14095226995519486,0.10823778131428392,-0.6976362923223267,0.021791943314333,-2.3743283715502237,0.6645468850942694
,-0.12812910764992366,1.2921737278484537,0.21499482478124327,-0.10029844057697444,-0.16288192980599642,0.08966022265239676,0.4962236469404447,-0.5187151160449236,0.0298664430356378,0.3629922822236654,0.21076114794273393,-0.03670150048436847,-2.384541841102011,0.3923335682934575
,-0.4174326372156138,0.9973858061766396,0.5724089830750111,-0.19821426449876148,0.07804915033267236,-0.048252621383715374,0.48069563649688907,-0.43432638836429227,0.10080219337468892,0.7097132621072978,1.3137132046777178,0.1778983097869112,-0.30831956845443964,0.6366210185770091
,-0.1259848762704364,3.808453197516417,0.5741069676142971,0.3418486781586464,-0.28377914663507575,-0.7678261534482456,-0.45804351188023756,0.0623723057135748,-0.05563628897518645,0.5223607751265064,0.5216367768202972,0.4091894040756324,1.7288029432506662,0.5817489109294991
,0.19176097028256642,1.1482597503271232,0.04732195947628954,1.0077729722434063,0.00762013752254793,-0.4609841440713404,0.009441953117758056,0.04453749888575011,0.3189495847862188,-0.06031152453259528,-0.08516564488454553,0.23161723591378808,1.1200721735223829,0.6684762887896089
,0.061361400754426594,-3.1113394986206377,0.20092321116456502,0.10496765870487122,0.22978874510939465,-0.4717116862125479,-0.0785293968451939,0.2670347339474156,0.14404711567752965,-0.36733566114051325,-0.03743232175622426,0.12786239636354182,-1.3224721123111214,0.9665317863859955
,-0.39683098859552746,-3.0169692429304567,0.40539311431960084,-0.14064785981078912,-0.3723209429867353,-0.42085483616731706,0.057312842903727054,0.25484553818408,-0.5338334119409545,-0.6616145739745765,-0.30513598382607615,0.040854458681212805,-0.8532596531458245,0.5671179243476004
,-0.19666424108305833,0.9141691200586117,0.6597471099452507,0.4779741380710983,0.050530475177706244,-0.03302985104273681,0.2306672738235143,0.2394593799407305,0.019510520628182735,0.21820422657429134,0.3263016449178082,-0.00437091171251372,-0.06180618349451551,0.49550135974134746
