event,eeg.af3,eeg.f7,eeg.f3,eeg.fc5,eeg.t7,eeg.p7,eeg.o1,eeg.o2,eeg.p8,eeg.t8,eeg.fc6,eeg.f4,eeg.f8,eeg.af4
,-0.9663231989467949,3.577246210320655,0.11234923618267831,-0.8243448397648738,-0.4251433900871707,-0.6731385991071123,-0.38252850069863614,-0.00784168022475945,-0.09465344763803982,-0.3908984275244423,0.7233597106160026,-0.15257905082443945,2.5025271912695435,-0.3508272948017801
,-1.6081604447543656,6.989580966052456,-0.182889846605267,-1.0253125625790385,-0.7535260380222746,-0.719162650225076,0.09993050527332444,-0.10174817464772473,-0.30443577061575067,-0.5693227265672689,-0.21180154628824777,0.03246740353373782,7.774866680587732,-0.6839197703918097
,-1.122090712098871,7.692756462769153,-0.006479965429934881,-0.992633250380115,-0.6099731298286759,-0.40196680212621194,0.16711684106007416,0.13880543113640126,-0.07675156120240875,-0.14351292794360565,-0.5142021325367037,-0.17264062833915686,3.67665859177152,-0.3988967364870093
,-1.1745706814017371,9.00586398473717,-0.15633947916265317,-1.330525700202782,-0.27486166308830084,-0.2864439894145485,0.007842240762629817,-0.24336723163674842,-0.4681917097975663,0.18151444770203112,0.347124316298289,-0.27264385270146096,1.7106751831532072,-0.5700690078511269
,-0.7973999092509068,3.536807817803083,0.07646400455959403,-0.8072483938064953,0.4489459940771243,0.06796867514526751,-0.40150766535307914,-0.6045181087793868,-0.4618085968355852,0.27659385247637736,0.8584341284911122,-0.03470301721805966,3.2907408471843906,-0.46691072822572494
,-0.0011798601611883305,-0.43869701963294705,0.4198273491327145,-0.6407442065823766,-0.15711803251762388,1.3284358223656554,-0.21130490579247316,-0.2678532428739929,-0.41539047380757965,0.004279312434866531,-0.01940645085539571,0.1937470719356957,1.1805428330028807,-0.5706270444223485
,0.11414094296722165,-1.53888745924852,0.16996216201035708,-0.4726209762583197,-0.36044854022712003,0.8949518253467316,-0.10283881497772339,-0.2305083248895613,-0.0006271915187405861,-0.20736181279067006,-0.3740960048124454,0.23480226782791175,1.0679048892699452,-0.5567339137428734
,0.056958090476969765,-3.2355493350660067,-0.26893042799278744,-0.961178763350173,0.01660283389145158,0.8779913981142309,0.3815684489498742,0.013096525107272114,0.6623074963271279,0.04307603121223708,-0.3694534733595498,0.22553998265435546,0.28547260820438775,-0.33773407542570544
,0.34221064733005246,-1.0463756512828337,-0.2684181065029765,-0.6535758089981929,0.3398339458176489,0.6145753067196084,0.1545895422169169,0.4257564278201008,0.22182430482502824,-0.2942812078729081,-0.19760309873952628,0.22698862403252787,1.8457556030685982,-0.029505185090401155
,-0.36516985203498736,0.1769795878925202,0.02396990860817505,-0.39876404742480404,-0.20500023075365018,0.21194612697874043,0.02469765175320404,-0.5469215974617998,-0.6939517282562012,-0.5521915396198469,0.4402365545534332,0.3013651916157057,-0.6150765521935898,-0.20952447253369214
,-0.7155461313789581,0.5112643264586701,0.2191016423231814,-0.7180358813348665,-0.30230709738662154,-0.22389986111304283,0.23208639209138596,-0.7283848381749465,-0.3633904666249944,-0.42535770940911966,-1.0036291639390436,-0.41536142567328965,2.0757503550037897,-0.8746953102888665
,-0.5201685389396206,4.444764262459438,0.22107491218551337,-1.069378826512437,-0.4039214705066905,0.4146624301435595,0.14679408342684838,-0.6361579485744251,-0.3187477133599584,-0.26740297919328043,-1.0146270567960682,-0.5107355223987269,2.20092277339246,-0.8441051129909188
,-0.3469645722581336,5.165028109004258,-0.21262644752046747,-1.3468694794287492,-0.40760100520289627,0.6079899697754784,0.4118993706317585,-0.5021274061169224,-0.9776165589370709,-0.8458048260174905,-1.1656285818282754,-0.023433755009876465,5.5276336150166925,-0.32242945650714144
,-1.0503380622881833,1.8877933207107322,-0.3466397351760174,-1.4737321762248117,-0.3502746780557344,-0.3394566219632207,-0.712389106725881,-0.9116424565110264,-1.1432306985930445,-0.938174661364096,-0.4326008502192615,-0.3610060393694393,10.21105063195777,-0.6617726099804606
,-0.7699897511260756,0.08361285771916423,0.06637979294275625,-1.100424826488152,-0.5103521329132665,-0.2620749095009534,-0.3548004439083177,-0.5778869950511276,-0.35151101176357863,-0.57006113777051,-0.13607602137779973,-0.27847117884043365,7.984769586333672,-0.3922906204410251
,0.015165650977795079,1.0641045344202964,0.2714190179833278,-1.0289363165534628,-0.3539914752914825,0.4798434856457495,0.1706536225032825,-0.05502384079778816,0.4539414198488424,-0.3770147676603199,-0.6161258284442072,0.0063810967249175645,3.0481840578757637,-0.29495989999119976
,-0.21431674274633752,6.048848584180729,0.01660582254582823,-1.3913805908272492,-0.69636019489332,-0.37162197381448003,-0.08450904609655151,0.3972960900332343,0.13007878860566316,-0.24169335020763744,-0.910083661419633,-0.21121935930965263,4.391484742737479,-0.503030064439594
,-0.4058702793274319,6.4561603376693775,0.07586352659279375,-1.3092363438731365,-0.7314807023197455,-0.41792580097139786,0.3074030948755503,-0.18407069701358425,-0.3849854040011821,-1.0164321276571464,-0.751291912187767,-0.16035372924318897,3.1005167224645187,-0.40298100230523165
,-0.29481747595335045,3.6377936354212146,0.13558588603364904,-0.761348649683329,-1.0724093377188444,0.19074823909239189,0.054808672588914815,-0.1893519095210355,-0.4857872656205255,-0.8399790434597552,-0.7874480922377164,-0.18719882825314368,1.286420510635759,-0.23394912000101362
,0.4820819059164474,-2.1767148372982805,-0.17759849541053538,-0.4241130091416572,-0.34227277021011543,-0.031114265999793063,0.041543477245571205,-0.20797918363417042,-0.44342853343376526,-0.7352701972202659,-0.12909722830988607,-0.18715221645039729,1.6121352364416937,0.021274158783994572
,0.025213691960010436,3.570301487178784,-0.22062211654939148,-1.6411253160787018,-0.030621178840367743,0.09493384369856912,0.8234911945094852,-0.5217209743738457,-0.7134621112552758,-0.24690312895128078,0.825377640056921,-0.01713648878932741,4.751579147469904,0.06622651101773659
,-0.08821710683342598,4.874034182791471,-0.36430296632166137,-1.4386021199162726,-0.2561751902646166,0.8163150726473335,0.30356635456292935,-0.35769200437828924,-0.9123303552538948,-0.20074608400872468,-0.21708397497361745,0.46889415584034627,4.223160692955651,0.15117792420262308
,-0.4458606292218127,0.17082860784080997,-0.08518738402511519,-0.08423937396120154,-0.5206183593337173,0.10435781849042425,-0.01941760805434072,0.022748381444253726,0.12105648672552508,-0.24907199649205178,-0.812727881730979,-0.39386615297608085,2.3809490100372543,-0.0684502266993293
,-0.43008745536555265,2.488287082977356,-0.2198634556846859,-1.0012742486075585,-0.7637962169746411,-0.1284991147867,-0.15517955533046437,0.12467522904873941,-0.3005423315673125,-0.029003361834298,-0.8970774572498661,-0.5476356165730168,10.213830386383991,-0.4551013566794332
,-0.7857660291583226,3.1181225650019577,-0.2861408307732913,-0.9757570868537234,-0.22477278012289817,-0.34234301048413895,-0.752523868957928,-0.4647730553654746,-0.5671126852111835,-0.2841975783984447,0.2259009326205026,-0.46889282294002355,7.766390414674118,-0.8436970865341565
,-0.4026872864210579,1.4786747258187227,-0.29741388031512794,-0.272320274630221,0.20398468956409582,-0.28158737579047854,-0.2893400449978998,-0.1422961829847229,-0.539833777309833,-0.5166347868808788,0.8377772946113956,-0.533841130418975,-0.36545108551116695,-0.662586094322702
,1.0915894796161938,-0.49864171412069175,0.01173055126737193,0.19922070151680818,0.047330236967591616,0.3196915728285449,0.55421063626797,0.49242045268087636,-0.7166533862533403,-0.9277876001997505,1.1127960728262154,-0.027718658858605884,-2.2003673287541763,-0.07691590784521433
,0.6067538174199922,-0.8141168820913733,-0.6401163765636871,-0.11747491882263278,-0.1709046668767113,-0.06843395791265407,0.23576844794192853,0.14728175025684243,-0.12348981583284813,-0.6675815988975696,0.4970272500328916,-0.12874062119618193,-5.460627059326712,0.17699297812968778
,0.09815221761430816,-1.4229808610187726,-1.5214430060906208,-1.6811435712753335,-0.33643743064298076,-0.6587782981890886,-0.17715570873374747,-0.3414880616792236,-0.3412884442272276,-0.39353138380281816,-0.23066009015597114,-0.36058575847240465,-3.4722909737519236,0.24020821181074278
,-0.12494569557340404,2.0675718857926144,-1.3315285820628942,-2.1031135123305154,-0.6472192100313138,-0.5156550557849876,-0.0668816058488776,-0.6131953419823215,-0.42839922098096656,0.32117283972169597,-0.32321149433946617,-0.1386514154285408,1.8561659005643263,-0.3314859598621922
,-0.28797419433042465,3.712594761546139,0.04938560995436688,-1.0250632207612829,-0.9115045869708392,-0.7814056255480157,-0.9418535287995701,0.0052155464641459705,-0.38573675522023465,0.23494581588802654,-1.469449942907924,0.5776139777741252,6.5050235946783745,-0.5349501089859979
,0.22576140624411162,-1.1695728856935625,-0.027941379245182446,-0.6785066628200652,-0.5178554461921722,-0.2570375068679798,-0.6570625501360352,0.7388878948464519,-0.11566865575642896,-0.20516292482954923,-0.9017005928286888,0.26757475605176023,2.4979470555521477,-0.12365151545750779
,-0.20692606226639107,1.9655807661640994,-0.03218401974947852,-0.17044011936011588,0.1612708851329877,-0.1276345527100745,0.1199119383724445,0.28793243951801245,-0.15041949693488899,-0.3442798596712875,0.8476369300839408,-0.017068996524290708,-0.31292369707799694,-0.4380621189927723
,-0.46016111190988823,1.442459276418824,0.13155433883233478,0.11348836743405699,-0.0760462429526718,-0.29585462908881244,0.2492008635657061,-0.0539815150272603,-0.32382270051719503,-0.31197776108599756,0.6974840275608073,0.14786431747209,-3.6860723465288636,-0.4318153206725189
,-0.4022671476598244,1.3121034846193327,0.4098208860762901,-0.18528567741233187,-0.5279263816545521,-0.503506469643279,-0.45009154972524434,-0.3823658726229984,-0.25822784756003825,-0.176850066069366,-0.3982173517085286,0.1555366454225981,-4.848033382690854,-0.19874167480204874
,-0.7546322623617807,0.0223718160772966,-0.053762556502636845,-1.2003460156118955,-0.8235761884897032,-0.7253056003675217,-0.6738817180415876,-0.4475747358103697,-0.5632815829314974,-0.749331370359006,-1.5034545307506955,0.014683915436462212,-0.6422331993419608,-0.4824136954817286
,-0.27314293017982444,-1.4352976040722658,-0.3152090738207247,-1.2732872083846594,-0.9515626135972851,-1.0182037184964121,-0.4862117419735196,-0.4572310074247549,-0.7659466887801694,-0.8733360301270368,-1.7356475163603087,-0.15033486038527674,2.6265904666958293,-0.292329311502811
,0.03692250301793572,-2.035481834912265,-0.05370864454690275,-0.2723276158898903,-0.48275768075868775,-0.36939858722126034,0.13681120092904642,-0.05609970701236515,-0.47892840117574476,-0.7521134722199049,-1.054525086435896,0.22890122284422518,0.9546062057387895,-0.21502138359140174
,0.22769025359598868,-0.004259540772175804,0.31045619502646005,-0.4822993126808462,-0.471370542308786,1.0155289599234472,0.11259572963328761,0.042427454410421166,0.027037456539669207,-0.6596892994345426,0.5960662732222106,-0.04489989707848062,0.2809891590056186,-0.4247393279278147
,-0.35272765997784067,1.2166932834941913,0.2864349078088852,-0.667658356382154,-0.24176193158777273,1.395554607313282,-0.11651402790610899,-0.2225796866530432,-0.16750755845163853,-0.37227560280423067,0.37466827697035077,0.03903135577990817,0.7391585531882268,0.004674690571066129
,-0.5262922336702569,0.188434212759505,0.08226498511359029,-0.5359099220274859,-0.5757463137264189,1.5982355587949144,0.7443591188123321,-0.7382261326080276,-0.591733890487042,-0.6713662722225221,-0.03214426589224318,-1.3825008146721196,-3.6826175639870296,0.12503281171215921
,-0.19713009833857834,0.45348855745213656,-0.14312379001657147,-0.07253016524735298,-0.33712068337990286,0.9868176943946272,-0.10667739481054148,-0.547352098662674,-0.1706052074732099,-0.5126412559404178,-0.5884207657870356,-1.764200993479778,4.047877401880284,-0.20015953721884822
,-0.9162666391198332,4.664655848244419,-0.2179050593309666,-1.2290068618362475,-0.07617032583469487,-0.07354767870179793,-0.12882148010300618,-0.2754660414757068,0.3553126388738774,0.24309385324251462,-2.217487893165892,-1.0291804114799608,11.002873382750193,-0.6822428623894315
,-0.9848064308384642,4.848544301840492,-0.39530833818986366,-1.6230066361951738,0.22184149226564429,-0.3081499669083225,0.2686384444246218,0.27893850985751534,0.3962103111028983,0.22136968031011087,-1.4918891808136265,-0.4645664116517032,7.543493601486759,-0.6944054379310974
,-0.2654822159863026,2.855186067983791,-0.2553779697765444,-1.019709094301372,0.07220611040186467,-0.2186882645955318,0.5077266070955612,0.010054761796902578,0.5943464542869616,-0.2791365659442892,0.2702923864070821,-0.15455001151627976,5.152068081249264,-0.22475531996812434
,-0.6007719246620434,5.144345031396885,-0.07456357161559539,-0.32616175217835836,-0.20247576645969745,0.04654088024418013,0.23743477498866092,-0.217048672988015,0.10194900570665802,-0.2785132528548916,-0.2601991178204392,0.05690113681758277,2.9563657140809494,-0.26895096774671107
,-0.8811510939529847,6.162496180153647,-0.12888600340384204,-0.7385415312226445,-0.4535155590637967,-0.43277385008145136,-0.3440838245532592,-0.7985087423168709,-0.1828515191409176,-0.09192837725125143,-0.3084686917600997,-0.22109415343816524,3.553302646786429,0.0070496720148168586
,-0.4830578382611576,1.416905197687318,0.024332002935111965,-0.5020484198168509,-0.1603457552969731,-0.2478536504723924,-0.6684440896704037,-0.479218923883771,-0.07784470883335814,-0.3314934434908115,-0.6850149265783771,-0.37099128390038555,2.547840119775048,-0.3642310237516912
,-0.32732453009442736,-1.6121164500878553,0.05117420369212917,-0.3770794674073309,0.36981570150848503,-0.11851721962999923,-0.5921430492013912,-0.5535261824265452,-0.07252303798688489,-0.439695890765324,-0.7830466007785847,-0.07153386348379594,2.0769823920527215,-0.5589283563916295
,-0.8238987340280542,-2.459433169104877,-0.1995682164189671,-0.9182896563477739,0.32730392845243717,-0.5269475428172906,-0.7605692110756397,-0.9522032567689466,-0.7331771379846063,-0.4544691299019511,-1.3354033959021179,-0.24810352529665203,2.551978170208915,-0.6125449036743749
,-0.5437341181956501,1.135676646077794,-0.38667186836464923,-0.957929886807569,0.35234924209627877,-0.6341015249038122,-0.9284444983037963,-0.6054925733543781,-0.699541557922076,-0.6877433814029189,-1.510210904483736,-0.4310302098821673,-0.3221398298157091,-0.5653256615269607
,-0.4163852090569723,2.325195723929143,-0.24437444666404567,-0.5146808532244952,-0.3323713105042455,-0.13649960700584785,-0.19207505133598507,0.1281238999151787,0.36070756570411355,-0.29108304548908365,0.4389764090106073,-0.06595391694548171,5.105280536982586,-0.09120630642971402
,-0.11565599806564619,2.1720548380807636,-0.16689782597944552,-0.6789694037118351,-0.4449403860627802,0.609776939760645,0.3726053094726694,0.1495855222106176,0.6555472145789365,0.13234569498306772,1.1550880529362708,0.2526899341500505,3.8537907580591773,0.4039203970959262
,0.5330981776292351,1.4844884663649773,-0.05706283398573479,-1.049653482388159,-0.5418440220750461,0.4558612860658607,0.13131019773930527,-0.15964943623289993,-0.07970172111704,0.06507676041993407,0.024323042724324898,-0.10344453187552063,-0.3636347495336764,0.15620274780547866
,0.9477798764391302,1.6355246736692093,0.3287448956234874,-1.0327337390032307,-0.4002775761054903,-0.24911725494151693,0.03766033382428943,0.0734666358745159,0.45256161627252284,0.222024783539021,-0.5316740849205953,-0.3913514814022608,2.4267845604384637,-0.07040479116580249
,0.20737904222520434,3.0000762102622933,0.2460817485996119,-1.2232096241420307,-0.1482718164099747,-0.32952673495772844,-0.8705610259393256,-0.214986217215785,0.06011473164597311,0.14267795673233166,-0.761607050247549,-0.26997703902341225,1.065844982778081,-0.4275400042275661
,-0.2800843258840644,1.475232682915058,0.12991137483879284,-1.5364549261220575,-0.19286702466868133,-0.3696452152858711,-0.7342535450957525,0.02294783677515775,-0.20206029761097177,0.08739295332793377,-0.6191887983621023,-0.10105700892094428,4.856435065916514,-0.2717031178452715
,-0.37031021450412566,-2.8420132039385098,0.024171189819050143,-1.0892629633023236,-0.9509037256637983,-0.32916894318973233,-0.03460218759830968,-0.1888561982261498,0.24282790900782367,-0.5666375528628987,-1.4632977474168325,-0.15442127355734098,4.585484146776582,-0.5165129054856102
,-0.4611388635722699,-1.2126906524653895,-0.16212386948418006,-0.5094479696779238,-0.7054315393293719,-0.454993307827137,-0.4399531007204623,-0.5648603222104546,-0.01599839819201717,-0.7682837711376126,-0.9609794926596706,-0.11143653387286291,5.611068502070137,-0.3264807383538104
,-0.8429042591758131,-0.08773616750779865,-0.3813733317230703,-0.4912831986157961,0.3825868314856796,-0.6971117254882655,-0.5664527833545857,-0.4789998079459899,-0.047180023545305504,-0.5134053031654553,-0.13894787981415005,0.14790010933594855,7.917996849873496,-0.15350694828562197
,-0.618660079708892,2.884899440187568,-0.365520199592928,-0.8296142816465726,0.03777843352739907,-0.8701426612491819,-0.5341848148429975,0.24803342875053044,0.10483116993888271,0.004976941754611928,-0.39253459636693067,0.1888133386200659,7.445261885205698,-0.3889775058026891
,-0.6909421189394961,3.1424372060136503,0.1319067408539375,-1.0760153086203406,-0.09015427139546635,-0.6773500302045472,-0.857698772810552,0.5145768046034357,0.3693362746447394,0.4448380326719317,-0.3988611136728485,0.03408912366032166,5.3145979804999355,-0.5100080328842822
,-0.3444161409367606,2.8663075553442416,0.22976668172066306,-0.6504779494847918,-0.32522372367221397,-0.3497417619624609,-0.5277455148444341,0.23102565957998897,0.32183525753025055,0.25579450689041416,-0.09071195292732487,0.1677375742202553,4.227184336355205,-0.20820581532055038
,0.7627569774637414,3.4344800645480693,0.23186108928292334,-0.5783683099767245,-0.6097404647455019,0.11273498604684988,-0.18825792936474678,-0.4636262691919293,-0.3334647264636384,0.05873907924019493,-0.17038553060654407,0.22401788559187438,1.116152006210201,0.08860654383391989
,-0.19160414414560034,1.8564816194723892,0.009521486258243993,-0.641314492871066,-0.4208606859991661,-0.7334841759639977,-0.81825162896071,-0.4211840935506202,-0.1939008438324852,-0.24871511721496897,-0.8021201916544701,0.17892868537469667,-2.334689004652833,0.019073048055121472
,-0.30239048121791345,0.6899314316224069,0.0020464931814397408,-1.0835920508835482,0.06588590716206122,-0.4966701002672605,-0.7673186639824855,0.019592246898068672,0.5205957205158391,-0.5083964698913557,-1.0728589968303766,0.07110257055063267,3.6259699462876767,0.027321725190534187
,0.03892841439242309,1.3821539459434218,0.0953359286679499,-0.8480120207408591,0.021744533669696586,-0.09815080221999138,-0.5633124973097772,0.04132526811849683,0.45642716298707486,-0.5857530526202532,-0.8926662387529519,-0.1130003493179141,3.9836978512752035,0.049763156695847514
,-0.2881187141425894,1.179304820149429,-0.04258412815208782,-0.28919875150151364,-0.09094459096553097,0.28051506627237577,-0.37810482141912194,0.15655743181523354,0.03709758645484985,-0.20516263120049594,0.26032712355518073,-0.3406012830873502,-0.2389765910163574,-0.9156079458334971
,-0.539018775287929,-1.8271548968200058,-0.11579819094868299,-1.0865247043942639,0.35013501670338215,0.16639725216955722,0.13798798657554687,0.09275448148454822,-0.11847634010829801,-0.13854639337714972,-0.11575215542113737,0.002290642283596502,-1.0461370113426764,-1.2913004838226216
,-0.4419577853554037,-1.677549375682059,-0.19946710940152243,-0.9703033741386353,0.29199480077839235,-0.5446846763603984,-0.29559346765794087,-0.2854668196902195,0.4307077255733697,0.04840270178828003,-0.9021618544575607,-0.11201201559359604,2.887080126762387,-0.8655739962479537
,-0.4764854585493908,-1.7676025357470417,-0.3211925959010763,-0.21841729878564417,0.12954866287873393,-0.25585938525794716,-0.49076817048138444,-0.2003102165519811,0.06510113672849077,-0.19566485665262615,-0.487541571511574,0.22394326156834504,1.3824889359084889,-0.30821197268589623
,-0.4421825828839644,-0.013560090358473186,-0.37407868451228177,-0.34129534587736826,-0.5694185227077188,-0.3196388814542959,-0.7841752215755287,0.023560400951035232,-0.8185564517705369,-0.5912856093063108,-0.43216734724205763,0.18131512802182756,3.372820713977496,-0.06110861576208224
,-0.06466520972363254,-3.016779845761537,-0.008319241648706054,-0.42764864435425637,-0.4166682882184814,-0.6573453453951521,-0.5672006710094462,0.8209022735283537,-0.426330400141962,-0.07631741826331642,-0.7410746068468524,-0.022306528656430177,4.444153048354762,-0.09187765738429465
,-0.28218014616101383,-3.823267556580305,0.09109701923520579,-0.09856915946026021,-0.4777085525643807,-0.8479897480158567,-0.2706685653367691,0.2865082292429788,1.1829948626661329,0.19340035092262753,-1.4811029029614136,-0.13958199485835765,2.7669797165783625,-0.5543731538022671
,-0.6186857006140064,-0.8271820738828223,-0.20618383795940357,0.2695309481332849,-0.5075575174080532,-0.3810538765515442,-0.40564732302943324,-0.3361455966345159,1.077861454441257,-0.4130230252605798,-0.9150007125716105,0.031239916854418015,-4.622746337386259,-0.5710248977566208
,-0.4793945768216769,0.26415405582135465,-0.049186814102410915,-0.24173017489715717,-0.42624179802597134,-0.6074631794715243,-0.2866192423177736,-0.9669007146011984,0.10886573764975832,-0.36737840981633735,-1.3158670525037954,0.0992863140129722,-5.942530609203262,-0.7749549971735207
,-0.3454551942044506,1.4070772794907578,-0.1377007932374598,-1.067042766264681,-0.4585315672724486,-0.5125838912617013,-0.08007751252553319,-0.5041274053197142,0.28668344822457187,0.07173567953780804,-0.7453112191237756,0.2135313013859189,-7.45377070633749,-1.2586568127968027
,-0.31455874436339487,-0.18867307554697718,-0.24713851378154297,-1.6181002919247505,-0.5282559256799777,-0.505000540552021,-0.46040062789124314,-0.14042778303309456,0.20973817650621504,-0.025926267944354497,-0.24570163334516787,0.13224220131216352,-3.0546619065812135,-0.6821116750940425
,0.0996087557254898,-0.04010635459134243,-0.07853808833192354,-1.029167153670283,-0.2934104494333535,-0.2826940164735302,-0.6663843926749654,-0.43226426504834614,0.027665289247497584,-0.1461444258605366,-0.4855841086421027,-0.1766636591448827,4.994749499538508,-0.15127688539844253
,-0.13847650915872467,2.5138274797907747,-0.15047404801733105,-0.7140048825780502,-0.05066960439210813,-0.5545385590952931,-0.6659930421773914,-0.17470383714406693,0.04599246750901809,-0.15272533116010903,-0.798157385654399,-0.4198015694943554,6.721104221196526,-0.4456835851987558
,-0.09637300812677904,-1.4808706660397504,-0.09266449167266286,-0.16205771938327967,0.1707171298954663,-0.5299906567105858,-0.1549808713374677,-0.005903784226705054,0.6064422530517426,-0.04578703615249394,-0.3099005032821825,-0.21144380512117456,1.1707427185327057,-0.2741044484515589
,0.2591444129741518,-2.274910872287423,0.12009043919124793,0.05522592170470361,-0.05117260981256995,-0.6107343375380329,0.33817315559644046,0.3830110830043203,0.17643793744967107,-0.04624212804403936,0.3718558207641987,-0.07811442485821388,-0.7514277492004497,-0.14367730412751956
,0.05806015628674957,-1.1691721379353628,0.13761920067030775,-0.5671404079683804,-0.2274418039653002,-0.4235378255723887,-0.14645186915737674,-0.18828878835576965,-0.3655403909173148,0.0031318561469295936,-0.0842185558631582,-0.15940815538669595,0.9232827135687559,-0.07215756369986279
,-0.05172632974945134,1.674907180928038,0.08003940912866983,-0.29681531422600965,-0.6096396156566128,-0.3602188052274815,-0.3032043610936003,-0.12317230425572054,-0.20105702351868,0.18502184183015516,-0.906812457013175,-0.30350274656381987,-0.3870069996731774,-0.07651756468178503
,0.017609975925959403,-0.13918100497103217,-0.23951431053469058,-0.24620024868635673,-0.70067977073444,-0.4909365826314294,-0.5474122751908719,-0.12332851391709662,-0.3277986659846157,-0.2522493595120226,-1.0525148263207127,-0.09982762133801067,1.220497109303174,-0.3503847890951789
,-0.1073313679279148,0.6234779644892222,-0.32523943301635105,-1.0673024724462576,-0.01134542206964239,-0.2124365848762881,-0.35742569444668754,-0.3614418936334116,-0.11007852553623172,-0.7503026229757803,-1.3499081997534694,-0.19835117642874786,2.3631190487684335,-0.5797767997256477
,-0.6433052734116541,1.1522304407039186,-0.04381033020726666,-1.1482117000011287,-0.1212379658856246,0.03898845053147655,-0.13387239844345517,-0.7156300130918473,0.08156413587158393,-0.44538451534618534,-1.4707075855820801,0.45132191071424177,6.806012439639431,-0.6818629960695051
,-0.3725389372404366,-0.5024635271111536,0.17636095468292154,-0.6763618844141918,-0.6104632163594229,-0.3792724621851443,-0.0981744472875014,-0.43925631979486607,0.26077560836671987,-0.1547411603583687,0.08268114557425865,0.576033863988038,5.618263047769153,-0.1262379787599568
,0.11763813978211711,0.18284666949824893,0.02299487171323681,-0.7548399792129904,-0.4789306850167395,-0.47970393417749907,-0.033740632911441165,-0.08815926607606549,0.347873466072793,-0.27017197473926824,0.42519535088727545,0.3976139817536165,3.6970515567243543,-0.031807130567591865
,-0.4191032319241375,2.987236806929794,0.02379198031382366,-1.2919722724265794,-0.06954436056060928,-0.4223897713921706,0.18841428579678607,-0.38921171210607247,-0.05824238908527081,-0.4041304525658234,-0.8177101217163549,0.42821491688731084,3.7661686647846455,-0.5261412226080503
,-0.4880484777867126,3.250528022721166,0.03566906800759509,-0.9862318415818837,-0.15038481728213052,-0.09448541357218511,0.2636816017784166,-0.4053522976753971,0.2038710349587918,-0.4000743089496693,-0.9280133032716118,0.03509242485208552,5.478879672663661,-0.4997532285404597
,-0.03979797536721557,-0.5467324570267402,-0.14039764310279432,-1.6539696013221867,-0.6627569555413684,-0.14470413625478654,0.09061486611896877,-0.5637587365968991,-0.6258004972487137,-1.0391125878642864,-1.247833476628447,-0.14970522836261557,1.2697305096732705,-0.18193298517220022
,0.47194687381071077,2.1456453711794348,-0.02206490558373017,-1.565886543857296,-0.43078378951494334,0.24096031570104284,-0.3002927013363473,-0.37816595857435953,-0.721566901734802,-0.9572598856608099,-1.1839145743281025,0.11801300793663574,-1.7259219238674155,0.08947539126320124
,0.3361566449629304,1.0195767535353968,0.2695533626724896,-0.31941291524936427,-0.2396712768270075,0.5634659850576642,-0.24886191967591448,0.2629210267197826,-0.3164252417942875,-0.26708756358555236,-0.5166640669636959,-0.29474739929479643,0.03723176275645527,-0.28767601919816654
,-0.3160113529702072,-0.00703427698525079,-0.32193364068825364,0.1093493619309443,-0.7330425165281663,-0.1680959623493072,-0.7207122663540433,-0.14454415157507422,0.20155618424416066,0.13392313829633748,-1.0460353286001147,-0.6125641609301414,-1.4265497436800039,-0.2945822266610876
,-0.25243266149139565,-0.43537263606891474,-0.37773884803547214,-0.0427708326965521,-0.7160635708600873,-0.40679391612880705,-0.7908250993233286,-0.4202870974865109,0.31943849143972486,-0.08638474034582634,-1.341667338891979,-0.4676884863895535,-3.1097472818689242,0.05074218643728287
,-0.25323612479142593,2.0634313546796923,-0.38621256868159687,-0.5012414878202907,-0.6488975518125459,-0.5349412408867906,-0.5185756287720459,-0.5126707596058894,0.055477064818060036,-0.5435162373531417,-1.4788988973857358,0.004454318616116025,0.24174835193345023,-0.15692549265477
,-0.34100298869396656,1.4522345700958004,-0.3737336007235392,-0.22130816363913905,-0.2743302701852695,0.11649373054307999,-0.18093237612495253,-0.1034058989463627,0.13881745620383076,-0.315213376930406,-0.9758468980492558,0.48836671202865395,0.10929930207034923,-0.025023498986550558
,-0.5291286787850134,1.5404326220645732,0.1817844547092912,-1.425988589629079,0.17747917932354618,0.16830194124198483,-0.20558943291853474,0.6202683326080298,-0.06808969114250708,-0.1520817868818174,0.1494517302804517,0.007219810938844238,6.030629254243737,-0.7035696979000815
,-0.8964827254501276,4.56549934247744,-0.23235637131016376,-2.272627465079815,0.1824511502145709,-0.2024658460164981,0.33607821656752646,0.04998210491617197,0.000775726969247457,-0.16372317957009652,-0.27991906505261954,-0.06007541847407481,7.382623189175237,-0.8502347681577826
,-0.8457417074331762,3.3205105701429707,-0.3626467157217619,-1.6623990905159123,-0.11576703000795552,-0.18307992356132968,-0.5030849835096212,0.006948382736794088,0.49036902693158557,0.30450488141094256,-0.7920897190335777,0.2839131781788338,4.644167249953957,-0.35277567736607424
,-0.33986470573906025,2.936448579676221,-0.28304968593977886,-1.1452242653770568,-0.40377056541955303,-0.27690456566010196,-0.6139551642509412,-0.36131542677008327,-0.39701714504937224,0.31986372425760207,-0.6167259800890601,0.30253998179976604,-6.832388967077099,-0.033854044660765414
,-0.4855552484411237,5.956095725132965,-0.35536321627203477,-1.688488991514997,-0.9812203755204727,-0.20635241300940882,-0.04541748486437069,-0.9153401957216244,-0.9237532880373087,-0.8736083006611108,-1.4922592111258794,0.2736178314454244,1.804005016799425,-0.3649630971538889
,-0.13260492501936685,5.745711341876529,-0.21057602523335558,-1.32919336029462,-0.9757279774945381,-0.6109859114744323,0.11354644655287185,-0.5590773101683648,-0.5302685285899361,-0.7276530354626246,-1.3752391035639562,0.4369465597093511,5.8575855910902295,-0.1663965936750649
,-0.33433530941878453,1.2006436878432283,-0.30368770471729695,-1.2728316605801389,-0.2858630692139688,-0.6829003546915158,-0.22579489045668402,0.04053569550257458,0.418898198645758,0.4114019394584308,-0.9231987129530566,0.32533150780915765,4.546751545261583,-0.5939179329051086
,-0.5804058216415029,-0.054167390895284745,-0.16115947778956324,-1.1949949303161136,-0.21039337760089769,-0.40460199014019826,0.006463164473424949,-0.662508731671271,0.03456832056328305,0.183618097101411,-0.7943560509913612,0.3266425019805353,5.55656435847327,-0.6758877536415763
,-0.9620805234772626,3.348930094817483,0.11783488108834113,-1.6821269327376003,-0.5657556871531606,-0.636477203913189,-0.10260313991077288,-0.6760888983918352,-0.6949843849517048,-0.6232064242152865,-1.023079669179508,-0.2613876222963198,4.189055098082764,-1.0256230133949107
,-1.0329825237123642,1.597396298130385,0.10012944374535462,-0.9765053928231708,-0.7423446251375668,-1.0295323695638876,-0.06114437033378856,-0.6235215577074045,-0.5506698909499301,-0.44461372676916716,-0.688935017857645,-0.5922065070036551,2.775575746470858,-1.0245803945825107
,-0.310205670942658,-3.487937968148448,-0.34827685503282413,-0.39430015873231494,-0.5139976316993733,-0.4091305425310588,0.40127104619905407,-0.30526793342739783,-0.03715832478527407,0.07524738142640008,-0.8715819342232417,-0.1309676016328421,1.8956100122867618,-0.5831738282302086
,-0.3544735404800702,-4.716663069888973,-0.49098223869474905,-0.5084198495407174,0.13960473970016268,-0.20457228133995825,-0.004654745827515727,-0.31513343440450703,0.12232566159316145,-0.32374998625500767,-0.7006793235320016,0.2783064267639357,-1.8253464924090441,-0.5520053504695263
,-0.7096036528822067,-3.546648244620241,-0.3214522649907233,-0.8274479954902196,-0.1515379500254341,-0.7117260875416282,-0.28598420434309435,-0.5700253368529029,0.3872967529257865,-0.1185693780183073,0.3642494089589722,-0.10492632900509444,0.5559544952746337,-0.8370260057425274
,-0.6445503468618882,-3.1725663785207914,-0.06980066337997654,-0.8591585729004235,-0.8145859277300749,-1.1355389297762624,0.2560691004193869,-0.3718180226548066,0.40332252213675374,-0.31738421403252853,0.7197144803779414,-0.20760497132595632,4.325478828901005,-0.3502069177993151
,-0.14520212544444627,3.0016739025351185,0.18870287459039456,-0.3702527128258744,-0.8327029135692493,-0.6419608712497551,0.9041375485223437,-0.17363033752671733,0.1954266754631989,-0.35435921074064547,0.7909068206408929,-0.03852267462092955,1.8607594522015325,0.4289372928887305
,-0.14924846071548764,3.6072611371995453,0.04255274975315649,0.6858102850168163,-0.34908352054127245,-0.35776221129757746,0.8226213291050513,-0.36132969975375545,0.12302512356192183,0.09726013638406568,-0.16039089353373653,0.10980062840196302,-1.9777038762056174,-0.0674501812319977
,-0.051088356632527275,-0.840307242055052,0.3023526463095537,0.5082725842814755,0.18735132983071853,0.015579504675054751,0.2881185954439925,0.03257489465204314,0.6343740297361861,0.013835761733214635,-0.9543193753252759,0.22319832052227087,-3.9758408293343956,-0.22107503934630793
,-0.3780905014102515,-2.529589249844874,0.2957877202007439,-0.01946903899707846,-0.3730478619026233,0.29712887523680015,0.1751050790583666,-0.35073954371344546,0.4533390010682321,-0.0015814350675288245,0.01307864232923592,0.4894703625471247,-3.288406905582819,-0.23658575005918062
,-0.07449283401372124,0.29519407212587173,0.008011915657985381,-0.3143932635475697,-0.4793296822242911,0.6190968991363537,0.22753282864459873,-0.2969306781400137,0.1268355059593147,-0.4528305298453607,0.3472440921145073,-0.2799900982222596,-1.1145747746085677,-0.47059024195851423
,-0.09119848952914346,-2.3647866708895653,0.05656227066027613,-0.9843976685122133,-0.43237647919039607,-0.08036439478752318,0.6425624326044393,-0.44969337434249135,-0.3486999576649385,-0.46052758202700983,0.09044366074042187,-0.12087562277022418,-3.3143431842598567,-0.4391897938367938
,-0.30315085669585007,-4.364117412084032,-0.22775886165824225,-1.217948789512904,-0.280479215448282,-0.004075346148954946,0.04828817284084543,-0.8659147948640381,-0.7116694783426186,-0.4895699725300643,-0.3481015093447679,0.32171394528632247,-0.8725257704274771,-0.06932534111314381
,-0.33401143243609555,2.148970323047291,-0.2112613411971025,-1.155655388433437,-0.6835456533635946,-0.07407053915379155,0.07695396969058345,-0.3059989889407336,-0.9950382161127167,-0.4266960061177486,-0.3068995133082283,0.3787200896073677,-1.3682645628104384,-0.19987853783602283
,0.12466021811935511,2.975555132011423,-0.04074249186979627,-0.7046213281831522,-0.6144764151662722,-0.562959664498077,0.48227771005890896,0.15024649740517723,-0.7391187993335087,-0.5075082477226861,-0.29415639578123165,0.020263839897483257,-4.562052818551487,-0.1825381499791837
,0.19733584600465828,-0.27155035003535605,0.24437243388830604,-0.3713759337300634,-0.232483834765094,-0.6268703892180436,0.0615138971743169,-0.04320762926155381,-0.0897832928058282,-0.6116801603360918,-0.55669677236752,0.12904001541467391,-3.927704376521555,-0.03959688459755603
,0.12959989915012826,1.3458439046828525,-0.2514258568715514,0.27802086493613515,-0.30552650645655516,-0.07573180474906244,0.27314668471905174,-0.4417774143356805,0.5082148346061582,-0.7025715779640276,0.2794578774871729,-0.0637966045078921,-1.287849733038534,0.4178859823700084
,0.862385191284455,1.8504458675787903,-1.3162913203928612,0.16372778709663052,-0.4059471700942652,-0.15911107837265273,-0.18447502255368367,-0.4251857555718169,0.02908820162690255,-0.7536832222193625,-0.26923170401866164,-1.1612474349091813,0.4948448201445538,0.013760748732800927
,0.13021195405480301,-0.201662288216294,-1.205871935851816,-0.9212772199760396,-0.411455301531986,-0.5649611844065078,-0.4699063361630564,-0.18627465588215308,0.14158500727598586,-0.5335304268506115,0.24437567137870728,-1.1210585351607913,-2.28933177606848,-0.2477011657847845
,-0.5185829056522022,-2.1734469131820777,-1.2437887223089736,-1.4193405588610675,-0.29168731847130863,-0.6476926261452941,-0.026830493878856825,-0.34229692691701935,0.25477616524244306,-0.2950323858623698,0.330451946387655,-1.0105782211395886,-2.0363283765787883,-0.2279242906100334
,-0.2969038883677611,-2.9745343679024727,-0.8776331858703198,-0.6582170552173194,-0.4128673283054784,-0.21853649464373728,-0.2786308859533391,0.1480052988834447,0.005564305947011674,-0.0022189257747250867,0.28346959295633867,-0.7773025932952005,4.255965329948206,-0.276939319005406
,-0.11684142666904251,-0.7994429207603176,-0.25145171364112434,-0.6725491786394268,-0.5056841939649354,-0.150442638398655,-0.011150335972293632,0.14202047334856058,0.35509916481913306,-0.4022000512401125,-0.841508855086816,-0.3414224974417044,6.343537692787267,-0.17135703766634688
,-0.14636263747023448,1.0258039669444872,-0.09783419659953266,-0.9385132674917205,-0.4002348423500188,-0.32417590234531696,0.5737972286086603,-0.3271919837745626,-0.07693030950241811,-0.6970622849791683,-1.3889265534513842,0.15954515651829293,3.2932696152995495,-0.4342674601297481
,-0.2844232740207341,0.2803619956919106,-0.40166296939775076,-0.8772552091297718,-0.7629025000189152,-0.6469626706188926,0.3172583859038552,-0.22229094030898663,-0.20263558409174098,-0.8763058475524724,-0.40781512419117333,0.44127682149220554,5.512344487862137,-0.4501646484968385
,-0.7310536989950277,-0.5565467670995967,-0.23803573363558914,-1.0883858934811301,-0.9454356383572466,-0.0506636251711055,-0.04436184386925302,-0.4904648640689946,-0.4621391573557993,-0.9093027682811048,-0.37505113984419947,0.26229620780265855,6.841083556970722,-0.3735237616786225
,-0.3975338856912821,-0.26929351381248384,-0.35252184599065545,-1.131422250064973,-0.839097450605053,-0.3460678842837771,-0.09072944934689149,-0.6554613932462394,-0.8175125890010844,-0.7782288272779544,-1.337550421462143,0.1536595316873705,3.305519133344585,-0.2438509755198772
,-0.2097472287507514,3.049150379800784,-0.5262648037281065,-0.8318237112968024,-0.7774439641411589,0.0011134943895585038,0.6076302738263963,-0.4045526328181589,-0.3772245486926077,-0.7226725005601276,-1.7376226357471778,0.10307038660124937,0.9659757720359973,-0.155444146833669
,-0.12078566966676013,2.1596607848864573,-0.5757847944282829,-0.8312066948589049,-0.46062051513431734,-0.16020371583182566,0.17105190187788027,-0.2517783969588449,-0.47855367741591276,-0.88172873838761,-1.4207794334013855,-0.2113253168088674,1.817176624386104,-0.36534004907155265
,0.11802767457725702,-0.379043274989958,-0.29673990982410087,-0.8433072784454748,0.3450030532851661,-0.057401646024418336,-0.3431814631049212,-0.24028440388045513,-0.8189766933986645,-0.56943198980289,0.22448859620669392,-0.05483614573609487,-4.636357901048843,-0.10841045777054113
,0.48749662820561646,1.04254610836629,-0.2712229983244178,-0.260380071885119,0.5695959402826615,0.16866283579476204,-0.079906368913729,-0.4963801430079654,-0.7574852566988831,-0.4858226068968456,0.03247627017111493,-0.2648036963705277,-4.833850662531293,-0.2885818157567743
,0.4059151397028603,-0.32297954333923384,-0.1284171710825851,-0.08702683666927512,0.525590634157739,0.2442542970565947,0.5692573099011805,-0.06674335608488813,-0.06135345438400204,-0.05994613212957657,-0.0075395878490125195,-0.028673728217167235,-2.118634377617461,-0.26378754699732876
,-0.12062012619002056,1.4692500339151506,0.3822086452767079,-0.35565082342475157,-0.13512196940659305,0.4216223006968936,1.3505697266312162,0.06374376116228497,-0.10349981933731359,-0.09817746207990631,0.6637673760288385,0.1645111734127028,2.470667561961835,-0.20673389809467313
,-0.7358478095903651,4.97988851383579,0.5219106845748512,-0.88284671365795,-0.08390851880690937,-0.47095266261485486,-0.40392838431694833,0.01327029911731587,-0.0005580369425221665,0.12335444166731653,-0.027817924676502393,-0.25652365972283603,5.81171589510238,-0.6212386079503022
,-1.3541749048650265,1.700592129197163,0.640801942166596,-1.0149393521918366,-0.12849730987925087,-1.1882299145492339,-1.386731712305517,-0.630062725817665,-0.5217009228506744,-0.6338732630599717,-1.0411285279949736,-0.213329008928722,1.875879329722759,-0.8995986384880083
,-1.0904953669214648,-2.1698907180246847,0.6614939537185681,-0.7464854299707251,0.1377219032568395,-0.9375240582341314,-0.7915022521742149,-0.3717595226959238,-0.5690806857271488,-0.8773316875997442,-0.7299266883128219,-1.231737670163045e-05,2.8600242904781767,-0.5942268019817895
,-0.016906648237420125,-0.21465028702379518,0.18616223169992718,-0.7774987484573603,-0.24747324504388937,-0.7772670305340523,1.1573018100959092,-0.21987347312567,0.28364664249333216,-0.36868290719864294,-0.2279821736023839,-0.0872639702576576,3.4407504138506084,-0.2239772230749359
,0.30212860432892774,-1.099723245453926,-0.22527673344460547,-0.09461077446509984,-0.3234978299606906,-0.09959756933362862,1.2394150856972082,-0.5485688518576443,-0.13693867754668887,-0.3260471566576156,0.7647543337211483,-0.10893787074660718,5.615574300451414,-0.2974939110228574
,0.4827909132340995,-2.0636621189882014,-0.11756465500469358,0.2723811895864018,0.1435882774169514,0.13185273108920018,0.9860778951689534,-0.4826493637555502,-0.3987328576252409,-0.5046159547422828,-0.03041974715504671,-0.005078397927493926,4.823596499252408,-0.012657979049298372
,0.3398259145923631,-2.0348554805461703,-0.26110298549134464,0.12255774807698316,-0.04297331392094508,-0.003772790555100518,0.4170702540061661,0.19463310181803767,-0.13161457801178936,0.19278852362281085,-0.23412616016802684,-0.19285937126654235,-2.4743237702654395,-0.14139749010810657
,0.3757389995637898,-1.415324161425959,0.10704975750528323,-0.08718539115983573,-0.4742543628930247,0.06952189089967496,0.2162461201127909,-0.00678184802099456,0.6839494980336268,-0.1980204437608812,0.3821524642736088,-0.17497893484370092,-3.7296878979407877,-0.04425398238913923
,0.21091721482135836,-0.7739981611113017,0.3767151803012832,0.19249963212118798,-0.25072576979421196,0.10360136186438232,0.18987379022349815,-0.008075446657601041,0.3801013670565203,-0.6295701507452717,0.7812785025114464,-0.3646360416094507,-2.3993530915754535,-0.40429475240488455
,0.21162770809803952,-4.9573109282889725,-0.019780745910803244,0.3967508203717343,-0.7317387708101787,-0.7902745116040529,-0.17314877956391678,-0.24207736025939078,0.5874373892762849,-0.3825160352074226,0.2665277026686757,-0.3415405190571764,0.5978820443377,-0.5983937894135145
,-0.06076543253297537,-4.924871677522257,0.10466637799230107,-0.13004784136886646,-0.5189706783355659,-0.7415759296848968,-0.02546472938069267,0.1005071455371989,0.47220689043163844,-0.4018062642981891,1.0213108213610353,-0.059436830001193874,0.8957388254819961,-0.4084960763842725
,-0.1306733506045991,-2.2486147316067044,-0.1554756374673859,-1.079195463633627,-0.08986459210910344,-0.2078527334427771,0.39079963306700566,-0.28996484293646974,-0.3277035374589658,-0.5788020282760082,0.4208993661263986,0.28954517953759795,-1.7174137376271634,-0.005757045974003324
,-0.022174873605693195,-2.674519290813216,0.047858066407435736,-1.0244617271602765,0.1586886046009996,-0.12265475883872838,-0.31523390636031157,-0.19215919399682743,-0.19054394339616565,-0.7355522433272749,0.19483461117281656,0.11743073472344762,2.564117912126195,-0.5569585384558082
,0.20956887374844638,-1.040947242146013,0.07141377459552596,-0.439573779338118,-0.36198118975778126,-0.14915897809754577,0.01006330644559385,0.19584902423283745,0.7753805122271211,-0.46201769091639894,-0.14830781636133497,0.2287464263248396,3.0254444901111306,-0.6814167117346247
,0.031636988337601694,0.9641575617231142,-0.0005365514365186132,-0.9968844723411392,-0.6498467422618543,-0.5034172569851078,-0.08175061935576994,0.12367343112516573,0.3849882218752928,-0.562574987285846,-1.4931747055285671,-0.13143313014783978,2.609322959762727,-0.4369597295159176
,0.09206548733335612,0.669493239104298,0.07339986124435556,-0.27353385527374563,-0.41606558358234785,-0.10568085322644559,0.4908381845960815,-0.16195470431213804,-0.2639275275097564,-0.5733370383065208,-0.6235321644339765,-0.0710554865678679,2.3998598477231927,-0.283643834536947
,-0.18797572784614214,0.15184124203058205,-0.08347207258598824,-0.44342389515680586,0.04977070065972342,0.6661879322008509,0.5150440952360824,-0.2912138759090676,-0.3668007977062466,-0.27176774838830053,0.5104301098265112,-0.13578025989653728,3.2155092774689136,-0.1263418650865952
,-0.17304037673136807,-0.9942172865197105,-0.1744351954985077,-0.06910634503766301,0.6799115025403221,0.8095931969273682,-0.03365343031866053,-0.03357211760455608,-0.045788941481548356,0.026883581533011364,-0.1764867740810834,0.046912642319229134,-3.0347612398923447,-0.04917167486320109
,-0.3077992669126777,-1.2023626258424371,-0.1713789375861391,0.19605704806259205,0.02641554130555534,-0.07611367277213159,-0.6198404562636638,-0.16492778370109382,-0.2813490544929969,0.08098704630021565,-0.39900350246291066,0.07299136569244362,0.5092042351099847,-0.4194201385599919
,0.06534617087940836,0.853097347326507,-0.27930646919054114,-0.5624857561454792,-0.2679414516961585,-0.6324433772797141,-0.39775168401392297,-0.20901095048955437,-0.3221066843904264,0.20222940310018353,-0.376242060289279,0.14512088421583388,6.391265830026299,-0.4293098053995555
,-0.13300020288741207,0.8894136840088567,-0.11387821207847765,-0.7647545856479093,-0.24968787279827867,-0.7782864621554071,-0.45196487294908855,0.25457830597304404,-0.046599659116450115,0.32619634536573067,-0.3075915391520211,0.21185139316901358,2.999783985067303,-0.05871496285387583
,-0.5663719026112909,0.29794228423479,-0.29562769961412894,-0.13999412484112306,-0.8313295937468261,-0.48583597152387603,-0.2972772245271164,0.1933507421397916,-0.12955244560584922,0.02496822953015993,0.11302261749878086,0.1756716305249078,0.4798774621483279,0.06362755209317551
,-0.30599869748171954,-0.10611310447109187,0.15720887628431449,0.4442187584577387,-0.4236971677629842,-0.20618121415174426,-0.0017342237991771743,0.09867750871548846,-0.13543894317239352,-0.19412870036980914,0.47393740381046523,0.25865390623565143,2.0703480903769287,0.11292833706885028
,-0.21409699457003134,-1.5544644789203372,0.11045248986254651,0.01000388480265407,-0.26457317990789764,-0.22924980549244303,0.7680010623101976,0.029217310466854798,0.010001465786781344,-0.5849069027286161,0.3512084609934739,0.28871328490029996,1.945894542935448,0.053382854335691385
,-0.11563827595758235,1.4979432853191508,0.06750184891301225,-0.6271648881126678,-0.8178656944332978,-0.16077616739361572,-0.14749430309595815,-0.11108615509880951,-0.8428773039361098,-0.8722048592470745,-0.7107359683010739,-0.220012633116992,-0.5462500434540407,-0.001640708875323508
,-0.43724092510049106,1.3976830716951398,-0.11615733022532425,-0.7700079685595377,-0.6053382639587659,-0.239216927996933,-0.2524226416290696,-0.13012853820273215,-0.6607740060944807,-0.7894696016570939,-1.0115350351528416,-0.10690482735662764,-1.4151078275001783,0.06933480070089458
,-0.5005593306402226,1.1098285468996083,-0.024885253847112182,-0.2501050699272526,0.23939975456671453,-0.03680570559516415,-0.5479815302061577,-0.2696788327967946,0.014152384437250816,-0.20786721061401922,-1.267472532609596,-0.20836652867111435,1.0554318911140677,-0.3070801649853066
,-0.6174882396473251,0.36874996579097946,0.17546549058810038,0.4205765017553751,0.110100596747858,-0.3181112219656336,-0.2862269469891111,-0.42514387062111536,-0.23825070762155068,0.8112857509403657,0.17079120133404993,-0.06262754338045429,2.9706390829442237,-0.03567563473130611
,-0.25345101312987517,-1.9712932401083483,0.029877673042490657,1.4185944922801614,0.322135092468016,-0.06181653842713846,0.3249201786068804,-0.08861776513704953,-0.04114652530246421,1.0179579372219927,1.021114037651861,0.1602441119702175,-1.118617937916517,0.24397728125301352
,-0.09405674561210617,-3.6122580158606157,0.10842748718875418,0.5812576778222057,0.4810022695238104,0.5236048882681198,0.9011340314396381,0.08440306988510844,0.33626318880263284,0.39760339238082154,0.7727061349681729,-0.0732410055156192,-0.6580826704102737,0.2483733438486942
,0.296033083782022,-3.061952019709158,0.06347130338474138,0.1079130193056377,0.25148639591136995,0.8390965268579155,0.8488195673839174,-0.015555521086984471,0.44312767463942015,0.559319885586749,0.8387286578103751,-0.22475259692411334,0.03201290721644492,0.24179918083904745
,0.5940682114705979,-1.5537122665103227,0.002270631607427052,0.10897903753505003,0.028149525461167425,0.3976311346016767,0.35256993321007885,0.31866261456696676,0.37898323274097,0.34145355856896925,0.3306840682601872,-0.11440068436163753,-3.7410869302589993,0.38395127672590396
,0.6522172599535079,-1.891236685297082,0.256092924368117,0.26821913895147936,0.0669220644103009,0.9459053828433654,-0.0049173722057647175,0.17999442139297978,0.33689349092545817,-0.07933152334783561,0.16225707309237827,-0.06298435341781465,-1.7229786604584787,0.4261459680626045
,0.8908719112781026,1.4570641699790206,0.26614793248939084,0.8649736957474439,-0.06884653272679753,0.5055461191900573,-0.08592869527975569,-0.02160543989791536,0.6100244707579473,0.013130843894377277,0.8413998545034564,-0.07426999902555756,-3.5694965113164736,0.4197425745899249
,0.8037540239991219,3.0380856204198654,-0.0505853688710402,0.19894224774394312,0.43149697056073066,-0.1231596117807825,0.38254185102772204,0.2569758023279147,0.18453963506495408,-0.08576936055380262,0.22318722155866857,-0.1127351848253705,-5.477140908402254,-0.4669531948307895
,0.45817768141321535,2.7387574633478384,-0.020848626901233316,-0.7385664053580334,0.5989107274726146,-0.16342197379563694,0.024637201937073413,0.08694147976113976,0.03812565906548566,-0.561257090911801,-0.8753793235052779,0.1174584857400616,0.4713154775247806,-0.5670623196066857
,-0.041726371493872934,2.299044284217346,0.010186436083610133,-0.6975503588346154,0.2933493160625475,-0.5099585983582825,-0.4754304446380595,-0.033474280592683835,0.39177306899336756,-0.427080724992523,-0.1745899959277898,-0.21732234817235863,2.3577492251457555,0.07176543518823188
R,-0.44338562489055083,0.17024186988711826,-0.23086354960601432,-0.36434890337651005,-0.3072067072722846,-0.5968422646760141,-0.3617263642975363,-0.5178102486020367,0.021148145254207957,-0.3607811406458419,-0.32485994341570457,0.012793426317841038,-0.20993715699967813,0.06151129184954331
,-0.5622065259187049,-2.968989789504555,-0.14837147680332757,-0.5766744421789798,-0.3135084705588944,-0.4417462783050427,0.058180461259451734,-0.5444232337443174,-0.49704474265408594,-0.306295153389749,-0.4660752098841304,0.06537214995030205,1.0689770799088738,-0.31274901670489785
,-0.30621038228934994,-0.49466629406971047,0.10834913127881245,-0.644959167428735,-0.1379808485047076,-0.5870758100330815,-0.6089394860849773,-0.1961510214078336,-0.2192754533405407,-0.18234151160868342,-0.4030605128531453,-0.15711345889965406,1.6263109227073438,-0.35525035468419197
,-0.5433817852061452,0.19335206490028775,0.17535676281548493,-0.7021369930803467,-0.5998470990989907,-0.31048060082065154,-0.21365459082369354,-0.32609542539857284,0.14824402774026021,-0.016908049300346215,-1.129402553434199,-0.5245764615676968,3.4181613855948916,-0.4049120899728197
,-0.30178935800855045,-0.104582375957062,0.014851209618493885,-0.5670254430986241,-0.37777012206975086,-0.06285945726834105,1.1562744426565479,-0.19664799847636205,-0.13120324235084296,0.5532798214868853,-0.5754343706669226,-0.22110663540770517,5.379272110194122,-0.26379453597321595
,-0.1860464478200247,0.11810139561785808,0.2437037532614881,-1.1478433258078293,-0.32928027059706466,-0.03812119957157502,-0.32740045961433467,-0.09446580354914405,-0.4288872970351123,-0.7579639397715887,-1.0348318511267909,-0.31726323819441893,0.9885938608328664,-0.052375356552135474
,-0.4400371696632038,3.5639795884425136,0.0622264765078875,-1.6655440639746835,0.12869957210559885,-0.621038457627395,-0.6158293470789461,-0.1251893475837939,-0.4930354191551809,-0.9255432221986257,-0.29522408174411713,-0.29036867163047686,0.25370578829648255,-0.24270845294200355
,-0.3950233919026884,3.4754062457214805,0.11018701205090549,-1.971710130648438,-0.23246869684249882,-0.46832776818902744,0.2255608478300107,0.0541114185504691,-0.08167846011824148,-0.42312527729214644,0.8362286260311429,-0.21208934517705133,-0.6064215102467558,-0.03363438050132544
,-0.9224085702450938,2.0370854821315656,0.032670546473196116,-1.2412918678824274,-0.5357876004279113,-1.055994750145141,-0.07580797249216037,0.2427585159633665,-0.5441675967838168,-0.5607617194582722,-0.9090554348575123,-0.2751647866773785,-0.1146659800813777,-0.36682027856051147
,-0.6609990386267385,-0.1769223943296716,-0.3357107753216168,-1.0141733139060198,-0.2659089430750186,-0.8824026341712623,-0.048433861499590225,0.7327591438536333,-0.5567749871167996,-0.042174410542220014,-0.6592183023511435,-0.23236794638598962,6.882880825993221,-0.4027791795139315
,-0.37325363412503626,-0.563127731144841,-0.16518974850208487,-0.9227819884307048,-0.07301532347276081,-0.2854442028341505,-0.3650251325146798,-0.3713737200889874,-0.43418040709311995,-0.1127195153994607,-0.22318895257251256,-0.20609557783808255,6.1969749438867625,-0.39923970532441333
,-0.4840885867062074,-3.3186494267605724,0.16270184700519086,-0.151688409735385,-0.1481246396061966,0.16936622785441655,-0.32957519705722643,-0.3424429160405035,-0.32317655352853103,0.017693682013214133,0.48504800013828,0.20028005249821149,4.476162492922596,-0.21218351527738105
,-0.40555882692697026,2.8445012035559087,0.10724051640112982,-1.6265145281664999,-0.35825318440814774,-0.31962477107803083,-0.38192531388542716,-0.3614103101121961,-0.6725883700027626,-0.40304256676290856,0.4525408763847712,0.35080937229500864,4.537514309150194,-0.20367273295225113
,-0.4446906399667756,5.712162462799916,0.15762031794781067,-1.6470653349713757,-0.34933219151135253,-0.5616361062294216,-0.336103960917566,-0.06438404892064918,-0.5516856727968572,-0.7511723315426698,-0.9750544419933033,-0.0823764829372077,6.179226788073208,-0.29233406696924447
,-0.3804765637871065,5.499686491444105,0.02518984885828355,-1.0835196057197471,-0.5737581948257575,0.09563990864304894,0.21709957046719267,0.10059607748309304,-0.5219342943309956,-0.6156117273659997,-1.058701728751714,-0.3163996406289963,5.599751219229558,-0.039006851714694715
,-0.04878932131654312,4.175585854908745,-0.06873483078258204,-0.9706177117879605,-0.7104297167707642,-0.0478462484605048,-0.28654137052468476,-0.07666961233494049,-0.4315725058901347,-0.3486695561802463,-0.6905752771965827,0.04862417025264137,0.9707836355478292,0.32408211028166745
,-0.17277655802057676,5.218568601429842,-0.339055381841158,-1.1783752015518811,-0.9532607988275192,-0.47496048538092944,-0.4930190115094666,-0.2746601597578424,-0.37115771970436967,-0.46476184701993456,-1.1372597259167077,0.056353693230253396,2.550933967508012,-0.4669491641227613
,0.16338584272189574,6.4945933793631285,-0.3688066596694047,-1.4206660332308745,-0.6382162902430758,-0.22624180076658673,-0.4139212004572804,0.041666006740280086,0.29339843082111305,-0.07495252891299906,-1.3034181473477542,-0.11542127264234801,1.765573311988068,-0.6013003106216397
,0.3649867242118426,3.1580203416495523,-0.384295155390555,-0.7982566535025645,-0.3596935841804301,-0.09102592395129949,-0.4658885266132102,0.4994278812676208,0.35889766172632176,-0.5247187276147901,-0.6832911084043194,-0.1483344358440792,4.566937375542471,-0.5897008303160315
,-0.03802979496438426,1.2669008258780434,-0.38226891748827946,-0.760914108367253,-0.40270882205502967,0.123603311046169,-0.1520285660814405,0.5076073975635046,0.030521849176316947,-0.7532151618797103,0.15743976094051534,-0.3457356976026294,3.0118463334904693,-0.5431141924914586
,0.08097923527112741,1.917899656071859,-0.2439701952611318,-0.583608104777672,0.3489181851007358,-0.04210838421879337,-0.4750643656066223,0.6015218587640402,0.13746707943909925,-0.5309244043279502,-0.09588167514959016,-0.2201369931783779,3.2450638535602545,0.024145891631067538
,-0.7906087966137229,3.957613593341369,0.3437967717884445,-0.6771017077371244,0.14302389202007484,-0.7070549927884145,-0.6473730159685003,0.09852039125697712,0.5884514845122135,-0.4374873699740832,-1.0437022521685955,-0.12652269810197037,1.3513999169430269,-0.6777382538465485
,-1.4138943595883453,3.5485158614550483,0.1121529624794067,-0.8993029508618523,-0.2132227795505854,-0.44899697957621904,-0.17746655997230903,-0.8015746038173285,-0.2724090006314916,-0.6391044964037517,-0.9140143153645178,-0.07768966275502644,5.229416598372943,-0.9870310227877738
,-0.9036090850291267,1.385471481554236,-0.14413646546178568,-0.9564277350689327,-0.4973734980187698,-0.22059153260854153,-0.5445172992987009,-0.8240262013846028,-0.3801599513718728,-0.16060110565629176,-1.150002622821067,-0.5164731796301771,6.892497545378998,-0.7253284118209427
,-0.4717143123457643,-1.18322091131407,-0.18171933399422618,-0.7234101844444215,-0.1855536597811046,-0.13631277664718044,-0.8687124088918495,0.17944448358694837,0.1411705564009051,0.5653189566225968,-0.3321484917677696,-0.28653693511195794,-2.58154069335894,-0.1963354296360708
,-0.6255274844674816,-0.17661402518837732,-0.28256719295785787,-0.09543263533918571,0.38222880746736504,-0.3725256701676844,-0.520937870468766,-0.1347400419150659,-0.10993388142748195,-0.4500719391650878,-1.6760940627180898,-0.04537043820200088,3.769552726420881,-0.32872839354946015
,-0.979958987245057,0.3133492059827452,-0.014389406150421292,0.6017443601978906,0.3907037310744593,-0.45699512771661166,-0.24550553956456075,-0.09547686279589733,-0.13617344387202243,-0.971569512749104,-0.9830229831760823,-0.16898242882395054,8.19070748696708,-0.55506333276278
,-0.4799625368595169,-2.62150525996773,0.31381659292280495,0.1397267711128341,0.27737156512253996,0.13779503628950887,0.08019522459772464,0.12100000338618454,0.19331373559735773,-0.590310146028997,-0.42244953791468814,0.29933414815907083,7.696601835269888,-0.04642948451856479
,0.20431170857346637,-5.005461798427773,0.14109474288447593,-0.032325388087473345,0.3847369682672421,-0.007366801901236732,0.11492342489280588,0.045067518018577384,0.8500483182512671,0.12438959817530193,0.7307155064426246,0.15226325169218283,4.902260184834046,0.29401521924037866
,0.054986376203400876,-4.280300680969488,-0.2640699077189534,-0.20980830612834966,0.44276854098885854,-0.048699463245586716,0.42079141192937036,-0.3771460582466236,0.27830376631098036,0.2238490695591702,-0.020543417956468513,0.09439091437633511,2.6859232090404768,-0.38159499230119087
,-0.20673162385556404,1.4810018023096483,-0.5639466384740806,-0.3604425318561547,0.29082302316907765,0.6168136400180179,0.3037127194596278,-0.08169479443472594,-0.3653648876533838,-0.6513932680627059,0.14989232586804804,0.27756196187617854,-3.084105135641127,-0.40695939526047664
,-0.435732591949961,3.699156252341294,-0.21323764587253632,-0.5170004366842831,-0.22186126353366792,-0.0329896790762959,-0.3997658020497483,0.10756237145282481,-0.14196206831952807,-0.6120373999853977,0.6810911354270763,0.036229407572700885,-2.030328958727556,0.0968685163729054
,-0.0153825424527861,2.3460948849986156,0.28664400053669314,-0.12520717613970372,-0.48000780444862373,-0.5003846802862771,-0.36495018129324935,-0.06506142921411977,0.31711181882365747,-0.3983684731337146,0.39805014930221544,0.03721804555746286,1.1586657524609927,-0.17541581991334448
,0.6255374841184324,1.2545688533157846,0.0890951783574906,0.0025609208124776225,0.022225602989135094,0.21229670615897583,0.29626157583433926,-0.12294886411725342,0.258024537464042,0.37839228666991936,1.2460946377299456,0.23230422394770758,-1.1162900271669634,-0.23516489696819293
,0.4376970309366508,1.457319274827494,0.05800135954155928,-0.6620618341252694,-0.11593000962696486,-0.19487252501298988,0.33614740082041605,0.08741677635138467,0.02273610189770803,-0.11531978665755124,1.705926487663954,0.5577626554149626,-0.914593862040818,-0.2839901070739609
,-0.22113709430724654,2.2403539472862017,0.4192732440110295,-0.1745418141119919,0.19419626952048646,-0.41970422026451165,0.13882934769881533,-0.053014071638588865,0.05545492903563685,-0.4121686362906527,1.1624603624579948,0.2028517205925265,-3.0059096934911427,0.05231924428268493
,0.0822073026411895,3.4412132669531204,-0.04248803134201581,0.1956847644362953,-0.0006533064335687979,-0.20829291799239427,-0.25045546388956746,-0.07167918222685742,-0.25875232884008914,-0.21298748620553576,0.6461272092931515,0.15349269172841018,-2.9064048762605816,0.4248426873722046
,0.008398322192045586,0.04110138491068658,-0.14396290443229673,-0.383421251398954,-0.5944409219879115,-0.1353303553242008,0.002605497444641758,-0.25152273027133765,-0.6619292675967243,-0.4669676207462728,0.5818090181891928,-0.18818967480527868,3.233343986555418,-0.015807861598029518
,0.1299725071016403,-0.3125905098355205,0.08833024194733688,-0.21016570087511244,-0.19328378837206175,-0.12855972060934504,-0.40167517999225577,-0.3225588137670911,-0.5306492740731763,-0.04664951748061945,1.1145000280959787,-0.2786007855878789,1.5741451906836388,-0.11112269239991797
,0.0699879199834706,1.3468277416565717,-0.09265913997634222,-0.399647417210686,-0.008970108291320578,-0.1900041248281884,-0.2290212167532269,0.2681824756008109,-0.21720881271709302,0.20457105316409013,0.12641224664929288,-0.38571977344728325,3.853647369108154,-0.17253727636917796
,-0.36702960496266684,0.01268987045081655,-0.09654274056453752,-0.28012046430984194,-0.5799043809524671,-0.31149892597735984,0.17823076085110867,-0.36086009864955887,0.24583309989293042,0.1930838482383346,-0.006381786930713269,-0.2507497992157905,3.7247819463207827,-0.21293181832067443
,-0.9616560448701847,4.345413112588591,0.23324799403254895,-0.5840788130894816,-1.0094755847107328,-0.6004830659060918,-0.5958050236042586,-0.6875712705927071,0.22918486545395894,-0.18652524948639781,-1.2890252583180488,-0.27449546471676634,-2.0110752672945122,-0.9689749091319166
,-1.2752225918401834,5.47136565406048,-0.6450837481946089,-1.1130778224440594,-0.6681706230274176,-0.4454491832128665,-0.42462530310419155,-0.43999433957582357,0.3098910858648175,0.14965552131679297,-1.55565027207264,-0.7012380219441197,-2.346168749065832,-1.2412027625126258
,-0.9521492075702668,1.6984317125043928,-0.6597358697577518,-0.8761436926936854,-0.09927984127052421,0.34872262376727464,0.5839362314256075,0.03886524634585086,0.3248289973683313,0.505396892221192,-0.17771861068295616,-0.7049230878458959,-0.8557950267098677,-0.9890607306367735
,-1.0066653407668662,2.209490601445767,-0.30383876124839443,-1.2020387991219856,-0.08986371816757338,0.361264376767275,0.8831923218903108,-0.1471705224803759,-0.2636361078479838,0.4968337415688827,0.16132072143479254,-0.38470370832556644,0.9120850526995132,-0.6186164901433943
,-1.0060333097433396,0.944334668162644,-0.5022485003826127,-1.0324442079305176,-0.2083073696325953,0.08088747576738407,0.9661586854712769,0.0008404715669065621,-0.24709751152041268,0.6835232580512911,0.30412855788107607,-0.3733212075564419,2.066503252964955,-0.594880063610341
,-0.8389618545561969,1.6721904410847417,-0.3997441442083812,-1.0408384556846202,-0.4400310809334534,0.3566093532923393,-0.12467392143458811,0.02033205862167623,-0.039330159535409324,-0.3059405080836425,-0.4437616612896705,-0.03935283726579915,3.7502855781730156,-0.4584130339835897
,-0.7384737817070045,0.7750018557307007,-0.3011913526534721,-0.7651667595227446,-0.8145349791850333,-0.8676458982059676,-0.43123086402679606,0.6784355822600683,0.1641252770094255,-0.3321090480986998,-0.7660215167055362,-0.12514029949331495,2.9891284672619647,-0.5621078501755787
,-0.3808279002682877,-2.0192157789904175,-0.3846080783880938,-0.9520586995224591,-0.5032125919182755,-0.8233514381480416,0.1370001946691145,0.34659236374381813,0.39967916123093455,-0.26951516116889307,-0.04424024519859528,0.1138671998685951,5.041508106126454,-0.37178575995538304
,-0.4940567074266021,-4.151598253527938,-0.03941942994429476,-0.9400621012881557,-0.04057732079883501,0.6131370329414451,1.1021860234970025,-0.20433543707140542,0.10640417701286771,-0.4934478552731479,0.07091919182799157,0.11802089170155786,2.6691060761028984,-0.14327289738663235
,-0.7725062825803725,-2.357805798920802,-0.1674563963093356,-0.9703684799534968,0.09742968196479262,0.6882665397143792,0.6564583351050867,-0.4611038138876314,-0.47904139026504194,-0.6390360187394972,-0.26261769498589393,0.026080499786814856,2.193068812336778,-0.09850092107393875
,-1.187178895015142,0.031437572237529604,-0.3731109778609427,-0.8012266344043648,0.04997957271796822,-0.1459400565150193,0.22851164620828646,-0.6847384032693776,-0.07142596845979658,-0.23699194338147941,1.169694129766283,-0.2668328994665199,1.1152603944551933,-0.4198970729066784
,-0.993927060629876,-0.538739848866004,-0.18335531058721125,-0.21190773519221145,-0.42407535210448793,-0.32076226007919456,0.4977439784519132,-0.19143038598925843,1.1307649570540856,0.09408041502982536,0.7995859394630471,-0.09141217434386485,1.7721759692306251,-0.6147173010244814
,-0.18894775897702248,-3.0489450068209756,0.16697286130025335,0.6811722868491222,-0.5645508183765362,-0.041110283913140415,1.4107265586968343,0.8022547665348055,0.9137035845609831,0.1868970017888253,0.6948877286353149,0.018490470623011773,1.623642087217352,-0.38031735633822433
,0.15787853607866242,-3.0880105639885613,0.21261197415669794,0.3980522879139207,-0.16551855848072883,-0.4089140829060452,0.7549350483660338,0.6623647729072768,0.5163539624790799,-0.13856865912527325,-0.18398703719825601,-0.22296729055867595,2.3702963226923504,-0.4751678911192225
,-0.36136173561630225,-0.5258157352495181,-0.2536833881350211,-0.0632015454996552,-0.9012866422643675,-0.5255154596757909,0.8476054379896713,0.11697720414011742,-0.2489941758250121,-0.3382648875283237,-1.0383066502832332,-0.18989885902822068,3.766033996142754,-0.324663260309021
,-0.6314036335500711,2.9118069534609,-0.49165767913849734,-0.43341224395385775,-1.2449215237908877,-0.6336245111626334,0.7913698850512817,-0.6441104614677348,-0.7849918076087289,-0.6913333352609313,-0.8521662524685689,-0.2864789522646661,5.1173768767167305,-0.6620357167778331
,-0.43046986638137674,2.113201384311869,0.021887697075490275,-0.44094587871144664,-0.7802684017884904,-0.27954569969707155,0.25544670979335216,-0.6260965313823437,-0.6349633481972332,-0.5465124360112533,-0.46426920264224025,-0.10446516829174268,5.704427849899283,-0.672353972959519
,0.16895258646625402,0.8579733901243338,0.46353165540620583,-0.793659066710919,-0.5809123254606013,-0.6188083182639109,0.2265654202654506,-0.12302175252634619,-0.8873818171190366,-0.06601623948309658,-0.849399098627736,0.48685343796177066,3.1490840024824767,-0.5247181179237257
,-0.49983041589825256,-0.4183783785976043,-0.3227063475317684,-0.91923159546857,-0.16921727798239233,-0.6102380743898286,0.11793478562306976,-0.14975238105658914,-0.619542100045161,-0.16149129652388747,-0.9010488563046686,0.515848672185856,0.3400946625847928,-0.3135391514249166
,-0.7087575274466302,-1.094666713890095,-0.4156385412070543,-0.7441320499947954,-0.28316641244373175,-0.49439418628888826,-0.38770980444296566,-0.06372241503003964,0.31050933435675954,0.06781767994468188,-0.22090823671525534,-0.022567585506256305,0.8535744939256893,-0.3907847181653805
,-0.4283774777518502,0.5065126995690169,-0.10391280874909695,-0.6957949151733258,-0.3738661825920354,-0.5181511678352322,-0.39507119926105844,0.1589889056140019,0.41121945829990697,-0.47243905748203896,-0.6567715254366956,0.1329277404776672,-2.853675879225555,-0.7682255802775931
,-0.21508688230626355,3.1638172779565212,-0.15664336891074077,-0.6315665086350267,-0.3241115483047018,-0.38218208528168846,0.3443029232667169,-0.2145549842523132,-0.07582552214152642,-0.7235288705287375,-0.5779823357099415,0.4078345652478712,1.5447996634108927,-0.5549953780211924
,-0.0988892320885401,2.497773286411251,-0.5079511569880673,-0.47945142044488487,-0.09988629782204018,0.619611042608343,0.4078627884003049,-0.3815749047645947,0.2259500498568477,-0.21660644719947142,-0.2595396822201288,0.21789763202516083,3.1887638454427987,0.22250144106175632
,-0.0316732877181709,2.157434972156349,-0.391996707000746,-0.7269305992841625,-0.2753048666304249,0.44061136047148636,0.1086009905948348,-0.49660760643022406,0.6838595648445688,0.33714326033049485,-0.32902416866657086,0.17226700397487643,-3.625362650414935,0.13486168605907117
,0.08997506516358125,-0.743463054206522,0.031188202897817634,-0.4171664348319057,0.04659169030537414,-0.38759663484404294,-0.3099100249294939,-0.10076771316790352,0.6645092646786737,0.1252882650081012,-0.4713572114762566,-0.1858772144740473,1.205144480530651,0.13142641752967485
,0.8840931410214835,-6.137602073014948,-0.0660043614021568,-0.05300128507834731,0.33848563957270217,0.15720230627036394,-0.0415787876659108,0.18219745248833813,0.49442207464674837,-0.03302000065563242,0.7022436894588082,0.004056490324171221,1.9492033442276184,0.09835039221856058
,-0.574663142223734,-0.6348140599629369,-0.14740356484954883,-0.5172109506556032,-0.1096008926097212,-0.05381216462073247,0.2926579712380131,0.15875348692295424,-0.4270093489843063,-0.45999052008999114,0.1864155443469386,0.06285668036645724,-3.6664008221440882,-0.3521093154561301
,-1.0113106479922205,3.653295189934347,-0.16344021950107002,-0.5590608252033193,-0.2655087415316721,-0.026221226233997443,-0.40854060228892713,-0.28383494909511575,-0.6044557809553416,-0.48445744819695347,-0.6339243404797653,0.14766430257873936,-5.621175424702543,-0.1805891590988527
,-0.33492253906979985,2.2793610987525783,-0.16124053889761836,-0.7063573680505943,-0.047638855098751494,-0.17224117300905195,-0.523884693629389,-0.5425848133782811,0.26730980339304455,-0.22853756192511748,-0.7201788695145773,0.1180716164472777,-0.5848982010363332,-0.2151518164612809
,0.25526707449363056,3.3508942803102384,-0.3525759300161969,-0.7092790405473807,-0.08573827054355918,-0.05202187076165055,0.4839039022158189,-0.4556299768689435,0.12023194294280508,0.08337195940424666,-0.8069487548741439,0.08783561728121196,-1.5185956443931987,-0.3919358049635008
,-0.05226385616319272,2.5868157094399415,-0.12499987030364995,-0.0182143959165626,-0.22119350820110975,0.32506130444115294,1.1017225070800307,0.021662071129809477,-0.04230201797236051,0.12047131042828439,0.23987357713990798,-0.23813332319673558,0.7789232469079819,-0.30084291645391187
,-0.858725046492251,-2.562194467703203,-0.06957540614852004,-0.6122525690132581,0.20795357970349979,-0.09467708756672998,0.11633033591993096,0.39620589127932754,-0.15686327441463294,-0.05205231277539334,1.4593887963037449,-0.35922299907456784,3.1128265865267286,-0.21522055837141701
,-0.5471898738022369,-2.6117647001865802,0.03478123747985195,-0.8226541865989443,0.18972260706208313,-0.3603287838433399,0.23585631607230648,0.4947605212804253,0.07099396044578701,-0.1636315287815416,0.43691167689154775,-0.17773034212747832,1.634457014687836,-0.18477235634069852
,0.3873933031041491,-0.5654296591400084,0.35025448289066025,-0.7134274256923382,-0.389838338696119,-0.5887246466604475,0.15648489969356685,-0.19292315155324705,0.31844504619622327,-0.7865939584640375,0.024394667895063477,0.13593389137449532,4.711434006172088,-0.49975903751802964
,-0.14887089777403875,0.8034015850451085,0.4768757758536429,-0.554173849318748,-0.46250681874346555,-0.6239883595129441,-0.1866408450481599,-0.18521958874492692,0.4320422125132868,-0.6114299482235613,0.21388411194486343,0.725647162668199,-0.4890374198007695,-0.6508415973225565
,-0.1449038727365878,1.0110557333314976,0.21373775095915137,0.1592383651092538,0.02992584801610079,-0.24562295438479148,-0.49858178188983665,-0.06061032572259211,0.04804567379962268,-0.16343597547078426,0.4284534467075655,0.35440807173891364,-0.0576510900435233,-0.5705434805035953
,-0.07481871819220227,0.2089623159444605,-0.23604818992138946,-0.15419272892718475,0.7981788334105406,0.15757379510277783,-0.3215251299414319,0.35989562322243124,-0.14556846307745988,-0.35400938154244926,1.1553079813382994,-0.008595850574042926,0.003928328140999065,-0.6079890703776146
,-0.32558682802163424,2.0806575507649603,-0.157003079626561,-0.5050849828309995,0.8724316137208885,0.12618854649421074,-0.42749462691453716,0.6208036681176184,0.16392413572806344,-0.4592127184934436,-0.26136945702829184,-0.1566645719841189,-0.3943001849534899,-0.5434337368236147
,-0.4450079850116892,2.6447411366691687,-0.03299177256460026,-0.14617777478521615,0.0121939088408787,-0.44083403421606626,-0.268372654868217,0.40478634595691765,0.17079371444395833,-0.20341917051065483,-0.9359892335632908,-0.33673624442539457,-1.41258077152142,-0.3463353511312942
,-0.5275855382645498,-0.5252863255282807,0.45107132283881474,0.9124896628607903,-0.26808307753646193,-0.6719680155387822,0.10796986212501347,-0.06032373147139997,-0.16557829514572736,0.12875201109928897,-0.3313245635428399,-0.10661385593169158,-4.234945217617447,-0.2270295935955064
,-0.6020416164141189,-1.229123505885525,0.5738936690397087,-0.27666429835600004,0.1531097593931383,-0.7025591680513931,0.3329900107560328,0.15647017000743466,-0.14631225047217059,0.18767839804604164,1.1210647511737384,0.6045666785457446,-0.7983214014652024,-0.47233423613727343
,-0.683324035652205,0.07997540463371419,0.39866568209211634,-0.8962913228419775,-0.1305480982209844,-0.4131977643721271,-0.5040989133507556,0.019044586812142113,-0.21206654775524753,-0.3228198196199286,-0.4496628973891009,0.01181590172910271,1.6817937166275319,-0.3931692055456231
,-0.5935410589784224,-1.1092043064324513,0.5004520508389326,-0.6949345400429141,-0.3863912809109836,-0.2685706827844551,-0.2759475245573879,0.36172920822819915,-0.09682863486245352,-0.6432757875433455,-0.5607326483007133,-0.15321975697159204,5.0260412311792235,-0.4882909563902303
,-0.42811448873104535,-2.8767237825613203,0.17143672551620495,-0.22762930712541554,0.17464682104904006,-0.19322293887893618,-0.20037985238418923,0.07833970811230301,-0.3512246032158114,-0.415418763051588,0.3622745416815561,-0.03818722291034645,2.6848904868161427,-0.06305345255625767
,-0.17143940642328487,-1.7862650766447503,-0.12738175169246446,0.007767323723343412,0.5052512403523014,-0.19520117871364764,-0.5227528868724972,-0.21799889185507282,-0.2621633005302072,-0.12577278450965224,-0.3445477681929733,-0.02582991678607643,3.3768080733448844,-0.16032517724765927
,-0.13398930687700272,-0.5097605492616843,0.012304294529585032,0.43346615569234653,0.2965020723372569,-0.14528639721023243,-0.3910539219666025,-0.1499609498867308,0.06992267062731956,0.02592900247310249,-0.4854527477568494,-0.052945974321312934,-0.011754157891934883,-0.18974051431481329
,-0.5848392928534589,-0.5193797126054991,-0.08439534873084698,0.11064583465183685,-0.1856697962187622,-0.12685945489090295,-0.16805886634339806,-0.679103459123326,0.4025490384998424,-0.014899058277405293,0.014169484901709366,-0.22533558260488606,1.0568430974999548,-0.36261989111084114
,-0.22125248128924854,-0.11407970073892874,-0.027629583054194187,-0.3703866892775187,-0.28005509632076214,0.3156094924525022,-0.24133414271123316,-0.6382857108111882,0.22772153944475296,-0.48053936908204564,0.007789270019677509,0.11780239289148532,1.3269624612953745,-0.4022531652467069
,-0.31920285207190324,-0.8698708198613017,-0.3176071112207872,-0.6461974728764044,0.09098164898780582,0.31768924380231367,0.4695502825760467,-0.6224717012228027,-0.38906047042355835,-0.652190349419261,-0.11330474890883267,0.5221038124351206,-0.9571786560494734,-0.2570660164694294
,-0.6690169383152877,-6.4492459344894195,-0.0858561195109746,-0.19040210803928354,-0.03754896277233882,0.08252313059282539,1.060885561071149,0.1670248105454201,-0.024044751703531143,-0.5778545330795964,-0.008900469650673601,0.09817556600666183,3.0525267891245913,-0.4740313492584212
,-0.3531859344382722,-10.80341935951112,0.537607144038534,0.2557920322636233,-0.06660272763322503,-0.07036156048643896,1.1138852306847649,0.5726845500204033,0.35704956493330264,-0.24599709775096137,-0.7628608356419919,-0.09806884059268049,5.839348304751815,-0.40430691606471014
,-0.5194253702482722,-2.4278806473651797,-0.0033203461702828127,-0.47383249947865336,-0.26014560591044383,0.13589096409154844,0.8383183412641033,-0.05370527225641007,-0.22389351206446914,-0.4937127130417395,-0.6799457091399813,-0.16976657451340688,6.842539932348033,-0.5950076325389702
,-0.5930330648790978,-0.40319637202842445,-0.08718986853837275,-0.6321971640236502,-0.04654715880133668,-0.1424416235674387,0.5585636576579128,-0.5033344042194948,-0.4091310273923062,-0.5812357787185255,-0.10621119830715799,-0.2787119949323542,3.4629536223884045,-0.5797639024583385
,-0.1885759563223727,-3.227216645455604,0.26590637594594785,-0.9159095861119296,0.08397262497524027,-0.34456101515714777,0.3735911039877554,-0.2376437373646081,0.18507187662970193,-0.3122811909231524,-0.07099699978804012,-0.07575164982031123,-1.6139283500435664,-0.3793656865585184
,0.03270124291293527,0.7343486280924286,0.0351129347726363,-0.48141142183864677,0.11459114097530174,-0.011567785582059308,0.5057101329932383,0.14962169285055346,0.32902801732306,0.1649650302717917,0.09600240284235569,0.042721111981920336,2.7401148194534692,-0.05723818114194782
,0.01273894737330916,2.924962079532838,0.27183008260722374,-0.01386466013635579,-0.07172487984337783,0.18539788789064135,0.5505889187841077,0.2884974311285237,0.2891559026232613,0.4632321452080907,-0.01986924239214871,0.09843407083845408,9.523944640593575,0.3301360136740346
,-0.15758689546308277,2.323215259475852,0.11171855436458125,-0.3691651206308906,-0.293481970266566,-0.009648404707417834,0.18145042603354894,0.670817248333931,0.5098862399314525,-0.10227759402472271,0.7179967112598015,0.2437202645526174,5.164275610598935,0.5275990030259047
,-0.37910649407340713,0.06042098291256415,-0.21777432987029927,-0.67345572416054,-0.6387436673681249,-0.41176552312678505,0.3214202357817731,0.21501631676350563,0.003971964466667849,-0.6042145084902435,-0.4869142746313563,-0.07495283898369832,-1.0940527614605944,-0.25958624332460156
,-0.6743942823364054,-1.1440633937608522,-0.03824065135585821,-0.3149469187456264,-0.6611348593636786,-0.27426186203340314,0.2834571629530453,-0.13195364082425928,0.09067708111175646,-0.3123184907256566,-1.1032383956952847,-0.373317744932518,2.685158132893873,-0.5578065950806956
,-0.09794587790108807,-0.6444736602170873,0.1993846278644363,-0.04437994268630837,-0.3657249512994991,0.041062075455375345,-0.1434801459649528,-0.4449970259332945,0.45678279411066197,-0.2352700777809588,-0.9773326612146708,-0.4823257757328932,1.9171569402573427,-0.5770801265393005
,0.00734062978926817,-1.7045737671597756,0.07607584119428196,0.32192025805642477,0.06317753417305609,-0.6610054552581713,0.07902232962578058,-0.6156496107658243,0.2598853637140803,-0.3523674837636231,0.012157895352986179,0.03530953039799115,0.37990889820149254,-0.5080739998997024
,-0.690188241295746,-4.463520198412023,0.2677743800638886,0.8627200413187379,-0.36056430274818885,-0.6864865602143705,0.27821355712443424,-0.5647233498221189,-0.4131722197766821,-0.36760443304890944,0.2892366333482263,-0.10356918109110619,-0.1400544116339364,-0.3182313127815634
,-0.3520601914429101,-3.5097188681623446,0.2595647039786399,0.42680884918687995,-0.3382621893215049,-0.316042330175811,-0.37500558511792675,0.130325485115793,0.2459205668131473,0.3458883418629623,-0.09459865654601204,-0.2302322839876108,-3.213290110931358,-0.09862548552744732
,-0.3398516835434011,-2.7234307401134688,0.01420920548614161,-0.41599718935992336,-0.2639583407069226,-0.5325718343460868,-0.5135275746569319,0.6123435135478872,0.38369230125591647,0.07806817885313334,-1.1206211224811762,-0.321574875113341,-0.7950758648415895,-0.2518972175649408
,-0.3132916810941136,-1.872928265399613,0.23566001946522805,-0.9360284404477146,-0.8024337592280689,-0.5318591861421579,-0.5572384672518754,-0.2805855799759882,0.05274265999087924,-0.30357401034447395,-1.574574186987512,-0.4715284719819446,4.83881919437759,-0.1712690825616298
,-0.6986128534183839,-0.3544426299185831,-0.08178890837494358,-0.6586354940146584,-0.40249468384534237,-0.5120058835615149,-0.3710058826831673,-0.7248824942737657,-0.12470100989120553,-0.15526769020072434,-0.24681363370338227,-0.33032197595337204,5.163831672750851,-0.2571841205631815
,-0.605180428696125,1.328797027002971,0.12666249039657868,-0.8997460241384436,0.09747953451063536,-0.010068172242741898,-0.30604131966181647,-0.7228782690671054,-0.21579394179980826,-0.4163073069553657,0.1014720209899375,0.1760093409364803,0.3860798442921603,-0.09120670921882024
,-0.3100506448376634,-0.3993768698106073,0.1531261246598482,-0.9096657632797883,-0.0038206878687031907,0.5451180261511608,-0.5898360133728782,-0.397971498761112,-0.28235363484924386,-0.4098285388177594,1.1143092585298584,0.5073514810164244,1.8861963618835518,0.2661908271375717
,0.5662362996276501,-2.7449494724719377,0.4053527539740826,-0.5578254367820381,-0.5145497541806676,0.35580668165344326,-0.5049626817998005,-0.15056764881746376,0.09258645439858022,-0.17406227522393974,-0.273539191590395,0.022671291885018312,1.0455007731686352,0.04778215972027767
,0.16658332887766858,-1.583107302651642,0.5889351253778119,0.07387857723448737,-0.24171134057990099,-0.05859895107708412,-0.7399728729480034,-0.5484085808150744,0.021359859694803064,0.04283878246711662,-1.071509061100122,-0.09133723622268568,-2.9062618104344002,-0.20319586969495468
,-0.42161844214442984,-2.7400488044911544,0.48568489578229135,0.2881577403039918,-0.2825874024284826,0.0717798427540404,0.015368240754072315,-0.5050509864310747,0.03393395413384642,-0.10782564818514621,0.07309528684057813,-0.14034119330666278,-2.6402446042548666,0.11306944901194699
,0.16450541544419522,-0.9630917757029155,0.07959589631277804,0.4083087230874746,-0.4500032063871931,-0.7349045517757009,0.41408501840721124,-0.28959641672876946,0.16382116650551715,0.034112056583850456,-0.19933224786431222,-0.3931749258576667,-0.49658112933838605,0.33201567708064056
,0.2105376386741121,1.204537121255253,-0.09274086404316509,-0.19333289799634662,-0.158964560086429,-0.5420344138471448,1.0981858897085746,0.41573174188720113,0.4092457625520664,0.027797483251473708,-0.7645752624326079,-0.12528338747751938,2.613700939819807,-0.11379104776398839
,-0.25504475200009497,2.9110048842847998,0.21110883507878264,-0.7380277410948506,-0.2426923089217003,0.1435538103070518,0.43304081469239436,0.073231566914178,-0.03714215665015994,-0.4148540406636436,-1.3519106082967032,-0.00970558773983701,-1.3502346216963017,-0.18487053761388494
,-0.27260129625097884,2.307589829924752,0.3881227193263929,-1.109222092490982,-0.7894573275670492,0.027709147302275777,-0.12108973990962939,-0.0661991231485419,0.016473681305398828,-0.7326985821516288,-1.593012937661504,-0.0332724904728598,4.067287457828693,-0.34195317510333345
,-0.8537142218529833,2.91821275717345,-0.03751008274873471,-1.0741404042500013,-1.0833598535344622,-0.4896087449793624,-0.23178999017989943,0.06390602156268922,-0.11949244130073387,-0.5119665234263174,-0.9406367136550764,0.2769386773416005,4.226254519427099,-0.7478196148830188
,-0.6337825704960491,2.221948338712437,-0.1593920968229393,-0.37501095862858574,-0.8861494747526808,-0.16011518281138562,0.13195173619178582,0.27341689874220326,-0.1460440903292949,-0.304198634063215,-0.04308665969981169,-0.008870109879282348,1.557975781165948,-0.5360090218683338
E1,0.08332723588780595,-1.8272171108289736,0.01433063480591389,-0.7770822778281902,-0.331468617550292,-0.1485268679419406,-0.6980815280381308,-0.32071659938877173,0.037736200472854586,-0.46819327300546654,-0.09217050063861403,-0.14574175334117162,0.18160838325224646,-0.5432060677815121
,-0.8018558977011895,0.13250947107913835,0.16812582864781767,-0.7204094000241293,-0.3883681199449112,-0.08496938021621883,-0.19732129868961182,-0.4768805430771061,0.11356626599972562,-0.3548527360183467,-0.34023449169595626,0.026377225054325645,-3.9064988096623385,-0.5884769413372246
,-0.7848909964550408,-0.6363888542581323,-0.06455181486303828,-0.5403019314335872,-0.13245999983366322,-0.2759827445880494,0.19163960484119216,0.23617831929613572,0.2725015715806841,-0.003915768759854266,-0.057825990180687875,-0.07345779288751016,0.3420276193488707,-0.4297610930353483
,-0.9454045774824691,0.09102592943801038,0.0058929122011761766,-0.9911015421534951,0.15460897420187925,0.047669115666776785,0.15583848590221708,0.06285750427223306,-0.35385821417544644,-0.2520295830288818,0.601305333077469,0.058443630132759265,3.362809684571467,-0.6415831716518146
,-0.8898109001019211,-2.318512106195348,-0.02883069596655884,-0.7126075903209651,-0.10312337314575178,-0.15453786767064756,0.7380460871930904,0.20965874806025905,0.03335932721711785,-0.4796410804778262,-0.9031825158543778,0.021247465499279847,2.9102819195932113,-0.3824849262004832
,-0.16259854687226657,-3.3434627637231737,0.16560761368756788,0.22167668817779312,-0.10976570210524181,-0.39992936669234463,0.6863005382845941,0.21624110342100786,0.8399089462521547,-0.22576754422174,-0.07179929751391795,0.09590098553181148,2.8319459447437594,-0.4810604027259929
,-0.34481618430975225,0.5517429320466952,0.26338085119594173,-0.050385364867424065,-0.08881240327768103,-0.37728412201699985,0.10344654221380499,0.13939277731648111,0.3585551816713526,-0.20573030199159897,1.3010705627211427,0.27135751682815273,2.5293271551204835,-0.23778061688404406
,-0.8212327720590242,2.5148754193379332,0.10720639902297144,-0.28087420025072973,0.3452118650786715,-0.5010728380962217,-0.37212318377565295,0.25980443545977816,0.6819723795443179,-0.33052737726199205,-0.18751806686534475,0.310341024306736,-1.0673424424145732,0.05415915844168575
,-0.44185096479427105,-1.1885116467567138,0.12262650732515434,0.14271847166912877,0.28636755319797724,-0.06429171501153712,-0.42125505669395946,0.21488967850335378,0.6539502102420025,0.05906589759660787,-0.22452381470954635,0.11856401405524376,2.009240186604185,-0.10869966017781377
,-0.16690006906363228,-1.8959685859757793,0.25065025489589016,-0.49693824811026927,-0.26454056224377553,-0.2604789725268153,-0.5927624164608601,-0.020276233599170457,0.42768540261761806,-0.08834551548173879,-0.69259257478949,-0.09195883877619858,0.7923631586056372,-0.5701867294194829
,0.15325730900723916,1.5342795465336787,0.354578673178789,-0.7955020587711551,0.04196054625614916,-0.45111650116875945,-0.06594585222949555,0.5290733414601865,0.6047101726902541,-0.46091515777466197,-1.1789918934630055,0.015022163780723045,1.8851456984839678,-0.1482676702919446
,0.4259966724778507,2.61670995749098,0.049814672288934395,-0.6844711136734662,0.11969820481255734,-0.24072821830009844,0.19580649734314798,0.3495013189890425,0.08480786779456996,-0.5066553689804608,-1.0544028153903349,0.3111688225673443,1.7595480238748902,-0.08077135744259308
,0.3862988264782684,-1.7468972751607008,-0.006719232409204006,-0.45661578097634775,-0.13490476434888374,-0.0730759996515859,-0.16712054291989756,-0.10792437607669286,0.19376894502790373,-0.17160216467671358,0.242254766957466,0.14163500718523342,0.15025863304822484,-0.31567292652357465
,0.44285688798809,-1.4236968054703294,0.09353986503703242,-0.12017263322829533,-0.3922160276099781,-0.05304667811070602,-0.12645361532750318,-0.1209723718556811,0.40510629593586406,-0.09136459811246812,1.9505651517638762,0.30854430519208725,-1.6442961210074432,-0.12442217839378152
,0.046436856233436345,-2.2912777484895726,-0.07000270327525607,0.18748547728627252,-0.19894923336097256,0.05271949373657359,0.5611348469145507,-0.07984610440791802,0.3782635969996629,-0.15892100086287006,1.800787476463136,0.293600456693156,-4.794027221652738,0.17674215826219813
,-0.12449643995267448,-1.3633343586399789,-0.04471936134372352,-0.49869546656353664,-0.1155066379493697,-0.4835050538311016,0.6394408569897705,0.011977244479204499,0.01270613284571319,0.04085833327203356,0.6689104309017134,0.02682622141025313,-2.092848558658636,0.05800604755688517
,-0.0018924438134154105,-1.482331092552541,-0.23277468433253784,-0.9499418668701992,-0.4535013159452155,-0.8549559514131316,-0.10971379176584188,-0.437936730637104,-0.6904628290292,-0.041767596499559065,0.7844832090483314,-0.6756699631974935,4.136078430141865,-0.5454870241605514
,0.03328223049359713,0.28326095072762286,-0.333271529411147,-0.8506098270958576,-1.0017123024092762,-1.2386347324601115,0.13636665158220723,-0.3522053889942659,-0.5810174041892412,-0.4749767858155767,0.0824889969579023,-0.6605505558554693,4.389305039713299,-0.7559524447947851
,0.002257596156113466,-0.6231458632910309,-0.33473314731402043,0.05898383120981469,-0.5757678481841251,-0.9257417823564311,0.06458932780588166,-0.41794679051453665,-0.01561181129963953,-0.510847687980474,-0.07552887135660791,-0.2927357900044106,0.2812096489054631,-0.45295502994529613
,-0.4641805599081606,0.647004105884142,-0.2883493197783889,-0.2119394457279775,-0.41856869910103456,-0.31993613987366387,0.2233478290441251,-0.4407245460656814,-0.3603863700778311,-0.5784906567163148,0.3970677150392587,-0.4677551360277509,-2.310076460262197,0.16454114803309944
,-0.7997363699391918,-0.9089292090995027,0.03855189633004857,-0.33881154411018044,0.2373703090443417,-0.1846498538181216,-0.055389977133798854,-0.1502632413844742,-0.40996248903558813,-0.4676464507101813,1.1943621274259657,-0.19699398976180585,-1.0243458145130737,-0.025867541282528547
,-0.5435611362395095,0.970667124560956,-0.42001424822414984,-0.12555938868953057,-0.5092497380972675,-0.3777778698339426,-0.41139804538037134,0.009059694615301971,0.5596275161352464,-0.2970751061601027,0.003911950330012404,-0.19492528451211213,-0.8093037331674675,-0.4342578527216774
,-0.5029926970079033,1.3952668231171452,-0.357146473757616,-0.0634850992396485,-0.493456790895796,-0.32086110922879874,-0.3012750529936997,0.45240270887778433,1.1095951031981917,-0.12283129426935553,0.3436961980669235,-0.20091783773028862,2.0849825653993395,-0.631904533494619
,-0.29104475856267725,0.3469504369872184,-0.0716147034948622,-0.40376916480921987,-0.3275824338105928,-0.01580733493888175,0.05513638865963114,0.02673529515601153,0.7532909940469614,0.08715312257629824,-0.052064845349942684,-0.1901034109275349,2.223790883609122,-0.7596355071917198
,-0.2513329108026258,2.468328580652544,-0.41328558671457283,-0.48633282478228357,-0.15534856656153728,-0.42328654573988395,-0.14190770689445176,-0.4846809025142615,0.5528782245200864,0.26195862465769515,-0.7508681530259683,-0.6620408949101518,0.410953212631399,-1.0432786097188023
,0.0007985613843074416,2.499011799411672,-0.37865501229833204,-0.3692526567857637,-0.20908963716830503,-0.3443445028712983,-0.18519026448538817,-0.4727917884403335,-0.37970315654997366,0.22429411148503076,0.7207798183671714,-0.5785016118120505,-0.9533880714439206,-0.6435119573199123
,-0.18792086286743007,0.21205797403097787,-0.20725867463263561,-0.6114474014615051,0.44181695685076644,0.0280010088083439,-0.5563105422371407,-1.000187981820001,-0.8837158620816761,-0.06689562544916687,1.6290175895175931,-0.4941544921453951,-0.3443817549398895,-0.46199639291839634
,-0.19066202570403076,-1.4033906045776356,-0.19965855335237928,-0.7404736026866615,0.008844821010990152,-0.35413033846166264,-0.9910349887769307,-0.6751625377114386,-0.4204803522825849,-0.14177696919357047,0.01709256082887082,-0.095054155971916,-3.468331496583883,-0.33212922409400464
,-0.17326128025940418,-1.8546698717096968,0.012577950585196751,0.08555691636801574,0.27923293928887327,-0.39463549859479974,-0.5447448478566927,-0.20474255169682176,-0.09872989551762573,-0.13933508083731608,0.40185561487292304,-0.19500187624956358,-2.31520590906936,-0.4950377517909167
,0.5298738992320413,-1.7805750551642974,0.06422966416976311,0.7271126534973963,0.8905604850598562,-0.6543051983565867,-0.1347017391344353,0.20368575665939123,0.07794697203298563,0.0832632429894468,0.22114842014890623,-0.18573794215691447,-2.928163807239385,-0.6948903109209302
,0.30913909845904064,-1.7261834089536867,0.042744904799871315,-0.13612746964164427,0.26695798175903607,-0.10935741935262681,0.3215177575548415,0.017868255475698352,-0.2603514895705924,-0.32566336050982303,0.04261239612619358,-0.46061640365497014,0.3525445275842361,-0.38195401906029325
,-0.08017205526243819,-0.10619182338467904,-0.12810013279004887,-0.37060242444868324,-0.21442164668720648,0.8535321097211571,-0.09079796831128362,0.07553729072303195,-0.14651398857474424,-0.33340068993152067,0.864447680189792,-0.31476556359307917,2.7547254124292313,0.12098173721583633
,-0.048446403836230376,2.569660440496465,0.044308603287382446,-0.5507395892336812,-0.9531176752524089,-0.5867083105707029,-0.2728368936350884,0.19002147629018343,0.084415945079234,0.11524163106231647,0.08512095225250961,0.021044295091117424,0.21830148778081612,0.01921532822897817
,-0.2732082365085925,0.7720648466446167,0.3962732298719087,-0.5118482714945745,-0.8179602771913794,-0.5125219125118973,-0.2870759580824632,-0.1263184702273118,0.2474831691552716,0.18284914149387238,0.22178107590978693,0.37339259241410405,-1.04749063016947,0.010252600302734805
,-0.43553649478482975,1.0439060161687357,0.01921463452531,-0.6722484762972342,-0.19373218044374443,-0.0702859031112174,-0.42209377548296045,-0.20197104510512634,0.01825725905818101,-0.4626548098890001,-0.053393569158513954,0.36786534660008985,-1.5965603338268466,0.0290974726733682
,-0.399632954455159,-0.20741625935155464,0.08321530241252628,-0.7897758821196129,-0.0382907623023616,-0.3309393112022004,-0.5420328416142008,-0.3169531275612289,-0.6073988312000037,-0.5370114678180825,-0.32587654347534584,0.5113119665390502,-2.6778465116241743,-0.4864646817324841
,-0.46759880864654196,3.6233259878892086,0.14891518834825584,-0.49722015265046887,-0.32447514597273935,-0.8244914381937233,-0.22169487191498474,-0.4796080968666949,-0.6986144746905031,-0.7037486023520649,-0.6630865430041399,0.04951538353430847,-2.08211149859061,-0.4552082670609072
,-0.42301877489410533,2.2685456497830185,-0.18551867547502987,-0.07133215648307203,-0.2675930250667505,-0.5145384960052894,0.22499810825711727,-0.3983947606811498,-0.33706861745695527,-0.23517420767995267,0.1577583112370705,-0.12023612756089874,-1.3781463031768928,-0.11781748344556203
,-0.23905550004513829,0.33645585331957534,-0.1258691188499555,-0.5721789794579992,-0.2825759842632203,-0.5781693129873655,-0.3535436062165243,0.13827540508689984,-0.00011900731854568597,0.02005733581808714,0.19009370658423239,-0.15258394246527957,2.44095063991216,-0.18146796455084518
,-0.0808426170933405,1.888338077365729,0.13451954761901383,-0.11092960711825968,-0.20551930104634933,-0.9785667490079644,-0.7072332200474613,-0.11506120581531257,-0.0051986469986841765,-0.26050147643914917,0.3416914254430101,0.008731059389642722,0.5566086578390836,-0.3179313882793522
,-0.19710160488608316,-1.6911183506821543,0.3813830189559594,-0.13019212877114628,-0.24018929904876146,-0.8044877055579455,0.11203996170559129,0.6883131182912958,0.3156508956648086,-0.2855796784090327,0.901423720967403,-0.10160239764579297,-1.8923440453113225,-0.09797314503268283
,-0.04704405906316018,0.7694891517154266,0.7280432669408125,-0.45128679884160666,-0.7536634964346334,-0.7378811334806469,0.69919618639594,0.10146337580631824,-0.048918424446703954,-0.5689719837117353,0.10548645938536998,0.22986465463474806,-3.786180845632443,-0.2249011275542486
,0.390743986738593,2.5473909315601215,0.3403481913570454,-0.6400603916465082,-0.7095751234999369,0.03428406659387795,0.3423890437936947,-0.35949563317808014,-0.3707993896959134,-0.6474424092342813,-0.5642925797282232,0.039263224382490115,-2.5081043137960077,0.030179297254868447
,-0.14215947630652667,-0.3779074769546232,0.5104013999952876,-0.8335348519404774,-0.22247268980824908,0.39707284244864594,0.6141637037518775,-0.46957859384443545,-0.13844725894032467,-0.44350871876352144,-1.0641566169761383,-0.04426793252468962,0.022279404863683315,-0.142028909010483
,-0.39583864356699994,-1.4651715126042424,0.38733321509279967,-0.5788642898276786,-0.257731131003733,-0.281322521231675,0.6307730519133892,-0.2926870339542043,0.03566236749412095,-0.4382326068702992,-0.9274136392047522,-0.3553259352490254,3.491378331326269,-0.35341264510900644
,-0.44402340196308493,-1.6503046356848983,-0.07599127497428242,-0.3912178914851024,-0.36718485336648765,-0.25214051649871183,0.3617454621914814,-0.5632707620960521,0.21320469354382837,-0.4031138738726716,-0.9516093567538245,-0.43125280317879766,1.4777703759690335,-0.21851152142801075
,-0.35793005516694015,-3.2267926435883667,-0.26902330130350105,-0.017501608527362,0.037435792963621095,-0.17276271405903654,0.2616800335796563,-0.14500004479000517,0.26683307894392894,0.2022093469552599,-0.3969611669136724,-0.2948262750439239,-10.389147756508079,-0.02771805381144671
,0.380591588476672,-0.5622268467541801,0.08279568715004314,-0.05437599257937959,0.34506853438305735,-0.2761988178836929,0.24483000072888844,0.6294370856002217,0.9500250276132278,-0.08173839505654766,-0.28264876808983963,-0.1123621950256436,-9.317465015774241,-0.24288679872883162
,0.459338927529627,1.0376533316192462,0.6983711095603149,-0.29427140227424675,-0.14982742927325882,-0.31312069790656205,0.12986856061341873,0.6400078459811991,0.8792086154771389,0.26465745008665087,-0.06951410154759909,-0.15638318511926982,-3.929841415804868,-0.26718309140415797
,0.5127003202237285,2.0799805531673643,0.57342485017536,-0.08477847895048474,-0.2817700184231371,-0.002527257765581155,0.14127953205914295,0.44968471101811375,0.42271721891160546,0.09848200001051295,-0.006580817010417653,0.013033246147797545,3.004239718513524,0.2011262390111527
,-0.10841107056893104,2.0604283181613425,-0.0132295319686415,0.3029548131588236,-0.24100596875273353,-0.6708566817934634,-0.07710956041514802,0.031680389342717954,-0.2012082477290719,-0.19987538807431107,-0.9279206872559493,0.07133355849628488,5.572207433401242,-0.005621247170461508
,-0.5015331494181792,5.187297374387938,-0.07707880271981621,0.46014359481473327,-0.26339991320044265,-0.8790639450867697,-0.5389062681243072,-0.22260295796076793,-0.47810232865981306,-0.31063374937216987,-0.9922347712011454,0.00013586717181819532,6.98234865182015,-0.06984593748839366
,-0.7504608211329379,3.5705937062842903,-0.13705985497785753,0.6638281668499406,-0.42309187755487887,-0.36893080589683513,-0.3717126451325031,-0.26982716395196793,-0.3823597002081755,0.2506613492797818,0.06939019784273841,-0.08943906437713246,5.236710042375228,-0.06639586150334789
,-0.27204161779182723,0.7308614725282263,-0.21586021950469966,0.3912098278020258,-0.4361408999068869,-0.06687629511070797,0.34766169077032816,-0.21116736357503157,-0.011741098566369157,0.6172772978317359,-0.04067774176038587,-0.10845056150473631,2.8337046386922586,-0.08382270555697019
,-0.14026641302912765,0.09160341434325156,-0.1591272632164774,-0.4007283292165221,0.08064512242495187,-0.5290328249274542,0.29120360970633263,-0.6421838324493785,-0.4110109780146847,-0.01716383439359643,-0.05400611122022813,-0.4174442203079645,-0.14792315086557858,-0.2359344082920458
,-0.4042356339783952,-2.6483391613321188,-0.3594758842062917,-0.6614221620186306,-0.42240832868459627,-0.41731211516788175,0.188205761923708,-0.37719836146914093,-0.5805292187663947,-0.6400631352481169,-0.7196898846061381,-0.10644892214670917,-0.5418539246083087,-0.2740419773665922
,-0.4865117309297587,-3.549276186783993,-0.32956815790096794,-0.21488370365383994,-0.5008921976881908,-0.626745937387717,0.05887908301284972,-0.5165613957023306,-0.12323301147342425,-0.4252680248172572,-0.6946672521756578,0.582435580708388,-2.0185593356069242,-0.5411636145806834
,-0.32654733876985337,-3.315677205354535,-0.2833793363553887,0.3344204398750773,-0.20769256514633638,-0.5922606189596369,0.804035422627205,-0.573615554930601,-0.11407827974268513,0.19870430407902862,0.14867337200198583,0.2802168837224881,-3.5823440187525204,-0.3109834651142149
,0.5920089888673328,-2.7166357345542584,0.12116900714445517,0.9408238380041272,-0.44918862856457437,-0.2603864887096508,1.1545874373986291,-0.15055879471267283,0.3950354866673607,-0.18019051455927101,0.14363668388812748,0.27515664359283004,-1.1213014138406974,0.30766983515137764
,0.5350314635542668,-1.5054716713202598,0.06386409177544564,0.008382526264682128,-0.8637098889481121,-0.42114587443305557,0.6836321197663179,-0.07081494303620432,-0.19583469618828103,-0.5480623772247306,0.6778312859094038,-0.0030287534047760307,1.6563207896589545,0.40543118232926106
,0.3300189128219255,-1.1309806117535561,-0.1795865457778462,-0.46147700645317535,-0.7609807128786332,-0.4228527707100703,-0.17335915359549126,0.10341224981564826,-0.41194952307580246,-0.4516080662681072,1.0257412958250307,-0.13212051158309035,-1.6155599025951126,-0.3711874825483826
,0.5517971021593154,0.1305462342618046,-0.2610643275157494,-0.36034721216798526,-0.731261859591205,-0.6544127733473308,-0.5372174882264513,0.0637459345030347,-0.18187548904061274,-0.12539669589687263,0.5686108529821408,0.08483306560693638,-1.3827268984764718,-0.640842478256928
,0.3090983196370211,-1.7514853332936757,0.31362043169599824,-0.2174667319148516,-0.40411163176364645,-0.6248162859882471,-0.7344776191515315,0.5196269285612442,0.2631183443014002,0.13209734211302307,0.3786354035175795,-0.1622257963270694,-0.8294418880594108,-0.5353451673106202
,-0.5484098138133802,-2.7721493248755062,0.09475730059874286,-0.5031780965008833,-0.4919800190611349,-0.00504685988676343,-0.39001662363950823,0.33784960713395157,-0.15365932392651716,-0.08660523975798695,-0.8978340225402723,-0.0852734613992171,-2.051475220538244,-0.45145299992672827
,-0.8717858555939583,-4.71413070748204,0.3499585093906773,-0.8017979400762547,-0.8521340099939146,-0.5972238987381392,-0.5085983905236019,-0.08964428101060043,-0.21693986373852442,-0.7372597132708549,-1.6439154965909488,0.07067935620421939,4.08004136407551,-0.4360238251183887
,-0.5835280088216335,-4.488588629419068,0.3200872845207631,-0.9266157392988035,-0.40987271181127405,-0.2557323300340303,-0.2863282455430142,-0.002129359589587713,-0.192534012174593,-0.5152045097851755,-0.8999881662620411,-0.06330076410304661,0.1668071951542444,-0.313640887482998
,-0.6128032442323039,-4.692629081381881,0.4358808953618703,-0.7037013317045028,0.03163379587955872,-0.7703458970202606,0.11562320833730076,-0.02161812165106212,-0.35146284658945076,-0.45182241949895247,-0.430944684456221,-0.26842251458318805,1.397605663799215,-0.06649717039592884
,-0.49410810841141684,-3.294570616236402,0.08052286386837937,0.053040951098530145,-0.06738786791995637,-0.6183872500006834,0.2754989273520088,-0.3713149267838224,-0.04835806214793416,-0.25855770925010985,0.2206317415546923,-0.01917854229567337,-0.6406710371899007,-0.12902226470867156
,0.18854139852040439,-0.30167097563734113,-0.2760400659092836,0.3945712297618915,0.07834783863478384,-0.1050057138812077,0.5690856020869312,-0.3809619944638183,0.05831777398963993,-0.055258558321806234,-0.22338637677803835,0.2360328366489044,-4.030916430292588,-0.3618713759675506
,0.5259064433910009,2.2543788571477363,0.2595263782072633,-0.2652822694634173,0.06617080603275283,0.30288236273477354,-0.0769328196678665,-0.825566998026413,-0.24349370316661326,-0.26779938013416393,0.20803644861471718,0.05193496339459835,-4.384166343320604,-0.18825016971610323
,-0.142790603496951,1.2901363627345666,0.34397829055702034,-0.6554956246331268,-0.1430351616891006,-0.1340305277901023,-0.6538481951073349,-0.866636702444151,-0.5763072438395336,-0.6996762838535999,-0.4987752550352448,0.16111637044195523,3.33001291876295,-0.3083407843614687
,-0.1663634808405196,-0.3230982719205277,0.17050936021678995,-0.32245623914648963,-0.45820173124204905,-0.47866202579521977,-0.3914352002179658,-1.6201593995192574,-0.28389666601165664,-0.47378664301978496,-0.3454644563976226,-0.3933855076561893,2.9922649702394777,-0.3620522828110345
,0.8007397577604703,0.2597490481103762,0.0659876880767952,-0.7170869891359741,-9.20961926251172e-05,-0.36849661588458793,-0.4876978069952408,-1.3418330064283526,-0.17034060106548454,-0.24160134360050498,-0.13648227703052715,-0.26738243934686556,-1.3320134037174163,-0.35320740048762533
,0.5410207311765959,-1.4397343568388827,0.20777197115028823,-0.8884780299029555,0.1565710713801455,-0.09314973042974029,-0.19158758972111672,-0.3086977738940177,0.037124197127044956,-0.48781019692733046,-0.7105413437489337,-0.21484687854566198,-3.0039573313333707,-0.4576746504649401
,-0.2570912605207759,0.31934708006930884,0.08787301842098594,-0.3992642303745822,-0.049789734063636196,-0.08803302481543425,0.05634617220678547,-0.483210484656233,-0.12107485885711086,-0.3738306759613073,0.570019170788212,-0.44918952676607443,-7.8625517410447925,-0.4356463622323426
,-0.37303161574980215,0.7242588458738629,0.22680408593651236,-0.15627096848214336,-0.2087663428554544,-0.020595145525777982,0.19878376403259032,-0.13760924677236017,-0.07266011127875617,-0.3066699681668065,0.7741422134774011,-0.3597832409833623,-1.6890491887391696,-0.20746181887939974
,-0.6266547118506396,-1.0877415447990164,0.21217077313048635,0.24515887193537145,-0.23530461312695153,-0.07496103497629528,0.1183869631478373,-0.07203520039624842,-0.10746261888856375,-0.18257932456650733,-1.1569548789851276,-0.20708860000706747,1.8954866325385977,-0.1452490200073598
,-0.39787177116731226,-0.43831798085182366,0.18676517822657684,-0.9358423506416426,0.1053219479862563,0.002424784415974611,0.5185176710827134,-0.0017754617983542706,-0.143192308078426,-0.5143541618667364,-1.3431270191948836,-0.2687188591125802,0.8386271145358092,-0.10507609193419998
,-0.37373272309252537,2.0842276290616413,0.06378488685504052,-0.87066739131505,-0.2241933013770348,-0.6056784893676995,-0.013850134398502417,-0.20894942063065317,-0.576305944681573,-0.5297780083081863,-1.5614978644385737,0.07286506638485309,0.18245910958695435,-0.3249328936849177
,-0.28983277576706323,-0.41264138800727124,-0.06375251476586152,-0.24770438335702527,0.016517338355907914,-0.35195016328171935,-0.0035094679190356246,-0.3222748268479314,-0.12469376913787868,0.3655479348158736,-1.3532089881822498,-0.06072719473940288,-0.7893455524956559,-0.32623188236122425
,-0.01111323964404766,0.08870461804706596,0.17569759716490158,-0.898393312875041,-0.20807513166912414,-0.45641894733018257,0.8758515988759993,-0.5364555720003411,0.25140180117018446,-0.32929150666754897,-1.3359029410446643,-0.1415841733554028,2.730200920086517,-0.16530406390147512
,0.3593736321076459,-0.1308563783466613,0.04864980407709713,-0.9658955505770979,-0.21190247650902844,-0.6472929574048537,0.5114224843454219,-0.29537424879429175,0.2914423422333307,-0.46921199876792924,-1.2525638545805802,-0.33365763954030697,5.006697028465513,0.05303094361196039
,0.18970779474197394,-2.7687555603545944,-0.06297908341476804,-0.23469144026750233,-0.16291867878215582,-0.24428178385123536,0.00044652639752159695,-0.20413241095830684,0.5370530191457835,-0.08270021925559598,0.5329163531551983,-0.09379811437161331,0.7169945453835905,-0.4544004580996735
,-0.5214972361317716,-1.5675675133118114,0.2564068072772278,0.18710130997473348,-0.7786916323679108,-0.45529184070718887,0.2652692127677158,-0.2653232561919426,0.008269144751657805,-0.3488768317386292,0.8310204735116311,-0.15714874760354897,2.338769166263474,-0.4520205549736047
,-0.25143929503202983,-1.614382836839901,0.3032730113719558,0.0029082299682852662,-0.6913401445838323,-0.5719492363655154,0.9424423114924732,-0.3534113432218962,-0.0157899795558145,-0.2856671735419641,-0.9374463325364217,-0.3257572813568437,2.2782406231732373,-0.44495933247019853
,-0.20625762392233662,-0.6366889863189,0.20520070890594289,-0.32732197534982316,-0.3063076115280578,-0.2242374200379344,0.5660356146759162,-0.5372435023691157,-0.20052773481685013,0.047951740836090564,-0.8439220288877031,-0.11279047791182306,1.8987224512927758,-0.588294559695101
E2,-0.7946613149507146,0.9384545257335891,-0.05135832764990058,-0.11139747770455223,-0.09457385126331155,-0.512463156036571,1.0672250992774706,-0.9445679482897869,-0.37472921989410685,-0.22781146626931603,-0.3658220409455149,0.1319573651552714,3.3243608995280898,-0.24460808147568655
,-1.1715465266692988,1.5263688009277352,-0.060453223813768796,-0.40039817911404696,0.0014025672872866929,-0.8195334676629736,0.2363425819302818,-0.7168831390863141,0.1150405682748951,0.13138845134205815,0.04083870341799544,-0.014584627809202983,3.1455913087339766,0.04568413776136245
,-1.133385857797568,1.46369765880993,-0.1901726763615323,-0.4694360329457459,-0.12219433715548744,-0.7554477203129736,0.2908786504769929,-0.34129939150078975,-0.055416861590807144,-0.11578610386357972,0.4134673810108228,-0.2373158090133237,4.473833602956352,-0.0737470844047978
,-0.7434702079271498,2.8832166183046075,0.05917670399781503,-0.7644929258075309,-0.25088551326687164,-0.42634222800225596,-0.1241488795519912,-0.010660401696247233,0.18070016752165746,-0.22869667418044604,0.546709561762687,0.1883059699106627,5.879044328988881,-0.38629663087384886
,-0.6752018272300153,1.9812153265243395,0.016628740959792467,-0.9381581039581641,0.1098311153975854,-0.3932620778710854,-0.6691555553076121,0.1469074091433443,0.44153493051782805,-0.0361739065231222,-0.4846543189442701,0.26382699928342146,5.18853191615227,-0.35995031924758175
,-0.46086728633858204,2.692029379241235,-0.02667647505215257,-0.43966808166391397,0.5005577193581076,-0.5778376128472088,-0.6104139798759861,0.06595762741167291,0.4499037753061993,-0.18280908150114814,-1.0172008699460464,-0.08801728052464335,0.607490584617994,-0.6473973118762166
,0.08706617867917772,4.478582858305511,0.08562557657101286,-0.6639850897137187,-0.07661490440095409,0.3332859098848334,0.047890014706492984,0.21691743965254595,-0.10156786507410773,-0.2022780171262877,0.256357689272267,0.0771468216219617,-1.1259085267170927,-0.2485245558322462
,-0.5638122371366966,2.465360636063438,0.014291160434491627,-0.4232104666932187,-0.8397666859115044,-0.41014780471166556,0.22614789469352672,0.08805609665964856,-0.3149325018024467,-0.07241869795272948,-0.8144517512242915,-0.25398932682782643,-0.7483962951140322,-0.34917903822326357
,-0.23606903450034628,2.6242870106149327,0.08256748717510508,-0.4275630209492834,-1.1153376568406863,-0.3949848489943044,-0.49965084836923546,0.5997385500802773,-0.43594939254247567,0.10088493725506424,-0.84748881294248,-0.3509753616900631,0.8396966168968953,-0.4745579600719947
,0.11228319555571882,1.164711916814057,-0.10768121151302376,-0.5737917591621697,-0.45786202081004074,-0.11749001423671583,-0.037369175406860695,0.6042837742780244,-0.34695308869138397,-0.42507040955393965,0.00829632653015425,-0.24275175924693673,1.1976003188826194,0.04496934683729205
,0.21441248989712644,2.5162149508756846,0.15770648471804585,-0.9042942922974199,-0.21001090486978663,-0.7542434207328761,0.20280453044613014,0.25881084387909015,-0.2668714950175414,-0.481958329803853,-0.16920388709563297,-0.24497162656339863,-0.02126292513802829,-0.10172470009333598
,0.25515984354381116,0.17331457365361985,0.3216600855154654,-0.32144095971827374,-0.3598917855547321,-0.3705816095698033,0.35835962100146057,0.0791371598120837,-0.10408829193574658,-0.21728327682392837,0.6198962669703623,0.2206008124562695,3.7783409967858734,-0.01108730119523875
,0.2272306708115827,3.0098381301130934,0.07716782915590538,-0.39932403464012445,-0.6133119447549181,-0.3228249959892078,-0.12656849302190176,0.664600359334156,-0.17952803560469915,-0.39537697796511995,0.010468566851409658,-0.35819390375167465,6.294614913432705,-0.08975011040080676
,-0.3406384521354665,3.449154820300198,0.011239178233293961,-1.0359743362658123,-0.7240052917649794,0.019874228475091824,0.013917702371224912,0.604275511643547,0.18093966324875066,-0.19144540400213342,-0.1375292411614198,-0.3363518410461894,5.197789826646376,-0.42428146605861866
,-0.08849374165357833,2.3124013686149487,-0.08659993042094315,-1.3655889556799259,-0.5830194738747755,1.0059710762140495,-0.472101793244385,-0.3077011932564295,-0.004161860346878175,-0.6958313514538206,-0.24295446667437906,0.16911746268758418,2.883282140351534,-0.45301142470658395
,-0.07064891035850122,2.080927779004808,0.10752329117926435,-1.0962415585231382,0.058207862707351156,-0.3901753435373104,-0.2963572000867955,-0.4235206385932806,-0.1753669840801792,-0.9747374607345246,-0.13719146404515684,0.0708233818213036,3.8658360855006935,-0.070826666865292
,0.05601129261285327,3.168036268573388,0.20442643404910696,-0.8115483305387715,-0.5136034146318603,-0.7952454079723759,-0.1695857230166949,0.4157710561503069,-0.13386409728155887,-0.7536686132983134,-1.2759013796132759,-0.13623243759062756,4.144966402576683,0.24648994650575437
,-0.11316577686273524,1.2321382447004006,0.07402554300559061,-0.8037630247558933,-0.35626566165118756,-0.22264190148550556,0.4441566809084933,0.05089643156361094,0.006618673759711796,-0.5146638316295835,-1.1523738532219536,-0.06106409920135595,0.6162598733344246,0.16828220166365884
,0.1231817587261825,-1.704874612134873,-0.04904214591794838,-0.5310510768237992,0.029694272630303317,0.021283450682837327,0.1974619276415368,-0.0039369184272120454,-0.4246791311700898,0.029557586542483985,0.19748714943763562,-0.20166293380382694,-0.35784617827907983,0.2857791918292852
,-0.23791374609991509,2.813102320499353,-0.42737103739161986,-1.414530335478641,-0.32258188730234116,-0.17267806631365468,-0.0200940145629981,0.026684546367322756,-0.2891374752332845,0.13960324700819773,-0.04397483591360821,-0.32024144988125275,7.6946200010357835,0.08630804896195894
,-0.09116114326638375,3.669818927013832,-0.4531941231937166,-1.159649491168876,-0.7243671722731302,-0.5067172255255048,-0.5392974286132808,-0.5599142498928185,-0.26906193466326,-0.15384753507433388,-0.2614785106343377,-0.41860985046215626,7.056867837063994,-0.2913134227760644
,0.04754123979019744,2.994271360737962,-0.03904139995826731,-1.0465189886234278,-0.5671587012865844,-0.6167384514702535,-0.11646574523369391,-0.44789685551978997,-0.026018266188799093,-0.13455410939422577,1.125998571674366,0.03793935282708822,3.9373309307603663,-0.14914357514939028
,0.4633468484920647,2.2666402910752126,0.06762100523657757,-1.0985774291921817,-0.03476417993713742,-0.5252668347959089,0.4660347310785928,-0.20924207762352814,0.03714990243163105,-0.5218963107476772,0.2538086460355612,0.3189457932915909,3.6852583515686503,0.3152149860600153
,-0.5852676940865622,2.343569075196085,-0.11133820209303741,-1.3452314106439238,-0.3129696027742359,-0.5053568038710408,0.1497766657834634,-0.2560397949484026,0.2173067105250199,-0.5260102596580442,-0.7667429033190442,0.11681214672145306,1.4078417689601603,-0.1202465425641
,-0.9423559549148547,3.905127041862843,-0.04200050401008228,-0.8244834822316266,-0.05439744980672743,0.07689315733932231,0.626534147587446,0.10129904682556487,0.22584993736808615,-0.2947966939834311,-0.4302965348928091,-0.03721028030815621,2.1195862413300652,-0.27557646259774216
,-0.3902612647081649,2.2551883246122775,-0.16027381292965273,-0.40764846688295886,-0.15291154200461402,-0.3043786238257222,0.2215249006246397,0.6504693516106707,-0.041056477126193675,0.02148121747358367,0.30227220611036076,-0.06784307522382939,0.18772924879418715,0.24772994592943076
,-0.08793781628928805,1.5297082117061138,-0.40519440256033273,-0.8108398451473354,-0.08306199957514558,-0.0704091374561422,0.14398286933456977,0.018526194464292205,-0.21393027886522473,-0.4326879325810691,-0.0673693145724403,-0.2414652956556382,4.540809268963378,-0.04771220694700206
,0.2704492366045337,3.830542088698274,-0.4939494504334406,-0.9409583458024452,-0.48388853439174023,-0.3677845635985655,-0.022288712531536015,-0.23694205971946503,0.18286211292315238,-0.7491282558540271,-0.8919471419687669,-0.18427728027819965,7.659716803411962,-0.010239036078919794
,0.5118500070730273,2.6260495954564598,-0.18096294232952617,-0.6371245680519172,-0.6975750333735582,-0.8204139644255027,-0.3312831022278226,0.4224480696460556,0.1886455665203206,-0.10690317246896723,-0.7842083084115908,0.16148821602237848,4.912275171521615,-0.016126590109347576
,0.32530424477696623,2.316693930975823,-0.17735582942546382,-1.3204125480267817,-0.3563471078096485,-0.4764306508265919,-0.4013627370557901,0.03504614357312582,-0.17163116734583997,-0.010911840314919598,-1.5219809007836673,0.0013079602436686015,0.33910582536885103,-0.4882572130155163
,-0.5501528199102889,0.8043400716086492,5.032191166285392e-05,-0.7936367871194957,-0.15500987593827636,-0.17351582795722273,0.015503335906859634,-0.05358523178578802,-0.15631730438142705,-0.24470944642588763,-0.618167921037508,-0.10232043444152336,-4.2056996242927704,-0.6457993060645872
,-0.8505596794972347,0.873258978621981,0.18618040783754358,-0.3410481783193213,0.11387047229403285,0.20405048356151234,0.6370533956283051,-0.3865597486243485,-0.38843856920445335,-0.925940334818577,-0.35767129980676315,-0.14324112530123034,-0.05719038266318063,-0.3524640272304933
,-0.5398587452290821,4.509642458089168,0.07486369772451282,-0.6947171715927877,-0.2890727735490099,-0.307848457935914,0.13138182644803173,-0.40736590881696494,-0.3568418956145305,-0.903524088150226,-1.1300687460217318,-0.07274456821218628,3.4182942682159685,-0.03759106684759363
,-0.22255491025916396,5.037646264021903,0.12015810578486534,-0.19819850774114528,-0.6005795234438682,-0.502095777260793,-0.3228534993089883,-0.12115630792247759,-0.17528475152570142,-0.4040306622371142,-0.9350384949541709,-0.20549146275612018,0.3682770006883968,-0.5436179104197462
,-0.43579332348256533,4.181614416945731,-0.15573286752483836,-0.8868463870581855,-0.5492370807622701,-0.3073303205931705,-0.27709373651300256,-0.4303334861271171,-0.24912072958057105,0.0014697431703314134,0.05102538981146404,-0.008215692258831366,2.0073628780433768,-0.7318090264688016
,-0.3471156995732882,6.7293554815178664,-0.526073769904953,-1.260753431036066,-0.20510417053100094,-0.2493814631252692,0.7324562709406572,-0.4687895860634508,-0.7188651767333871,-0.4692365600496316,1.3846763271476248,0.22775324424142648,1.4493121168132241,-0.715542957677882
,-0.38330916226413486,7.044131273967727,-0.0966499092190284,-0.8860029937717299,-0.22973630657704883,-0.40110659952401656,0.04389398538007113,-0.21864831355074546,-0.5798710264423852,-0.5469785088630049,1.5776082847849051,0.11913218874084036,1.7452997115604185,-0.41913032118404475
,-0.19252106159337048,5.572711002745908,0.0922345711442983,-0.8509720268804247,-0.39457326319999475,-0.7148779448607204,-0.5821785453021132,-0.20315518703769048,0.3037531243841309,-0.4968843611294865,-0.20900364540489455,-0.038548468871845494,5.453417491974512,0.036417462281492924
,0.10988914999440617,3.296403158661746,0.1455175534348036,-0.3603276947627947,-0.2813770619836724,-0.6848786407952121,-0.7161968671258038,0.07129911612404297,0.39513933567732545,-0.15315806075903737,-0.3872350658106717,0.06892300231362489,5.574247290589341,-0.021333364151517268
,0.08806940911273527,7.251781975192061,-0.5819684946565922,-1.385679478760432,0.21020917872955622,-0.09634413573116306,-0.8650029564948095,-0.007176655027125782,-0.2374042769975899,-0.7226043437807438,-1.3583393680693021,-0.10658194656731552,5.2198298098599185,-0.2631534783583324
,-0.9736343561579859,8.378681499620374,-0.6781490525770547,-1.6303828953307493,-0.11256611217523904,-0.295952706150136,-0.5290507998267746,-0.3655216058469024,-0.5881358886830168,-0.6654302664214692,-1.493831883641361,-0.42817187662945183,4.0928753664890785,-0.7926106252609213
,-1.3292806526485264,6.216780285119483,-0.6465153453358369,-1.270399724289406,-0.368537752723722,-0.4246612410633969,-0.05972239540301942,-0.11283179110188252,-0.10678764786642649,-0.5559233966199655,-2.268312286772211,-0.8896116608098082,7.658002575382834,-1.0884826350197747
,-1.233418705846533,5.256146126143652,-0.6639221931473295,-1.3312947149524363,-0.1851312314875646,-0.2720121771509921,0.4199093972218279,-0.2601709092116488,0.22976645873430893,-0.4198139442131762,-1.5390018468352509,-0.6738355097373803,8.866852135812014,-0.9781545295028512
,-0.5565352453771708,3.358934437586992,-0.36970810794704023,-0.7691546098920314,0.02813885607726318,0.11049328436308921,-0.019557875192024246,-0.30084017851960965,-0.23511160568936537,-0.5197216342156394,-0.6515927136838833,-0.344981500896332,6.372448539310774,-0.6118789037995732
,-0.8989572852015488,2.7963406782120357,-0.1405314247563667,-0.0010386611131524045,0.33473683748299965,-0.22142835924845553,0.24557001918854346,0.08423557987394324,-0.04615252987894124,-0.5751773668634172,0.8480707775786286,-0.17727338790540978,-0.11113629803389279,-0.3597690246168805
,-1.4114356888742488,3.170471837187894,-0.06623940677394634,0.7264817629241728,0.18100921913888107,-0.5281134481301297,0.12921724289391087,0.44836836524440726,0.5008182930847966,-0.35509311693470935,0.6896505736232191,-0.32882234401097393,-2.533994166151586,-0.9113761609521855
,-1.2795481346671074,3.518504270247679,-0.3338282961172609,0.05569046248288109,-0.3674243306565314,-0.38039799974988747,-0.36781915962592193,0.01566917742566362,-0.21076000735739098,-0.1230865810515893,0.9756369380003138,-0.13587738531950838,2.5547763876002003,-0.7953191091989181
