event,eeg.af3,eeg.f7,eeg.f3,eeg.fc5,eeg.t7,eeg.p7,eeg.o1,eeg.o2,eeg.p8,eeg.t8,eeg.fc6,eeg.f4,eeg.f8,eeg.af4
,-0.6441512884281954,-29.43255162822823,-0.32059499010319087,-1.2404788855766724,-0.38718653989313345,-0.17088972407018066,-0.13618819980905245,-0.4166978587547289,-0.06326047353677718,0.4687783832034703,-0.5745097892583414,-0.1243557196949308,5.632042752911418,-0.39671500682943983
,-1.0745434727616245,-36.514875205826414,-0.12061775726155657,-1.6069991048279635,-0.14654155696802623,0.25364404818270525,-0.2800417420406598,-0.5507402743492195,-0.3714243565727594,0.10279329798552678,-1.313187658926357,-0.1286993027378197,9.790263809835636,-0.6554689970383427
,-1.258698209742957,-40.99877762034773,-0.27699013685613866,-1.3137217970203372,-0.09256371978179112,-0.15332434512296783,0.0366368429441529,-0.41941073321818356,-0.4757750517763675,-0.3407673959144996,-1.0275951702785706,-0.0070586393452422526,14.272862801261756,-0.6670494084289902
,-1.5205691622520348,-51.635289048424106,-0.16249981354783696,-1.6156509255200528,-0.6484180143051018,-0.6750113257366391,-0.5374695098493912,-0.47957810664334494,-0.4519216629490669,-0.29202039807809516,-0.25008836380962784,-0.14428755345874975,13.14447995314949,-1.0896618854257993
,-0.5075900255146916,-39.23510684577138,-0.2958800299677925,-1.3008936676688552,-0.28878757438874336,-0.03452674406621723,-0.13082036086221885,-0.6208281724704087,-0.19369188582295865,-0.02486629800965119,-0.17623693728020942,-0.0717476226949598,6.635060323359475,-0.7188351520795524
,0.008765797299909088,-21.611065753793184,-0.43393487767912353,-0.9434374642828757,-0.5558215700813789,0.5196864294776522,0.17256346913404813,-0.4253364232994726,-0.4858261317856679,-0.1660010071564424,0.13699025266749185,0.1975366269562186,0.5331363498075171,-0.12262548388071777
,-0.3230654800362244,-14.959041034095192,-0.2812152718149534,-0.6116796764520198,-0.4783566773446948,-0.02741840601470324,-0.05636777557407821,-0.37744501701190264,-0.2611010695988099,0.2351901475081254,0.6416909165521021,0.005364361390606202,0.8201352227650853,0.004315534074716222
,-0.10192493030559105,-16.395220676328858,-0.20579927135655451,-0.16593169459320453,0.3667578258181268,-0.5668297755342332,0.07139346183588738,0.15372966678604272,0.2792525131966456,0.7921747090906253,0.4065721716680818,-0.2423382321018731,5.874144527232307,-0.026841821022145326
,0.20975189990320364,-20.947726718960098,-0.163821694325019,-0.5809808244207153,0.24927879562334856,0.26053139307427137,0.16270671706191084,-0.33590011658438157,-0.1559459154670479,0.03541387331501944,0.7091764586755233,-0.2455776080349337,1.8079268096318746,0.16315411839023167
,-0.47700070611974726,-20.1076393298887,-0.11208032597385836,-0.8548692745542945,0.5525968949849902,1.1489652761792366,0.24080936421596486,-0.7152619202475079,-0.5954860633491149,-0.758590035501248,-0.6678940366211632,-0.13785638429257469,6.059640221322144,-0.017738642439610326
,-0.5299407925604365,-22.313391321213327,-0.15443114737610772,-1.063367551856606,-0.11936155585254292,0.5474701273143389,0.1369490665849351,-0.7845199957115214,-0.419780127762277,-1.043001040000783,-1.3259565620663425,-0.057254444540780096,12.34168039715197,-0.24996867529449926
,-0.3972547069164404,-38.452484588515745,-0.15205472584399227,-1.1239098106777279,-0.36706750599870624,-0.0029185420923866917,0.6757279190572432,-0.5874263843179506,-0.09728377123168379,-0.5769709009798758,-1.1323645022172995,-0.10483128904084678,10.449318457075547,-0.6295084623982287
,-0.27326868622157274,-44.55355285710385,-0.3409002839613066,-1.6179390960826219,-0.21432011775370474,-0.16877844901039557,-0.09946767809526023,-0.20431943120671386,-0.551168764118886,-0.5071271140274282,0.03432615971704776,-0.09401427035570477,11.556254158919362,-0.456346063268414
,-0.3779778949987652,-27.102971736891813,-0.4404399638001451,-1.1788307196638501,-0.12709500992657596,-0.38104499215227866,-0.5710481909360331,-0.15409343961615918,-0.7831272951062973,-0.5358477448666604,-1.0284717855698804,0.05708802657163701,7.31751677973042,-0.23765262825836597
,0.26164422586038666,-23.428352368238745,-0.4929196077436207,-0.9811363951711412,-0.15787638666391549,0.10694231112869892,-0.3660925089592774,0.10415679824590379,-0.19457400291345933,-0.27389250664114617,-0.9298453869411766,0.034360274110186245,2.854493433468838,-0.24749031847173356
,0.6550819313869839,-25.08545717558052,-0.316634347871752,-1.04695677360159,0.3162690753072735,-0.16721468326176503,-0.16245016332190468,0.4186380990129257,0.004921753343222486,-0.500473666157405,0.39171703556381543,0.060012085555324494,4.316111937322609,0.13790731645988397
,0.13402536632816292,-21.799177038639815,0.0263721626075891,-1.0849851974747045,0.21924157801814378,-0.08392239023792769,-0.33070696489892004,0.08202194366781523,-0.11894248980013025,-0.3808051684322797,0.20436462140250955,0.2139199408832404,9.679659793727797,0.19659121281074488
,0.00027693463443383603,-24.811864327565104,-0.13943236380777804,-1.0247084815577476,-0.14093859116391447,0.13760795801502348,-0.4217086466563917,-0.002297139206892872,-0.20556140714918802,-0.35647363835928597,-0.41646329783605485,0.05265500817236473,9.388253206329749,-0.2963874468210227
,-0.5279508438862083,-1.4008987066270853,-0.20759077280983246,-0.3567886842461065,-0.4412124480813938,0.1267893503163049,-0.3320048984089496,0.43726687226568206,0.060298848214279735,0.011634963168574125,0.08131436617105545,-0.01513213798144337,3.4079342096164393,-0.17333848937094484
,0.006604128679892973,5.258997464181834,-0.19251877592533675,0.01567006442909927,-0.19330742132716078,-0.3309086284546338,-0.20919897898792214,0.31138380127756654,0.14136180375402968,0.027119790817586677,-0.07275107437869821,0.12630742809132098,1.0961282051939738,0.42197368629621773
,0.3363904952633514,-12.062472476964393,-0.08819374492724406,-0.3924333060766057,-0.5915896135822345,-0.16670806715326214,-0.11304623408858876,-0.30048633271747305,-0.030198444777337234,0.0748790946211155,0.2848672065628175,-0.03644349094265592,0.4760497654296277,-0.4038840120600973
,-0.5936287607067241,-21.073441761521817,-0.5069224192410398,-1.1130831103325618,-0.76538781795423,0.12456789228267953,0.266023877226216,-0.47533641241591323,-0.3630761249113653,0.4571438288286668,0.3840047089131882,-0.30383107244991864,0.09438882749264507,-0.47406666312736917
,-0.8149635282073942,-13.560619277663612,-0.5959218249929178,-1.3931966883118472,0.012604593285851966,0.055317069333318265,0.48019892293660066,-0.08760329560854907,-0.13889060553606825,0.18148175670327962,-0.2841411426066815,-0.3500462098072646,3.0213290794623386,0.1870513751858938
,-0.45198710238801415,-15.878414396999892,-0.10848162754623589,-1.100151363805015,-0.01851335785570293,0.13771595056781755,0.6850393118551052,-0.29183534294056357,0.2938879015947981,-0.07044126979361641,-0.6150226372612506,-0.06241412169497767,0.5746704408344576,-0.1534087168000352
,-0.25209052887688876,-12.87794097649931,-0.04544225624160546,-0.07108066142722898,0.16078384505580473,0.2605823196069476,0.6852575136160607,-0.39804170578815845,0.13275243508852805,-0.05434974473778871,0.667961183367409,0.17867035327333466,3.5406460053369613,-0.19882141234503203
,0.02580727458224055,-13.31711663112726,-0.05844566874100728,0.2513189393434488,-0.41557412228604795,0.33878284928028135,0.12128805290112124,-0.23177730004034286,0.05874524985924309,0.08921474308292547,0.5951479587021742,0.11410578008283966,0.9040208940100838,-0.021729741304536043
,0.6281041448186044,-6.168131932215769,0.03550608152960041,0.19175934487377302,-0.039212628511042597,0.39193526683163704,0.08220352196391746,-0.1257356272916659,-0.23939759390564577,0.2672923135064346,0.20774660237306444,0.5008667940157854,-7.533732122267601,0.1729070977036801
,0.8863051556988897,-4.914284562779407,-0.22562359299174434,0.07789789211434714,0.17108336594410234,0.40967718316989005,0.5486065918023838,0.016429145350694854,0.18028639348469824,-0.06606735968130323,-0.32423462297798306,0.6915452138769094,-10.742373160689153,0.10484885130816256
,1.3162487354725347,5.202262827180935,-0.9994916696056054,-0.7604719293377502,0.33582606906008605,0.2675677870561805,0.11510183149589479,-0.2775698295158016,0.723231201735005,0.5410031826793905,0.7244948150277697,0.19346121718763482,-5.900612837255142,-0.1567364254230159
,0.279479711083148,-23.025663513796726,-0.9110290447527829,-1.4031650182961057,-0.23966069757815203,0.1930644121237768,-0.17869625688371268,-0.32135005879820777,0.49471014702038674,0.17014386301329085,0.025521010410028504,0.07546864407828403,4.5739254279282555,0.011117253017067107
,-0.26381704005653167,-35.55956639999601,-0.3257158268430965,-1.1931739432278121,-0.9195528651583708,-0.6914509928714859,-0.3240312265194668,-0.3515586007523687,-0.2780932846766803,-0.29481471792020547,-0.20404632083246782,-0.23873870881790005,7.147989397499527,-0.2867825084718151
,-0.1631363216375813,-20.746117351214558,-0.2726880469072191,-0.9418578811744741,-0.5690375637269834,-0.503652146267656,0.15823988122398025,0.06446899715037975,-0.2668139483532084,-0.354786554724842,0.6022505584887666,-0.03913850623789615,4.922485899911132,-0.306081104072736
,-0.16468603374934926,-8.452686018100183,-0.14794840825441882,-0.17276039020114053,0.12321619796055022,0.2194303031595291,0.35621932187810895,0.5037206300154445,-0.21405903861377737,-0.36941033543472457,0.07808899247450576,-0.19028943398325363,4.293005087655285,-0.48816029716697057
,-0.40386821967444486,-3.3190960912182788,-0.1558434892992573,-0.03822757184625423,0.0271278812008661,0.08259625147249691,0.07274612340995916,0.6236192205733763,-0.4569050217775348,-0.346313065586875,-0.30371472870065785,-0.23329528385314838,4.351623904109874,-0.3478865557843649
,-0.7996586723249706,2.889276440565865,-0.2797067397655617,0.014252188166351475,-0.7569265958779197,-0.046229658745003295,-0.16413761889396897,0.1880358803819565,-0.21224203145230708,-0.05863478402536069,-0.8155490274937235,0.016003388371525182,6.372068031785304,-0.40113284493217
,-0.8638549679314275,-0.3740108817490101,-0.3813095869527862,0.009919516252532396,-0.5032916383997301,0.1893812804755277,0.12473906297829757,-0.2392344998810433,-0.6290608704846687,-0.184371498798046,-0.5543595174015178,0.3213356965173225,8.753582575227048,-0.5128426499569455
,-0.4520769523377724,4.632668880102215,-0.16001872867725433,0.07642204320646186,0.35819070212732534,0.6096229028994025,0.36013338272622963,-0.31681940632493405,-0.6724707115088315,0.14021600025169612,0.06710518539612455,0.2078009385994215,9.258589056047587,-0.1262368072732522
,0.49484922505301204,4.891859674439104,0.014803731137816942,-0.08452138861610307,0.06682848285934043,0.35634074134227456,0.3938775234592326,-0.2373438465603727,0.27572110675275385,0.23177382806196659,-0.3358840676362436,-0.2948831331660256,2.8524709442945024,-0.07847269546982603
,0.48060273508150825,2.41387577224798,0.06057137656876829,-0.22526469032835497,0.008257535076344693,0.8283795667090202,0.30356215478384435,0.10528903056503393,0.5613797263706141,-0.28951671631115544,-0.6522716907948295,-0.14768660688980983,0.47942852986976936,-0.29596916457843525
,0.08582190077834037,0.4206495041370257,-0.15835478387456614,-0.5082108813880967,0.4527883065877236,0.35286294733919993,0.04649608266548554,0.2653150093278833,-0.1282780950472387,0.0602033113625582,0.08932565200647705,-0.05574433259191371,1.7541886507202744,-0.12326743481402676
,0.027189683419292992,-6.855597444161455,-0.2917243521073685,-0.3486991350690006,0.1764745536267182,0.27876650364243727,0.04649307264487084,0.052931258622656574,-0.06750838975454111,0.18229547754515382,-0.708961261122766,-0.7042077458977911,2.0392872762599996,-0.41718263763544683
,-0.27293140142842043,-16.276722906872575,-0.3421499017360444,-0.05327288225766032,-0.042148535950353665,0.5662763791763148,-0.028338010223176443,-0.1699895402174665,0.22273982923491573,0.15036275870566676,-0.26860919577367454,-1.0998115187984698,3.13628924923582,-0.3446439671628834
,-1.1887036372358828,-27.91782361112645,-0.5276402731920206,-0.9750330600071019,-0.63362214822427,0.32458533777241466,-0.30601749910329584,-0.4242695216868799,-0.4290786225033891,-0.08669429402565176,-0.559614647445789,-0.5153591024797687,4.883310400809093,-0.8333669574786634
,-0.9719864245925967,-24.41922101562697,-0.5371968977286382,-1.1907100577398189,-0.5179304922006656,0.07318542556290793,0.07513817524904907,-0.22852715217159078,-0.43093654736695725,-0.5398288805819067,-1.3918579787544885,-0.3416700111664442,6.058473489641275,-0.7423529905913099
,0.11378210150215068,-28.18319263313093,-0.5046620553223273,-0.8878513384474156,0.018809290322196127,-0.0855689151108465,-0.3732291488885094,-0.3175828990108127,-0.3691800581002467,-0.4032959623880276,-1.5450168259208337,-0.19351856132656148,11.236155792684272,-0.02215959596723082
,0.35940906557275865,-36.09997029390632,-0.3112751076527661,-1.138414284442432,0.5373918316294658,0.5157551753388834,-0.452925336176417,-0.4079291957197504,-0.5772615123202303,-0.04593287825317904,-0.38318366927577374,-0.04841683278636394,10.408194257085029,-0.20448245337390336
,0.24934340012911418,-33.66688169279769,-0.12267564220851356,-1.077068055393311,0.5162331373505812,0.09178798733774582,0.03984416677964111,0.22754554188856438,-0.2558010909925602,0.5989460033412135,0.07708957169161935,-0.07395463099871014,4.4473895955031155,-0.2148792228884694
,-0.01349595378507962,-8.354522563387174,-0.19657734241085287,-0.43715918360995576,0.5953775729898056,-0.0496185322173422,-0.01644605637958463,-0.2549257691238744,-0.30632135393550425,0.47723543053042045,0.15942150897560736,-0.34204558602261365,6.908383245663113,-0.37873599095861027
,-0.0884792810992266,-15.874470666759802,-0.36726430706908464,-0.6613638964962659,0.6382314552771153,0.23326350840785215,0.08695830963022685,-0.6661350152240708,-0.3619732993358413,0.6558556423980227,-0.47365438393800413,-0.3177440973243683,8.653476413151722,-0.23752310690103634
,-0.08897029031953836,-16.44090068271801,-0.41326842824129056,-0.6595022787667894,-0.0107250502261879,0.3573803579768776,-0.23821395487458383,-0.33935264551662175,-0.18764812525385083,-0.33182587290455023,-0.7137355891097853,0.031586135267190805,7.801610088599402,0.15216399651222526
,-0.44965141358723,-0.1003225533332033,-0.23279841186368339,-0.3878665389447217,0.039229686444624386,-0.3199600523833812,-0.700424611520066,-0.09073715551822532,0.20382898131795613,-0.18186844019595252,-0.1921955067075715,-0.06092948448083449,6.7942869554917324,0.48965591534392355
,-0.25566244733984905,-0.42107995366633666,-0.0795801010147063,-0.17784075360739904,-0.19495385478200994,-0.4926478016229087,-0.7100213936364022,0.03432966128196003,0.3457160665684446,0.10684614873473532,0.6930378034875193,0.127878274650403,5.8157281858673,0.030182712884955477
,0.4065828706497947,-8.49265442386813,-0.144701380098376,0.033229716824850354,0.43608080427449775,-0.32491098208184344,-0.41423712213942826,0.33725158385265225,0.09777821898493123,0.18268731734131421,-0.36884779153918273,0.0244470248481105,6.323306628285761,-0.379606997991806
,0.31990545113348706,-14.91118346584319,-0.20970045070338367,-0.12879348661167292,0.48344987368952935,0.010171071538708212,-0.29823640437327487,0.012541364096596909,-0.5655589151050114,0.12227645376840895,-0.040382714518196174,-0.08966849424319227,3.831421088554167,-0.11229791044257365
,-0.18821576343970325,-13.84287771332817,-0.19163861740249424,-0.09711394976055789,0.33768781610828047,-0.12566017456114967,0.020335795894727667,-0.3704063688991836,-0.6259397124920035,-0.4023445844212464,1.0073966693001333,-0.23214453070588686,3.648306696506907,-0.0401786538937572
,0.052835068522346804,-10.084680425184343,-0.21148977895606902,-0.3062628017063803,0.20406062950031814,-0.0037066672327767045,-0.49511426926477886,0.021121443002252244,0.14441848285479242,0.11638157891517191,-0.21038666586274088,-0.36902153066473187,2.4575955504825813,-0.14725152819607126
,-0.02920927231606574,-10.187081236888659,-0.34144777201466514,-0.16710995769179998,0.1526065665303777,0.5610654638004755,-0.009144547206922874,0.4850536774689238,0.5679217926720727,0.048060710229626664,-0.40590585946278424,-0.23149964352047137,2.16080493068443,-0.07611280385339879
,-0.6254261600841527,-14.559904675918286,-0.2575728169698602,-0.03231426802185465,0.19064616364608805,0.7244648688709245,0.06410862868114604,0.0035602781212195514,0.3722491014424229,0.234648600803467,0.6402338344166733,-0.10783881914260798,0.23579623513131612,-0.47332655807672724
,-0.6016800786046923,-11.005636487117014,-0.09647990839664744,0.029672510133465994,0.39545404135895396,0.3649291905989202,-0.4527731013935439,-0.440406910215976,0.2539532119510948,0.4235434284220035,0.629526432069066,0.03698178838521001,-0.6326972514340012,-0.6052386580789608
,-0.6657952692568578,-4.81462068822685,-0.24378223893938733,-0.4878963826193888,0.47856805188206675,-0.5857783069673616,-0.7226952494409751,-0.31569148162346766,-0.12718106756297454,0.2651551710407805,0.06990739761024176,0.03463344850302733,6.083177829965566,-0.23743822744242285
,-0.2904274391543439,-10.946035551176527,-0.2744478548386425,-0.7197222773877241,0.2978744007395144,-0.5125461168508448,-0.35599355601004784,-0.18884415787457542,-0.03883423107333973,0.0844410051196574,0.6251390262697579,0.22817997139296434,6.534455086565643,0.00022207663930085266
,0.019665002921094427,-10.716251495648864,-0.4272339133878962,-0.6574488013929107,-0.5786834847268992,-0.3370126632805924,-0.30178450965471165,0.06193051153688748,-0.16642852984562662,-0.11264049044946557,-0.41671884268027803,-0.06550232991642396,5.118547034498472,-0.04560472404056225
,-0.3728211852340059,-16.21517507969252,-0.13921673725014977,-0.3460919389803107,-0.5091454944633473,-0.3767729080358231,-0.09616614488127223,-0.09595180597359527,-0.40350713407320493,-0.09092691786536114,-0.4396676414502184,-0.3431710173215114,2.1177083259346854,-0.313521848673369
,-0.09922255814400396,-19.853892306585625,0.19809044791273497,-0.8095801650923035,-0.21948697202650724,-0.10614251817532164,-0.08144030494294274,-0.1379218099787604,-0.02788583448294844,0.13839433993152137,0.23958492216014735,-0.11074431107079742,3.225252804639408,-0.4334303799859541
,-0.42747316921970013,-6.189573628089131,-0.05048323124141467,-0.8487840524533365,0.22226212850223595,0.0952883262516069,0.20041528765336558,-0.014788234903258377,-0.01582766736829695,0.34888675498846616,0.07128477531623138,0.4372608409605328,3.0901992602796637,-0.21462575047685037
,-0.6032434615230541,-9.116491860372037,-0.11081665323465012,-0.5631119984809327,0.16636393649143974,-0.0728508324699022,-0.37704112667496814,-0.006793863371539329,-0.1433711862570096,0.4920118092239521,-0.369162461360768,0.6905070051754821,0.21222531023503743,-0.09509279533055948
,-0.4910684357214643,-1.5628660762742161,0.03509337336704802,-0.5382907692899388,0.39159392389894243,0.2717574357280563,0.046680662664385204,-0.4565927121735456,-0.22938657504023532,0.4925639988539087,-0.38205352849411917,0.22784686701103637,2.3004678278232316,-0.4697241377553295
,0.08287590421204413,-5.223463962531626,0.1096911742565978,-0.08056006467925006,0.29112728910081176,0.03632946308467802,0.4532577016458315,-0.5132755711213258,-0.064689798500552,-0.025288254000601553,0.8598968301061105,-0.22784336735286098,0.32218846803842494,-0.7297769244933233
,0.8173789207107673,-3.9141346245330633,0.16678522865719148,-0.3828622759427237,0.4362872660818745,0.3250227020157284,0.3016686867816074,0.20005427457502786,0.37063758560602444,-0.07560468169049635,0.12312418990148,-0.11936597318123024,1.5832738558607977,-1.0615125330078148
,0.22232715271598913,-10.25358183380687,0.1356125843056239,-0.15197033657419382,0.8012324617269345,0.2185593301733601,-0.46387595218489175,0.5864515249415854,0.429734789849165,-0.37764875296169714,-0.19941199861677902,0.08214944503206612,7.946173603269713,-0.6134357596580394
,0.3268628870964226,-7.882974328375401,0.05551977796233219,0.5181457011487937,0.12392438795515777,0.0259283705906536,-0.09675607915654488,0.6087876666737486,0.150076654703427,-0.11956259808728088,-0.2008914096644583,0.30155897952713023,2.922112037739046,-0.006055522654480373
,0.0958567626621044,-8.780592078218831,0.024724611117969666,-0.24844463911983028,0.36285233360364305,-0.2829771988316801,0.028184222967253234,-0.3295984018592343,-0.15700293367707713,0.29884840671709423,0.192085462373555,0.09349541496795839,2.7319233957794435,-0.5080311924526661
,-0.31790537547163267,-3.7518680503315314,0.031552853318788536,-0.4581620670294341,0.7723982050799149,-0.4947698160247914,-0.2939883127444836,-0.49299443070137566,-0.33325640720240074,-0.077887891531209,-0.5477096535722121,-0.14030728483340438,7.846123484403186,-0.5298808636993274
,-0.40004462756021886,-2.517998359903124,-0.09160666577532812,0.26228595430307444,0.6525709318710914,0.15895241795294252,-0.1309675172824174,-0.40250149477326375,-0.27896162961273263,-0.16203420683349704,0.37163988592815195,0.18611822188690935,6.974433165107865,-0.12150967267122331
,-0.5299599916846762,-13.070978673232496,-0.18485568857787849,0.2478278165360397,0.36192965892320295,0.38295011167230186,-0.003551393766023639,-0.5889030567044081,-0.4408786267889219,0.1627834478417081,1.360936822199516,0.1531317805438108,1.3032632985534942,-0.10064305637560156
,-0.2617191997271458,-16.742968086746128,-0.09473150785220044,-0.1629282324485217,0.18353104786749166,-0.03417146889057174,0.011181113931866224,-0.10700853708389833,0.27380226877507957,0.360323305286478,0.4937763640361466,0.16038056296413497,-1.702587081697311,-0.8770120858606235
,0.10331280044754297,-9.338833296023632,-0.31711375277590437,-0.8743860444232584,-0.056680725524930635,-0.15432204974489677,0.21002363214243813,0.6980207721422832,0.47356031029958723,0.5404940087867943,0.21883765894724674,-0.04406593223706866,-1.9941742872850485,-1.1410348031060984
,-0.3099201093442312,-8.613813568546998,-0.2589801829297345,-0.9549552065387624,-0.6305606571108258,0.14216093381303985,0.36678649510570055,0.08431483643673059,0.13687051097217717,0.7572622139275614,0.3964238823677989,-0.42604185225716723,-2.6216284282489912,-0.42516774109644
,-0.22679298891529556,-13.93911061158688,-0.24841516166935945,-0.605136866128976,-0.7296428531734932,0.013558434972692435,-0.030382060245613983,-0.32752508136504294,-0.15028049129954985,-0.03236517837748164,-0.5162331298274786,-0.14086066414331427,8.253133483634905,-0.18840996420117284
,-0.23636172366175884,-19.924718755090588,-0.017377319080763367,-0.44064149224020566,-0.3283012681551429,-0.7802134146914527,-0.4242413754445299,-0.019228809541330383,-0.2809019387136239,-0.29644465123601216,-0.7690230289530834,-0.28470057176396546,7.610840906026065,-0.508970643767316
,-0.12720521254130468,-2.4348484841866846,0.12025136542499161,-0.017533276967452834,-0.25137306789274033,-0.8297186202992282,-0.1198913159421475,0.18678413918873862,-0.11811402859937621,0.19561230720506018,-0.011258563102341268,-0.05275269069946119,-0.6940212831455839,-0.5378709069485301
,0.05450588100376353,-5.388815098368679,0.05121347156125959,-0.2645392013787212,0.026522926313446812,-0.16038111332967828,-0.08800264383377478,0.05925521366611209,-0.06783974842786036,0.33166540934303274,0.40249766828131633,-0.07033990506351187,-0.8047824101615857,-0.29722735329241107
,-0.48489508218927513,-11.294221477184122,-0.07257673161146849,-0.45358447513894373,-0.20490101753697634,-0.3982262330898721,-0.6350601807299109,0.10348367419895747,0.1693667797111913,-0.08083319903945312,-0.6099081891748478,-0.2547280424380425,0.1547008071344596,-0.5729614553818592
,-0.33943215030592105,-15.78093279075231,-0.18954750329946912,-0.24837887293833172,0.20449533190653263,-0.2638855929766602,-0.3069916429627064,0.12801662688178594,0.14645334989286957,0.04020507475982049,-0.7352112889699134,0.03777786195368572,-5.810747991549751,-0.24921124045507181
,0.23298630647735938,-8.417150821440783,-0.26833520286462276,-0.21723653624817096,-0.06077730007628114,0.4326906012041451,0.31666903634633575,0.04057278059197177,0.22182126126619672,0.47481235592926946,0.18482444605321072,0.12103901395244186,-11.754844380448967,-0.08744995087505819
,0.2511930242269636,-4.626647153436708,-0.4036826718963514,0.37025706531112335,-0.2973771613552468,-0.4519304339653837,0.012380150241429959,0.4207154188053229,0.23256392886337443,0.5761060911627969,0.6105779966319573,0.12146194928630949,-5.870289494565644,-0.17464968255275595
,0.10800346312572266,-1.2676132586568247,-0.3728508583018277,0.26683518417736535,0.02775575352783407,-0.8996364106057727,0.4288840212349563,0.18101383050182332,-0.4466938884265867,0.2438806913836588,0.11991584614406516,-0.06901266078953776,3.305975187750961,0.2062074874480467
,-0.4872588425984462,-2.1766101745281645,-0.10888615703769321,-0.008913112271027767,0.14224607182517293,-0.5311315248304804,0.2955528884800197,-0.33982978667783753,-0.5857467394937006,0.31565094241761077,0.49104155137871675,-0.1016003596393444,6.710285772971702,0.036387291308277135
,-0.5783224407267497,-14.355832409641586,0.11456929474714608,-0.403846519000495,0.9568814353404859,0.03360395150711648,-0.30740871027095457,-0.4091178985974673,-0.24349162142616154,0.0035462463321456307,0.5378016454485601,-0.29255714777048464,1.0319881703901201,0.003253699048269405
,0.15641359109262457,-13.070798794408004,-0.38675462133367955,-0.44027045531498527,1.4519165210488767,-0.343911471199483,-0.3862182915859111,-0.01615065817863971,-0.09356500557769715,0.07219581668257673,0.13868042950795612,-0.265885428274791,2.3267300920605924,-0.054797381890502636
,-0.1527351605691796,-14.46912490940013,-0.3366896965548696,0.034780461337231415,1.1511937151306038,-0.1856967476026237,-0.5393978259292973,-0.12673883534129984,-0.02347355550149071,0.09146942279146927,-0.46046644199994874,-0.23441236658184753,5.31625628692396,-0.09889190277000787
,-0.16024564947713063,-10.627817905841207,-0.16320817447720257,-0.2634412580517016,0.16309456857111024,0.029344291999022932,-0.04802045744511867,-0.19112601134287519,-0.11408043512803441,-0.32647234916076995,-0.11042086401334261,0.09652230974604088,0.9576923411580894,-0.2511365465813842
,0.18712440557926682,-5.845974755241162,-0.17157917557515556,-0.19683515201866936,-0.1874699693948127,0.16625065285477206,0.06837367613875298,-0.1589043029325107,0.390185842029845,0.006391833359020741,-0.16416706412316945,0.05107121240954481,0.7505194244278968,0.00828458920092011
,0.17802749033392262,-3.294762877644134,-0.027822111993496677,0.13138060856646025,0.052933505329950135,0.29769899657249593,0.24678341369526788,-0.2937287757383384,0.16465502244851898,0.32231078745087116,0.7267810046875295,-0.09556272402876737,1.3404636045915883,-0.37122725586032124
,-0.4796632514509174,-1.882967541730534,-0.042090385863111965,0.30715220312649155,0.3747949447504135,0.4953797160817565,0.26270717331369214,-0.5632567476219597,0.10029062656317625,0.6332725470989993,0.07186008747873814,-0.00911638067910343,-2.247375567434279,-0.4481297874515566
,-0.5987236477959103,4.102101055463086,-0.26558352774941324,0.46016501627780076,0.15689941828887363,0.2946890167602957,0.28694473461535147,-0.35326504362205596,0.0718916710461355,0.07124501601834025,0.011965844877606845,0.08629669625257223,-1.001525636694962,-0.042477030902509656
,-0.5016429100457918,-10.175256983865587,-0.3041520646680015,0.808517670836926,0.0851384893744083,0.15459092017325746,0.022014815906131142,-0.40116352928402954,-0.043896380944839594,0.12675944604234002,1.1397078174557236,-0.12371127256111475,0.19595447279327896,0.10646229281396338
,-0.06064818358308075,-12.978717595849927,-0.20994035480592696,0.7026311649503238,0.28921925185553293,-0.16644968190990564,-0.24659780341449344,-0.1437015225865729,-0.14059190632222585,0.6007232453093209,0.5199168616540555,-0.13261513225317426,-0.24821889306260989,-0.2840170201521511
,0.21099074886956665,-6.03428032144844,0.14065617855380916,-0.6258960080789664,0.6033802441134818,-0.3550435981484388,0.01468238702975976,0.11135430449708365,-0.08076045615543037,0.16142893680304138,-0.3068698076169533,-0.22251320113263412,2.2784964657101736,-0.5796977800519463
,-0.45723502709217073,-3.892516575593757,0.05129066595738974,-1.3321757636838796,-0.03228016116251269,-0.13039517537566273,-0.07720619921919128,0.4638930062695891,-0.048834129840058874,0.24700687881785968,-0.20009452509464817,-0.2710068335865132,1.0746334795832893,-0.32948375717403416
,-0.8211565158932922,-6.337473378821715,-0.08398277221590109,-0.8338660878093119,-0.5035545498937102,-0.24946460923058103,-0.29863364942295095,0.4264983813321483,0.5075497175288417,0.27004042041503246,0.3119880683274571,0.052573204667062265,1.937411743938541,0.07971822838351415
,0.08977955731011639,-2.307091042592704,0.018040759857408353,-0.1264970063540774,-0.27688266686307034,-0.37060823827522515,-0.09431720030469468,-0.1940563150633964,0.3664950946583382,0.24176973870776491,0.032065851674667564,0.4376107068613365,3.2098163341680817,-0.18046979274315791
,0.2855096616670621,-0.3458497877602643,-0.13892639320593766,0.1873084657651192,-0.022051901120364474,0.26912505634051054,0.029128368196818404,-0.3441703813208166,-0.06496275672396844,-0.2810865122948699,-0.29788971820105636,0.1497141964857872,1.598412653180077,0.008565368857868386
,0.12136394252862133,-0.10099508535013671,-0.4546458883071553,-0.33321435247440373,0.15695974948717997,-0.27797265500010104,-0.2861113689653166,-0.22612363579191289,-0.11990281904378607,-0.30349750390839575,0.015076403180827126,0.09512195968074807,2.216109252898849,-0.17256699988653024
,0.5465844686434566,-7.511091303930298,-0.4770554974752845,-0.5489485495801909,0.6012389981389344,0.2777241314169214,-0.1595985638424551,-0.10973326673807232,0.20379026783197338,0.5104783743933189,0.5702024844631146,0.04904689656515249,-0.6542216459384136,-0.12090623142803082
,0.3578547170802278,-10.431430692653691,-0.28124335788913685,-0.8796019363255447,0.4419011459998232,0.9097566366140902,-0.44668244944692015,-0.3049623343572259,-0.07482538662197225,0.7647749779116838,0.9464447680253979,-0.04547543097653517,-3.969495310487774,0.053807373392686035
,0.3289845621165078,4.772358538301692,-0.26923843409971926,-1.4832983653672591,0.6959894468922997,0.7195908131341224,-0.5034333521687844,0.04507222945075732,0.38211131930896153,0.3924658567118636,0.03915564286408543,-0.007170868961374867,4.069227137016571,-0.2923272791693278
,0.012776999371266695,-6.447568803119805,-0.36618291211906817,-0.7573537914886758,0.36897506231112964,0.5778969833641815,0.13565980879745923,-0.08082308475755376,0.24496688643975617,0.6087040862633473,-0.02429642344481779,0.02088068671550077,2.7287508599869823,-0.3585993184928827
,-0.28458454348004353,-16.02464944796643,-0.3518230487315532,-0.14220783137156157,0.08000207674072338,0.07065151147144379,0.3943499549546955,-0.14556465952206984,-0.15174304040731634,0.4521687909519071,-0.03824973573705575,-0.08702914011882354,-0.8260485036124864,-0.09284598526442668
,-0.43830756348273175,-9.655724526519808,-0.2646323307504244,-0.8432437734086177,0.24308332693474452,-0.19922688480097017,-0.0783708885570629,0.09632432012978832,-0.18791668033679432,0.13674251048458477,-0.30182194468125295,-0.000558197701187413,-7.426200707093851,0.08070724127738518
,-0.2493454978027899,7.680153709980465,-0.05435521009747301,-0.43893196744718255,0.22131345054634072,-0.4789048842843421,-0.6137347505672398,0.27405387605625275,0.0695379824413215,0.537027509486339,0.026580681166296447,0.018763333524510897,-5.1805409986077375,0.036552151960906186
,-0.08618563265144316,13.082631259137868,0.04028478278689927,0.3072079391722525,-0.13090797505631135,-0.5709624947975835,-0.30509023700417,0.1362662983938862,0.05549390663678809,0.5800697785848968,0.7359786964233759,0.02051853692765447,0.5912723050818038,-0.30477322189122197
,-0.17729299845309515,18.802330151932246,-0.10462853105084735,0.35069212550275675,0.029243752404463894,-0.046518086622414107,-0.11236011732609501,-0.0016519237293349971,0.21311244720222655,0.21421685992237954,0.29377886394855746,-0.051652790050575846,-2.5122591584154144,-0.3828189230405536
,-0.44200239022067095,4.815136343575676,-0.15352026441408057,0.34068454478559684,0.11684655422853836,-0.1449418078233313,-0.19195965716125946,0.14108791943354873,0.43720172072259167,0.18575030379285618,0.34703273757359804,-0.2885998813782672,-5.099417191408953,-0.24434541858299083
,-0.30465543948329893,-13.445506785998248,-0.19720079488186407,0.3556279603122115,-0.3009847751051889,0.01635665209656824,0.01330440938763943,0.3272547472556926,0.31025491871844924,0.12598515095096524,0.18198062756891162,-0.17352182256359228,-2.1770803990737884,0.3010976749804974
,-0.06535340779922472,-23.236984642941774,-0.1810921781535146,0.44527774770813067,-0.4359271711266239,-0.026514011963037303,-0.8338195416046607,-0.14902518537837633,-0.047551060973229524,0.6907973814578134,1.031464008759476,-0.17400525037108097,-1.094260895660182,0.16484556041024376
,-0.013997298093365541,-18.616774185299768,-0.22779739455388717,0.29523497025417883,-0.0377442335992585,0.5011013703953943,-0.8271683324160974,-0.1398767952644871,0.7528525854429831,-0.006417557160756383,1.2432282560055616,-0.0649642883451311,1.987656326977282,-0.037136577610693035
,0.12713022509219943,-5.064371025767174,0.11559545222306522,0.0952475650726267,0.3483794830425429,0.4806170948173067,0.059808695730506976,0.34777420867160735,0.42260634790138396,-0.044721321027681976,0.6443844421046697,0.05886705217761965,4.132200098358576,0.10095331105504157
,-0.02417900863426247,-12.916131510444753,0.003939008338086908,-0.04212221089267029,0.7477686059038632,-0.23826043152228335,-0.7039261696845484,0.06398983896150882,-0.017174923056187483,0.38876852241130594,-0.31368020205510183,-0.02777513389515421,0.5605073908701401,-0.1254848280921909
,0.08536494794763316,-20.874095350050283,-0.2384703558989745,-0.4553949512973678,0.5516615736305001,0.09781668882258013,-0.6769398637757166,-0.025069926806116825,-0.049342244882762204,-0.2063179631374715,-0.5073333727509358,0.06533744249730736,-2.8051084668795965,-0.28213950033192464
,-0.3877537559336894,-21.65943970952247,-0.15167453596444938,-0.43210434940680653,0.009164353523333649,0.19345114804597693,-0.30264420228871225,0.49363019884136305,0.42476511180021415,-0.37710080270502816,-0.5794578381847741,0.07297627508980659,0.07594574538112488,-0.08409486794327498
,0.08581193689803975,-5.422560021129289,-0.2855409839540734,-0.2577468293747698,0.17562967311561262,0.049887742396821366,-0.6925087379660614,0.485989933089059,0.4321524597651714,0.1506217229419273,0.49218384986945635,0.036164310178597586,-2.0968947011163017,-0.19016163826274787
,0.19606087483282603,4.018852994810033,-0.2527973574062516,0.1152695888348569,0.3276666246163381,0.11192561034226486,0.11700446815898682,0.12572550146737174,0.018847106173940645,0.0032104706605097888,0.40530044547860156,-0.13815170846841346,-3.6261343513755846,0.17590230582268615
,-0.2955280312340388,6.134119390424842,-0.989551251657009,0.3035470524974656,0.3023040013754076,-0.416015491799967,0.43209938803084214,0.09961712132100427,-0.2618861316213906,-0.6279792343978289,0.11946625938809984,-0.9741352937425761,-1.7812798833657002,-0.029594469521871402
,-0.13676884582646304,7.417066190632102,-1.0279455093594494,-0.42666823360760575,-0.06159692673407883,-0.6092726982639722,0.2147119131603941,-0.2330992441707873,-0.3932070240515929,-0.07951887546883704,0.48348347343532655,-0.9447730072288105,-2.329301849568932,-0.4361103023681793
,0.26950964620488266,7.040356790814712,-1.0244667305887274,-0.8469972277772678,0.12503874451617714,-0.40863563147716486,0.7052219893260061,-0.4485510855140137,-0.15538831328343,0.02379919160169847,1.6701460133712218,-0.8928416009992798,-3.9262287909138953,-0.2437372424082007
,-0.0957302345816046,2.8035492567370026,-0.7439310498432662,-0.1374036287149252,-0.309973770555012,-0.2882992917366972,0.38383970106612103,-0.5087124300332527,-0.1748528131011151,0.0009446176332106259,1.02603253796136,-0.44138352048427715,6.201754849743862,-0.24904645749485937
,-0.4402448619593118,-4.324756509131423,-0.3459469204746903,0.0536159559172181,-0.36609270080491874,-0.18816740156195352,-0.29615781518396556,-0.2837664079714548,-0.4797525094508948,0.16969257437588517,-0.12917911458227743,-0.16124807402864688,7.567172005329898,-0.3263957175968763
,-0.18623570601576173,-1.5174219016560828,-0.604360773601054,-0.31721747823206464,0.20891721651423742,-0.4999939678840623,-0.3841520200819465,0.10263338166821462,-0.16380662153268227,0.13195334034801692,-0.020226359227065928,-0.17179599349506278,4.3358159201992645,-0.15997544964196952
,0.11360438390094889,2.614780964202164,-0.5632558059538978,-0.08689253105981139,0.1293909182895843,-0.4799670725700783,-0.2875407280243395,0.37922163220184585,0.14910887707454354,-0.26649668263712334,-0.13033922725438055,-0.06799415577764116,4.513647577585714,-0.05408113274361564
,-0.041121672085091605,-6.668754066939035,-0.06597876295001948,0.32295285161531406,0.31689728997181327,0.28571535002124854,-0.339075561015754,-0.1583512138411204,0.2041229781692915,-0.16963522772071268,0.031106565966833803,-0.1408238825465894,4.613065757063267,-0.09146686632974198
,0.3503180277686061,-10.410061771127062,-0.10197409827880628,0.26889043435774385,0.5492610757762156,0.6004995749770007,-0.03451757674629704,-0.32980693506846787,-0.10795113071450023,0.5225475262956546,-0.09037576608720845,-0.29916123581722,-2.13332089689994,0.1458704964625076
,0.42260867501248633,-6.968991084883963,-0.2218389725631258,0.21891519530892314,0.44266596179705703,0.5272770550204333,-0.2588254679393247,-0.1367418752457837,-0.18792723480411314,0.21075594084509525,-0.12949957437565196,0.027562283796279202,0.26887973984066205,0.09382117094792355
,0.5528416526102359,2.831199129567273,-0.16046946794380615,0.27822402047168077,0.3175918778657538,0.7438725300368837,0.004278957734595541,-0.06430158209055412,0.12581560491805174,0.11153002946660863,0.5679049443649063,0.0816175571140274,-3.135826170730083,-0.15681176579313455
,0.548478668876099,-0.9508002915115615,-0.12909236497619875,0.011008350981396407,0.6144582006292524,0.22642956735222494,0.2244775620486403,0.021317230184261158,-0.05686943170959554,0.5570693168927885,0.8521415130576832,-0.31254276363463435,-0.42376778137075444,-0.13266842239389814
,0.5279414907769231,-2.8029546421237757,0.06128320637721535,-0.09823678857178754,0.6974179246845392,0.11604535263288274,0.19257780330132476,0.18622266454016473,-0.3364616273684864,0.7032201669574036,-0.056894778875059136,-0.0899087131750557,-1.2639742055458696,-0.40537057197164106
,0.3054382228658621,-6.7243455449973,0.2835010051846875,0.13094015539848666,0.26475220684136896,-0.1391508533050412,0.0009860375788458375,0.021615054535246772,-0.08006848377915468,0.7026502379790842,-0.23104428957520534,0.0778531902559094,1.587435100245839,-0.16977335310758682
,0.3426860372704685,-12.01957272560224,-0.04205573306295769,0.013320437565667018,0.1471146549882315,-0.4971233079921517,-0.16234531408448588,-0.008531117698240217,0.10108151642117616,0.7158314490146697,0.32171777630404885,-0.11719814600149799,4.682777088831816,0.013948824050916207
,-0.4705328551999087,-34.18543513034804,-0.16206682613600315,-0.9418931128875767,-0.6073946216808768,-0.3003658463449721,0.14745903981090208,0.22492700701384521,0.018522309835679415,0.271959796206358,-0.3385389696392849,-0.12042140476190341,10.974377619987301,-0.6680275735015735
,-0.5212632504870204,-25.269591029088218,-0.1326845749116249,-0.6903192941705848,-0.19026323052210858,0.018396603097690947,-0.30009981138088754,-0.037442515806887115,-0.19329758017182339,-0.34211282121971504,-0.4206423188026963,-0.18399962896005914,9.450374069143285,-0.46696797696260123
,-0.09038948114104059,5.323782350431468,-0.19220326050957906,-0.1305404315432153,-0.13253236924617007,0.059255700899192604,-0.6757344212821316,-0.3283359996326344,0.037552395477894705,-0.3863213646442407,-0.22547833800192998,0.09276523301532726,1.569242105273131,-0.2049268097838993
,0.3534313868415611,5.502914086477348,-0.10410400715504688,0.09615767252666658,0.07814698029181025,0.28462687322097324,-0.06162068747560715,-0.3587807952045967,0.1717136411186031,-0.23174225153398192,-0.9180326210587927,0.022976023943712637,-3.5436845881802097,-0.0819256595000639
,0.4759311838288182,-5.967176280557161,-0.33838736993532725,0.5394970950001077,-0.16800959398586368,0.030000770292433785,0.24665907222501196,-0.5759846529660562,-0.06055704802781922,0.17000466594400115,-0.5980552360107333,-0.18127766384698996,0.8866679188066899,0.19447796652498475
,0.5128680102754214,-20.590623271518144,-0.29380352319334363,0.779527237847551,-0.1044702513972413,-0.03284537611516512,0.35821429117746295,-0.5955369093353942,-0.20800104946862485,-0.002969058421404121,-0.25763766908006863,-0.10792478247438286,4.753702145974677,0.049400178247217874
,0.10646571082825498,-16.170606086641087,-0.31158618098733254,-0.00344083114770674,0.20756541480921734,0.13262028534821843,0.08341448180727262,-0.24414360863740323,-0.02279237597535068,0.24952376944486418,0.21563946763905534,0.009889505575956933,0.9882582439772435,-0.060224956069900554
,0.1609369409937741,-7.077149124882598,-0.36284843683443935,0.09962971103610078,0.6575707377900172,0.10812938833123863,-0.4746987234116461,-0.22324947809760723,0.01444511595724425,0.27769820072026086,-0.3964088560421478,-0.09428343745704972,5.0906841308197155,-0.16565506200318178
,0.1278080978571648,-4.174283880978933,-0.32972573243928205,-0.2060990222788515,0.35492518552008356,-0.37122994106890006,-0.4704138475918707,-0.4605622937149253,0.19657025166983472,-0.013142564923971528,-0.06945487825699675,0.1358571857311475,6.027254593383895,-0.2916945920062919
,-0.07972490188062632,3.70636715736535,-0.35540031638037844,-0.3574091474719506,0.3363758989301755,-0.33589688336439594,-0.254919691543843,-0.3529871612843832,0.14397660432515233,-0.09888120807788153,-0.11493689134138955,0.12843748689878257,2.540957390981002,-0.015238592240976574
,-0.6135408354926404,-8.05000305643216,-0.3627875116596874,-0.4003354465517818,0.5890256321380894,0.15372361995693623,0.04209713692050754,-0.4969638891151082,-0.3445101415425508,0.05187138910279803,-0.22819778287575526,-0.22334585831363782,6.756567348428955,-0.22363806730070868
,-0.6198526299324846,-10.630233889143803,-0.1084836879436295,-0.5720905360606802,0.422752837344433,-0.6351315976423791,-0.540451044804107,-0.4461135370581391,-0.39417662378135626,-0.0565943125850961,0.9370003334914352,-0.2354617068264839,8.079362109410704,-0.6415077868673831
,-0.2992034873398358,-2.7395051626892553,-0.10390865901822341,-0.3774776066918933,1.1494162236163943,-0.5740494770678758,-0.5374506231162739,-0.235781695061895,-0.1617599682841307,0.4816488154262582,0.8761033175467238,0.08364837449989859,7.607272325573495,-0.5459699022854464
,-0.19768724173183236,-3.0225443788102475,0.011632614660933625,0.34027763679472883,0.9875639636650981,0.29542524991356717,0.32775945405332574,0.19864714703084732,-0.2534666309607749,-0.3736497068468737,0.4866149345442548,0.208376268688512,5.71700742295506,-0.08671255190085606
,-0.1770839002241159,-1.9289570207381288,0.18193694583419556,0.7144946730818955,1.046006906693768,0.09233447557928244,0.5591232832911543,0.5985711634537566,0.015141098014385906,-0.09069579037638907,-0.16111627180806581,0.10013508309267449,5.030412025180364,0.06664465905248583
,-0.0384142662049024,10.871611094221631,0.008884968184510187,0.13697710463951085,0.3765833949782096,0.6225364798082139,0.23112941507402193,0.28658479737916026,0.0881562239736264,0.17542192667957332,0.16444503824754617,0.10841621306315473,2.8105959284865083,0.18292826461981232
,0.4508396097456115,7.359565425632686,-0.02674327981797512,-0.39579661437747665,0.6105761782289346,0.41240738087605217,0.1544364210869915,0.12203014864193412,0.017540717105929752,-0.23674176754098397,-0.27012613280353126,-0.01947668532320817,0.6387405986133959,0.3539919695962379
,0.3098143072907157,-3.805290237052078,0.1658774592072608,-0.10920751428669898,0.2022089642008051,-0.37261740595692566,-0.14416597263227032,0.3192845860148726,-0.2957051354473067,-0.3077608596074311,-0.359159705072925,-0.13661466617397391,-5.7614473478086525,0.25546339498757203
,0.014146039022197646,-11.531851131793548,0.15617285586631885,0.08736115823558542,-0.016697282204093195,-0.3662381072038993,-0.27075958628274316,-0.1762117561007194,-0.7868258679501682,-0.5804849923243236,0.35561497326551683,0.15103572599236004,-4.713251337636293,0.05397103873260576
,0.25137723597106026,-6.545087142554635,0.10215669450751794,-0.2670299243138044,-0.017432239307004143,-0.0824365584455496,-0.3261077219351893,0.2288035837570121,-0.31181228062657956,-0.22631306992303932,-0.053151911588583366,0.24148027428313554,3.303384589571952,0.019583633521550504
,-0.05502789301858734,-13.346761520421808,0.08414927547277977,0.014074812357443229,-0.0427163149743826,0.215792136689643,-0.29875032377467053,0.319405673073795,0.4507744435689804,-0.19461590313130467,-0.23649451428487359,0.13483304094640322,2.462564920414482,0.007782017102859542
,-0.3919360207066259,-12.445372288435932,-0.08779313112719071,-0.2722107047018383,-0.09879521287129815,-0.05744409079335873,0.18016270444505822,0.055897733453977645,0.3714017748476752,-0.02683667411810828,0.33318580891554,0.11905629068448417,-2.8492827252065775,0.13983473288203974
,0.11051791637430357,2.0596394855363798,-0.07307090758463353,-0.17214807391964437,0.025535996914728566,0.1655989943514508,0.013170856044512165,0.09947031729006486,0.30654353836327164,0.23242520430069738,0.5274976368384752,-0.05480736077964614,-4.483470915617247,-0.2153330205293357
,0.09120690236805888,10.230490289479611,-0.18494697547375596,-0.17177833262950012,-0.3873744017005992,0.6946975768892725,-0.2274592546154348,0.27043898574825376,-0.24771950987606578,-0.18668926524910454,0.22407860627935955,-0.21286633430590904,-0.4985586174375913,-0.47115502911828244
,-0.2473232781949662,15.293065297383253,-0.21205910786588034,0.011706578384756914,-0.5935420200114426,0.35185373053323643,0.2258769755040795,0.28058282464538237,-0.0863061067581659,0.10153121191055531,0.30822629565218956,-0.06231193107903583,-0.4947738034734756,-0.2590557118712205
,0.23387326769102765,16.03406766953986,-0.006101697772661661,0.1296046382762799,0.2050928423936109,0.12193622663309699,0.5376288801605761,0.24684795050361855,0.24990547941050184,0.5845130919088483,-0.28243763792323456,-0.028957219674872282,-4.619051467618106,-0.09862069641110033
,-0.06711235576829544,8.121762641403334,-0.0029745926678835305,-0.03642779924739821,-0.07883771622216365,-0.18620442981723923,0.23860436756806808,-0.08170422139222552,-0.07734825896477243,0.4943401919966199,-1.0244823035409718,-0.23707430314875363,0.5738407387963063,-0.2950096102297189
,-0.5338425170675667,6.443961743527847,-0.1647573179370306,-0.028828534822905278,-0.47765613453441985,-0.9055946862353289,-0.37099107724772945,-0.34727481066563914,0.0707543232949116,0.4149621000078563,-0.21907195173095032,-0.3740279875258455,5.952083174452426,-0.036066616516263326
,-0.3772934072052989,-0.9086148194629108,0.023557266292786254,-0.0921345792258505,0.5396344716749781,-0.643979057174131,-0.7991568717341656,-0.056266038394382795,0.350000694900819,0.4124806604655607,-0.16099405302759254,-0.24073650550899922,-0.44043944353715025,-0.23287401304403318
,-0.47524253092732266,-11.001797844834202,-0.008740133411824594,-0.2104771580482676,0.522147200739097,-0.45575437777665556,-0.2083031737908964,0.08045908482440797,0.024955809211234064,0.04255025445932849,-0.21618725158686083,-0.08465043322529188,4.666043063429855,-0.09005235516831027
,-0.24850374562215402,-1.2764219389720042,-0.06483649142428946,0.48514354868539883,0.025359449205648175,-0.38882035681552063,0.0869241987219023,0.21471731977647235,0.2982088444813388,0.6605446052312998,0.5793404937944108,0.0668916661934033,4.084794553356941,0.23664679114148632
,0.5221328583282998,2.899809027760929,-0.10665434902834867,0.28390773974529915,-0.17897734726472866,0.1127591526123913,-0.23281514110378984,-0.12545345905715108,0.12104250238352714,-0.10942367268006377,-0.17256458789913215,0.25009191645593193,-2.4815837819487663,0.04784797715411978
,0.3757185920077293,11.579074441474894,-0.055943241584461297,-0.0077080712712301845,-0.030965121039240602,-0.20330986564196216,0.22402098673215415,-0.36554559091808586,-0.06829288889234342,-0.6917751938869033,-0.009213094491711803,0.08300468476658886,-2.107943778990542,0.15053049746275493
,-0.0713556072104238,5.361149339934246,-0.02674117076598464,0.3116002912181128,-0.05997293405032946,-0.24591042925874942,0.43837136454960135,0.1080286742193451,0.2156460801670023,-0.38883191157203983,0.2284402330734669,0.02743205486823541,0.979173956131256,0.31827440076372554
,0.2712423959684842,-1.678325373783398,0.06284541409639069,0.28365211073169794,0.2851314930176406,0.668284645704095,0.5005260189427246,0.10181311641085834,0.22955324604622324,-0.11747572366432564,0.15253227121778354,0.1814929225983202,-3.123010109169666,0.4765175681963101
,0.20833488288151997,-5.7447587273680085,0.18360456564457991,0.08423729991968949,0.08307063108029006,0.7752895408331999,0.4201096043657288,-0.47137892965782735,-0.30093190866761665,0.030017967367430277,-0.4736714798849716,0.1981488057829779,-0.14360669582298277,0.19872825180950987
,0.07927295781784328,-9.738738911361823,0.2162555855563085,-0.32333748508712845,0.09478567495290448,0.8020973608729359,0.013113166082484268,-0.7019150435320303,-0.5138447794924677,-0.1431580214915533,0.4985121719950587,-0.021420641149509655,9.694535028113837,-0.20701325086627137
R,0.3089538101578901,-24.829111721493927,-0.009954501918287475,-0.8307893839432776,0.5666705448949099,-0.10215656228550023,0.19447434518454135,-0.5400182529618103,-0.16458542390498798,0.3332077698192606,0.3644562468696491,-0.2761862524293151,7.929882260967307,-0.5744609949098187
,0.27872203176917737,-16.704811471467565,0.12172543733596099,-0.4320913666888733,0.0983662306117689,-0.2653520412549374,0.13742096742542445,-0.1697364614664514,-0.2964674276890943,0.5543813389525588,-0.36809472601747945,-0.2482295325323871,5.251025798277635,-0.6507026317158565
,0.4864645608259017,-2.7483930251284554,-0.20769548928021478,-0.27572003699831216,0.3004110949861614,-0.13711478143224093,-0.04614398920373749,0.26289505505170974,-0.08925156146815835,0.6404330069008083,0.09745894417005652,-0.2263525923988367,2.2214782165208233,-0.30663328935991974
,0.3643389583683174,0.9569396379928666,-0.2735275330477581,-0.37524007056238445,0.40189523892851947,0.04136872608175184,0.013408473807429102,0.13078798106096645,0.27902348667145294,0.43154218687489404,-0.47316217033759256,0.17492750376682525,-0.5522840735300473,-0.3772685117605945
,-0.07429914758902562,-7.219458310950615,-0.055512493899478585,-0.22596702477923303,0.05167631376845288,0.5729377186638698,0.0861614503787448,0.024574112271118036,0.25437587975578163,0.47552511210319365,-0.07283527149368155,0.04849863283938301,5.306625836606985,-0.19968811954710397
,0.16731275300922022,-8.126850867115254,0.04669744271387345,-0.35610590835868905,0.39694239583716723,0.2678494586055148,-0.3189182452343175,0.2016067408721514,-0.019215520153840534,0.669326325730973,0.6504276671813977,-0.2701635501449388,3.831151275277536,0.0948365632845156
,-0.03984489026272585,-12.9504601940853,0.035607174701609616,-0.8656699112022889,0.0165599209405851,-0.22518680980766334,-0.1497066343724371,0.32570089963005194,-0.059560643201972824,0.58278938285722,0.37636820708819024,-0.17214018350123866,-0.4166474207783944,0.21545503829288026
,-0.08328554600876602,-4.352547706652542,-0.09745206781208701,-0.9561498127536621,0.10010024486032665,-0.1419053051475446,-0.013629425711206584,-0.030038938722615555,0.0693598675973311,0.021760667730837787,-0.4839140391262094,-0.14338678016664058,-4.528642120123347,0.17645696214144194
,0.2701758435909305,-1.8494675686461923,-0.3988308532733225,-0.29418038580858874,0.2666705022898384,-0.14146561458664278,-0.013671046195420753,-0.07760805698778386,0.23904437701806827,-0.3005543186661492,-0.5821469017944557,-0.11214160870115594,-1.9261417667187333,0.03247700136299911
,0.3247444175423538,0.011375342468322183,-0.2866448337378535,-0.2012076858168762,0.5435399558277766,0.1109385985261834,0.2786686211046026,0.08780130317402766,0.06333784754831838,0.2416881182851224,0.08619770605110337,-0.2173205695823693,-3.633831881199691,0.005307158917057489
,-0.0822708433532577,-14.664572977382644,-0.19367953472922214,-0.6633768304077543,-0.46278183220143687,0.028689368299005664,0.000451328211387385,0.6927000074709134,0.05050972001700101,0.28690393302724626,0.03736611785968101,-0.24740855438392906,2.7802691353628948,-0.26537345393468786
,0.28230142758863525,-17.699003790292963,-0.22252046882721013,-0.6686828112516096,-0.620584709412033,0.050611349873380396,-0.3034079723790633,0.3345994223410521,0.03860034829305557,0.19409107988593624,0.9778053961709484,0.11883007408985781,8.510701857955228,-0.3901899867796916
,0.13122077447504618,-12.575061268961507,-0.3287360169509046,-1.20956003427827,-0.6799244120436689,-0.3171712851692102,0.0009620716588411688,-0.3591245498839907,-0.13321717438598277,0.04086960500202987,0.9344545402311394,0.016156751506200887,9.500770161273183,-0.1318854425602531
,0.20556949834767566,-19.735902340870382,-0.4130567130438462,-1.183810572154472,-0.04758359076018505,-0.31126081819855156,-0.08076937234758995,-0.397738647614965,0.20211384329935092,0.24455295848805084,0.31384388911248434,0.17934158707864226,9.676211891142133,-0.11106555155057339
,-0.18504399010369924,-28.71372170670828,-0.01209800393103914,-0.8308689161855269,0.06156157998962821,0.48562640365796517,0.2355148172053918,0.05769396478352484,-0.20441615625694112,0.162986552444263,-0.32773171646427757,-0.1645152090671353,7.63801358765984,-0.5724862379791835
,-0.7308934397138082,-28.441554893663504,-0.11220334435799284,-0.9018610495082114,-0.5153420560525498,0.4028855456474571,0.05174963534355,-0.19235381782389474,-0.2867264454278895,0.06536595043830476,-0.8012050668932991,-0.16137657481671086,8.38666796112078,-0.6115657376710011
,-0.646512451800653,-32.57954387976445,-0.21492589639874327,-1.3046337604207976,0.00972502503130483,-0.316709862153288,-0.5927797947206839,-0.31139717286766533,0.07125306663654825,0.20056424886939772,-1.0526503334905384,-0.008158541041118393,13.006844766954156,-0.44522767661491736
,-0.8243243735506127,-31.39295526564796,-0.14109347900077962,-1.130113880108581,0.08472076205073518,-0.6451984115169264,-0.585710506381635,-0.3035609312547037,-0.05460170759412596,0.9478342639830193,-1.2230073654689009,-0.027147376406631566,9.035866350576583,-0.668774667668934
,-0.2711165429402722,-33.471748295546,-0.3805359269868281,-0.8160804315814948,-0.35933207098665787,-0.5945588421086665,-0.029324121399880044,-0.10759980877350164,0.12499545611719995,0.5477250652696001,-1.218385779088267,-0.17193989373356297,6.051116164557776,-0.262832362679823
,0.15262345377942368,-21.119011750642475,-0.3276732427334576,-0.20825350237162876,-0.31145469180486257,-0.31618637579520054,0.09617950089938927,-0.03979029669943166,0.5110657007412446,0.5231076509286573,-0.26534625347434626,-0.09704771787824865,-0.1544626936367104,-0.29870230726756153
,0.07942738973719679,-7.4082633871895895,-0.20340265169083246,-0.5613125703913754,0.1302715485213027,-0.36198498973023213,-0.3020992491673361,-0.19076093747230385,0.05369645497875826,-0.0556468453001285,0.8238877835457431,0.06571875720816998,-1.1354142751956358,-0.12677162536118675
,-0.012895679120812888,-5.886245691144537,-0.23904427820081336,-0.4118551267062554,0.004287084560419938,-0.3901028502089867,-0.033306014370944034,-0.10884040319785486,-0.16105229306227983,-0.42614915002854603,0.3802274823866768,0.024605847310158864,4.913648617070051,0.09308385987040162
,0.012324302747046196,-13.246821379473573,-0.4309735171429559,-0.2610340738340284,0.12575136685045968,-0.8013402821808606,0.2644409317560006,-0.01521552527392337,-0.008915106152125332,-0.10134753761644266,-0.025250617925714702,0.02644540990588493,8.350167720227939,-0.12842161837913768
,-0.5105169429659431,-10.89858688567178,-0.2431980554568736,-0.3381977646576018,0.2933945303863837,-0.7150716022635609,-0.3285391782367658,0.19229119842866366,0.34743912047146464,0.03650722768421947,-1.0461579027381125,-0.30659251713037855,6.705025807258635,-0.8602572016210351
,-0.4996417506945655,-11.873082023750346,-0.19011536333461937,-0.44611980267514134,0.12216423827139224,-0.6374425096099958,0.12626076156927965,-0.3914108334807173,0.39744005438072055,-0.22359389933851584,-0.6158877730708381,-0.06846988236626667,5.372038745049527,-0.6326610186694198
,-0.8262044767366739,-14.375659830621753,-0.37168869467612553,-0.4642377929878657,-0.31088027812733243,-0.19074389471408276,0.48136085518988725,-0.6433484386610567,-0.07686388407872723,-0.8189387732368633,-0.6356227121294236,-0.06477082713050435,7.984607850594982,-0.6555763509587235
,-0.8389677263472525,-9.85550128966664,-0.1563790343243472,-0.21200921714760437,-0.43024254350738983,0.3933774143218881,0.4396203134790583,-0.6238436479728159,-0.525171016929653,-1.00414626873291,-0.34703432223977304,0.02831589168716869,3.425364241087979,-0.6281658038023784
,-0.3536635189134887,-6.867112674054551,-0.19590531714579046,0.5378242308752145,-0.10726006288530766,-0.1018283598683227,0.4849223501251592,-0.15118013015807294,-0.1589990461550412,0.028069192163634724,0.06638485074303947,-0.04454600920865385,0.455771996246511,-0.4911050261400473
,-0.039740609367492935,-4.249300176461131,-0.31964964263822343,0.20862000148721108,-0.12560409044773196,-0.11340240663289951,0.11004307322037829,-0.27298097477784666,0.29738210566983786,1.0643557428627137,0.2679672881213085,-0.03364765986734912,4.994735462603434,-0.3227478146932183
,-0.053305744836016286,-0.5886349197263226,-0.17118877314205241,-0.08813831833347066,-0.20387808493426182,-0.17883173852382772,0.10067111486008445,-0.31909181708896084,0.3346007670323545,0.592294865527082,1.161347578203932,-0.04312012925497459,1.2675298229781404,-0.1850737545150304
,0.1121484734218423,-9.018656641496483,-0.18883818246004128,-0.5000159336947262,-0.7361886449131329,0.024167798012408873,-0.28023391825146554,0.13507897909888084,0.018120118724937195,0.44252687400873064,-0.3199998854784438,-0.14764255954024333,4.326835046458623,-0.09814396439272093
,0.19867249293247458,-22.660503742002003,-0.19594374193407205,-0.4260282975857442,-0.655994081127597,0.7424418535404299,-0.10615056022923193,0.5132475351700381,0.23701409045750937,0.3478554188378696,-0.35598432178858397,-0.38180426944243057,6.168299533550651,-0.12581423683687723
,-0.34685494896153474,-16.116034179370143,-0.3236762885395364,-0.03729462381816061,-0.35519206325231467,0.09077325840413299,0.22649435467759027,0.711030082677779,0.21708976546963474,0.05054541652328326,-0.11023908385443291,-0.4579020235319369,-0.8211723478608749,-0.326705574229773
,-0.29283259149690194,-14.220408297732156,-0.20624564347004953,0.12202498011470811,0.009605054868681231,-0.34179635525267876,0.9000934089961897,0.17857322221729133,-0.09934872066138978,0.2038090888797191,0.8063990566630915,-0.2693397068148765,0.3407599821793348,-0.17541616964499604
,0.1647661034574981,-16.719189402086727,-0.10776031968335752,-0.05058579451555488,-0.14462445478721564,-0.5898015748978507,0.5583959037006744,0.03904248528965927,0.033133933314102595,0.10443177132603418,0.10066130868235332,-0.1480824221324831,2.868020842837399,-0.2239208846637545
,0.09405441479662262,4.162905318192826,0.169368763547762,0.22281585295811418,-0.6158031961132145,0.06306358585618244,-0.11386261400191736,0.19102877610899452,0.2316918134696575,0.8723127708182992,-0.0561212443685288,0.022607658497377326,2.151896532375438,-0.47462725645559944
,-0.17617849733891874,3.357972909795326,0.07666852755876476,-0.23910539039544976,-0.37079173887771033,0.06505210710562917,0.08797287211628907,0.10146291663992442,0.2775094636551278,0.3682131996113794,0.08471450936254142,0.07118969517414639,6.0594505926948905,-0.53060668154412
,-0.13700051239236724,-8.140262224443031,-0.049497971530339434,-0.3414613312072321,-0.03563912926255395,-0.11231838420059982,0.097016216229402,0.03188544312823553,0.08302199124382184,-0.01983861556488906,-0.3862821537467223,0.16068077330895786,5.938117111829991,-0.3323489245924045
,0.12976067289817098,-25.975135704522007,-0.25082256795642166,-0.42720365493353324,0.34312317415085924,0.2504030439825042,0.35698031061079927,0.19218908898515075,-0.07977941536552119,-0.10579623855708976,-0.3983754390940832,0.05356110132764358,7.2213091476605795,-0.1326062940805247
,-0.22434184485152986,-27.8456928278235,-0.387163605077641,-0.8721909002419956,-0.16230275857892817,0.06869995105671932,0.2631437753191325,-0.027430320328311848,0.3791844001682211,-0.26767970956621256,-0.06339406300505654,-0.27642739705661046,10.67635067901362,-0.37697617352537643
,-0.2799305740268108,-26.611348215618506,-0.41311801991518754,-0.9264308426093282,-0.29734640826048425,-0.02506907742949071,0.18385975505654117,-0.3986918724763761,0.18486351119208178,-0.3078599405796034,0.2285553444961196,-0.3544711717115758,9.001470924831745,-0.5657870987115412
,-0.953306787856865,-10.60321066890361,-0.34215828111689106,-0.6598896979468216,-0.35663063462986705,-0.1252879786159779,0.019532506150840064,-0.48628043961618495,0.10379757412894038,-0.1960537446128363,-0.8609945506441082,-0.3234868237037885,11.564306045671572,-0.6495191219972578
,-1.777747753958826,-25.39508110516892,-0.64100795630565,-1.3059132773580249,-0.5024596658566649,-0.07774928096544138,-0.47890113315639893,-0.24627082393314914,-0.2301289184947328,-0.030378876430493557,-1.7624127337201538,-0.6304179704158482,12.58904144293803,-1.2328416393821633
,-1.3008966875200974,-19.89750432531503,-0.4893929486016311,-1.0750004291415327,-0.04130074320777593,0.15167118637669227,-0.13398642825876458,-0.18458106838666374,-0.32669696514219143,0.09011554372183389,-1.1210226059864974,-0.5353115180889768,7.302189180298561,-1.007176014168711
,-0.6683116323822649,-28.699212333249328,-0.33239701841509944,-1.00705864087566,0.4742523399236301,0.10791978535696001,0.5390301004975048,0.07082492138617393,-0.15779921142027364,-0.002951204827956682,-0.3473838118603186,-0.5163259520181132,-1.4080723245946793,-0.6520702090696073
,-0.3639379343545738,-26.569016706674525,-0.5019350836805446,-0.9204049914823611,0.19423610624776086,0.6764452112398909,0.44732468532905084,0.43393001430459144,-0.36120850573204927,0.03281307942499101,-0.48393512125071686,-0.42780892449602265,-0.16151202174839077,-0.4535321908965021
,-0.3611789301548849,-16.858952586032622,-0.29870809634527506,-0.3564018309287928,-0.26857307902566246,0.5817418545328618,-0.4031248061013856,0.1800453180064454,-0.13288009239162948,0.1604656140281231,0.23400784567714877,-0.20286837015462864,7.900800809023698,0.05192540925128395
,-0.13589761861272348,-12.271740149214594,-0.20732154416022558,-0.4505970040970283,-0.002050248479135038,-0.17041471064608585,-0.03390194121255269,0.013867175351362249,0.42651680655191415,0.3885794693563335,0.7312610457368682,0.06984996737066555,4.356816807647855,0.11578528509811785
,0.3537193578522199,-19.657417133094043,-0.16760231358055594,-0.3916638215502578,-0.31978420578696354,0.07221359716988945,0.3041611887841968,0.015827064681715998,-0.044804706777122526,0.45362009473131076,-0.7349240550193507,-0.16616396024681993,6.136809919931768,-0.3380809344591377
,0.051948194181201966,-23.903738009379754,0.16448982363095033,-0.70718532205219,-0.17886149414774505,0.8469430095907213,0.2936472120605882,-0.1477542891582425,0.02811158436829974,-0.006040572611130867,-0.5822493621069953,-0.08421993310364446,8.23591024350985,-0.30229132477753246
,-0.03833149339990345,-22.965055871868994,-0.01711220994293781,-0.5359916933845588,0.5888954770348989,0.34342670938017883,0.06396676419165215,0.13835111617354587,0.30213397121150903,0.5548331571628206,-0.31925934452094373,-0.01614103629531391,6.215218857125815,-0.25659321658381873
,-0.3373158553238304,-8.254404560048586,-0.1945089037154993,-0.023718061830888322,0.6776526730319697,-0.22906642548896777,0.1632012389918143,-0.2551647983301009,-0.22924758180947255,1.015214163984471,0.11558234698742505,-0.3484196950869347,0.6320060441213379,-0.3051485547300279
,-0.40370596198242736,-8.528899261249045,-0.11013111751319472,-0.46897584785444646,0.3078389551162242,-0.1442155294664204,0.2585973913534791,-0.23707158249863314,-0.18796376623818536,0.8689939556484834,0.21786049559629303,-0.12951367964826652,2.602127267519012,-0.27334285879772524
,0.11726732345172153,-9.512351024063632,-0.2166167405770157,-0.26417808400769793,0.6006635487512819,-0.1281371129451032,0.3733874006405678,0.2618522586523898,0.04886213322254155,0.40220840711789185,0.6861199988088835,0.26696705523689385,1.3006183706406214,-0.24541152087125614
,0.14123687456751452,-6.357320274693635,-0.37624774450538206,0.3921409615174248,0.476455117976675,-0.16930421548198632,0.47456672621096063,0.42023490844191774,-0.07573766443585095,0.4915714742305616,0.8364219163339407,-0.054889471708933595,-1.5110411035004423,-0.45219248874655305
,-0.13753837158538545,-9.214697761579176,-0.2506827813487854,-0.10384256969095254,-0.0751118875872103,0.041378330125778566,-0.1599354872036766,0.1706734121071666,-0.2635994522736998,0.19412971252406414,0.8761041830112938,0.07265390761512858,3.858676598647422,-0.5730239140018469
,-0.21894592984796069,-0.7994928335862388,-0.1299358414475336,0.09333476699476971,-0.42508890150630396,-0.046971603861809264,0.07192936513822973,-0.3060051552105891,-0.27630041946905315,0.22701549657437284,0.8787099809167705,0.0833547273536718,7.578690984621874,-0.6047987245724744
,0.10267487169706978,9.526362464476863,-0.3083802331418101,-0.02090220251011846,-0.02023078730834686,-0.0029887081844511077,0.2828394800376738,-0.16972126189501133,0.3003947354073404,0.4308613231246189,0.3666109423864923,0.08558055004156614,4.888769156682306,-0.2657711694060083
,-0.06672955628503034,-2.9138586518041816,-0.46667274426912103,0.046823088803858263,0.7108467724413176,0.33466186599878767,0.2427162673487965,-0.1392939279180137,0.3879252893957211,0.6875713451770127,0.5322778052554885,0.08466271090028002,3.3873305534481912,-0.24020021776077397
,-0.4225725733538071,-4.0399127508729045,-0.15745282743504574,-0.28669214008711613,0.2622067004625423,0.05994286868305094,-0.05163673658471067,-0.3137961079042292,0.07183506390678884,0.49503294494579,-0.23280006918065801,0.2597688457569234,3.5400141887268077,-0.10526839514014169
,-0.300164012007336,-12.188853591901081,-0.27829587943855927,-0.4107382298579188,-0.1220851273752147,0.05930686000535635,0.06793380555378538,-0.04057426577700768,-0.23803018939363776,0.6627234616251247,0.7883025347375151,0.14133971989314872,7.239048362888337,-0.015791647375494565
,-0.2653815861376368,-1.0701966948251311,-0.39730606466209045,0.10252698186572742,-0.221506354072118,-0.06796644549814251,0.03279387221031757,0.24158657497492622,-0.18284124679426486,0.40756276517018053,0.47050598714138636,0.04468791666331251,7.723158982701388,0.01505671047996117
,-0.22245013506493957,10.302671111187845,-0.293840594097869,0.46476523451848734,0.24262410246589333,-0.28262997009879964,-0.23258110019441364,-0.19332503665824827,0.20657336518623454,0.22413362757406927,-0.2086120859198469,0.20624774847095712,7.5797218491761384,0.003351436305828916
,-0.031865511392697825,-0.8899644874903868,-0.14147956296053787,0.32446481662257887,0.7009278863198973,-0.09891579784175919,-0.3867151323782233,-0.10726170078603073,0.36047556672781816,-0.06390109897820002,0.0989874690274846,0.015471074946581615,2.851028995403186,-0.06795151210594294
,0.16084721214830003,-6.700139873974461,-0.1285359154605744,0.17005541067613184,0.25709097648056245,-0.14939031619951076,-0.18365941764609114,-0.33923535972991103,0.01800303063194827,0.06553061054076997,0.5199218351927719,-0.07725202382160587,-4.136459285403054,0.07600472117184574
,0.7270662962347153,-10.751242845579434,-0.1907335507044662,-0.008628773996089075,0.20715533694904642,0.24147867601362716,-0.2457444891172042,-0.36353058918680947,-0.17672231170250005,0.00961906664795515,-0.028233796786154064,-0.2057025813892342,0.7784086508089865,0.3334616941112152
,0.046253089952054086,-8.67873610409704,-0.20404756752008174,-0.362874833333024,0.5411191591864912,0.08564396350301112,-0.31117883502901433,0.15655707260072232,-0.4431509567261209,-0.06043507630862998,0.5459433484845144,-0.2230778839135072,5.758141509144839,-0.16775573502471985
,0.3645225902614,-2.186149079073573,-0.3691861334257361,-0.7073431022898227,0.30115487944205854,0.18954401381989916,-0.08284156900679616,0.40635637278151243,-0.39984027356155616,0.0615791138150025,0.11074366611573173,-0.13513537904947348,1.8135955956649392,-0.47703402971912195
,0.3510530120289378,-8.150566625267716,-0.12234885795951277,0.05944913408234467,0.6915737665937389,0.31832184776386,0.561660956425047,0.5043596977465045,-0.19950152040730498,0.0018163399483850924,0.5556689947442922,-0.14827625958204077,-7.116742688750412,-0.42050374175558647
,0.21312597438953168,-6.282466169040329,-0.2246948075265265,0.9082862128296731,1.0575157812972988,0.9505917078151817,-0.07776314488750205,0.2531563217659495,-0.06647017739830505,0.19685621840630932,2.3279082727963964,0.2602263517063521,2.388719714239559,0.08991999566530717
,-0.19916800855036804,-7.835734696851561,-0.3116317972220644,0.09854292259044052,0.5685551912349376,0.1690093158786259,-0.42891912429169654,-0.1253738151631884,-0.02171621431570586,-0.5628540237204133,1.094956320666977,0.17716212933736167,6.201915002702863,-0.010891089968760672
,-0.14504312776675035,-3.9750230604936427,-0.3668914170058802,-0.6283617209947434,-0.02781193749199093,-0.23397070869915082,-0.2531864855272269,0.0029538685042354114,-0.12818220099893773,-0.552595179257652,-0.15747055572472138,0.0019049331015278392,8.305448226886668,-0.3850329922802347
,-0.19160085938317786,-10.272742131578918,-0.2923451746867,-0.2590194435099123,-0.3326150906186864,-0.6537593603640277,-0.5945585588787342,-0.2576367300307072,0.07209421998674889,-0.20434756165852552,0.017104761740428423,-0.13027901402064151,10.07696827199816,-0.1557274929302796
,-0.3144963176342653,-10.937874316847193,-0.2599251815227145,0.6472442304191913,-0.10477845394828392,-0.2614145910692857,0.04500009794996434,-0.44120870309659466,-0.0399301195524999,0.4225049102513554,0.44803128824607796,-0.0953563194028882,2.8493137283020684,0.0061916995183110895
,-0.3073471315184363,-2.4251701956260057,-0.1420760884120929,0.3716490412133728,-0.14437002697378232,-0.0162066576454285,0.5159071003914617,-0.025369039749085914,-0.02942843594053017,-0.35637743867796207,-0.09352684889270346,-0.1544320284901783,3.0738365407019943,-0.15392663962523176
,-0.5315522631530217,11.002020752193294,-0.13835984238641286,0.20896483013498476,-0.2941722453425509,-0.30500498624310574,0.4079245590331244,0.0007120168943487819,0.376111045363144,-0.4328089968002145,-0.14429894745010002,-0.052272418561959265,0.8755522262427071,-0.3431039710365398
,-0.06778333058115933,-3.8945234586724413,-0.2729935009481344,0.38610062327952,-0.011565194573945633,-0.2554175550290709,0.18732558382305184,-0.22460028394453457,0.13314494492685833,0.5216647151651002,-0.2795067813679696,-0.06575337047385678,4.225268907748101,-0.5200526280103123
,0.030378196028724016,-7.197861978581153,-0.2636796272758327,0.3707680263548358,-0.12252406401596075,-0.017684428849350287,-0.044583568199156785,-0.2381541446421348,-0.1459195717424011,0.04984901986245012,-0.1973795979242602,0.0019152022880273862,1.3952851226673888,-0.7758871277473492
,-0.3685984107433055,-12.359935923843214,-0.1343954108797367,0.07334976404023863,0.8432042387318441,-0.40220471268212465,-0.1800195309435858,0.023374548328901238,0.4762882288046978,0.28075997595802765,0.2597409929297441,0.1108189952243549,-0.5125661732520735,-0.4032416635584811
,0.013592612216596986,-6.253665400452037,-0.1248449616641512,0.21028071157059905,1.0926529482807918,-0.08518621014761676,0.29127187377939884,0.46901410408332844,0.6807523443852078,0.19957172239509505,0.903578778346469,0.30618227047340224,0.3500036347899946,0.1428151877422915
,0.2079805920017458,9.065525903702104,-0.3370920918102297,0.5726934599078161,0.3230590985855864,-0.09074757961288717,0.24585210757000894,0.2447908909167549,0.2533623447937167,0.3795368692822328,1.7165631227721485,0.1480757982427262,-0.3995360912878908,0.16278978488419596
,-0.12116828583266141,11.752214714263312,-0.34708222608346695,0.39260559449742455,0.071106006595824,0.26236099224872744,-0.2687331220956601,-0.15017976768329502,0.13330523350074117,0.1612634868683971,1.0971308860338633,0.13420175334178108,-1.2241958852945887,0.397761540032002
,0.18876150297451313,-0.6503483030337655,-0.00505000805228714,0.3392581821823807,0.5946210691250993,0.2919308824706911,-0.004993573367728676,-0.07889213567079936,-0.3460892102509332,0.13595758093795132,-0.20293375081339732,0.014628391516530464,0.5891200138942999,0.2912667717101256
,0.283084245392957,-3.3734900538615507,-0.02758654059740629,0.05507445724392377,0.450594025682312,0.2982982115829559,0.3060167801617585,0.16182117366226248,-0.4364687628385432,-0.005767952979529951,-0.03158585444176309,0.2047819272087817,2.2465443389309496,-0.054704020088895515
,0.2655154344615186,2.9991868245167694,-0.10219816836422334,0.3044930666304481,0.5741403182015751,0.11888610848745891,0.0011365516352694902,-0.08501390948808583,-0.0906299023689403,0.06322502684897106,0.1860920248019317,0.221477210597975,-2.6835921480008436,0.12266243481479072
,0.22706270107095128,-1.9833707982448026,-0.039363192262120004,0.35360831090247824,0.14664841969981987,0.45913160227109195,0.3387586582126277,-0.0997968620709345,0.1320421364860821,0.1650309936248403,0.16582523238776392,-0.1781196279929541,1.114928403101796,0.033063991544499974
,0.1426119138175029,-8.800409359324416,-0.34958193333234583,0.24202547986582237,0.1168418382561572,0.430922918511546,-0.04678703086695351,0.04804743547389515,0.14192921807016706,-0.06340513687220659,0.618546765068154,-0.24436234115128022,2.5894001668838604,-0.14977597827751482
,0.13196335123244513,-5.226418192557515,-0.2418856254013519,-0.011139367789131745,0.7612810909863497,0.07980482480847689,-0.17764354650557693,0.11070432784350784,0.21795199324254436,0.13909746467908424,-0.11110119412760015,-0.1458444046068199,1.207024603817566,0.13145844257210704
,0.004189327540202491,-5.9540305075261255,-0.02978964627624615,-0.08400845013447489,0.3016498902884125,0.16080029424836806,0.5010059051202999,0.18361647813417753,0.19162142867788273,0.8510981740961547,0.2850679643102678,0.0763451022408378,2.995474578892096,0.0034556664580635095
,-0.11881403143873798,5.187179935384467,0.1314953642418883,-0.08011816681575255,-0.46161272837871187,0.1212943369869213,0.4325851832509872,0.23454557697414602,0.2834536014875251,1.0890217917528804,0.037980193583466035,0.10303490581673873,1.3725692822216928,-0.390054874472332
,0.12216568271956033,1.7043924437341076,-0.01525493287972424,0.41479709799076253,-0.5538502874162204,0.596032054637106,0.149909195626853,-0.2465353909420532,0.16175204229207488,0.5526465204661883,-0.5071447418879068,-0.10152163699141539,-0.48064326102287575,-0.27005851863472957
,0.18688372450938462,-10.31299761448276,-0.004823966798088255,-0.019406083562876295,-0.5747538165651835,0.9114780684690458,0.09417427498149339,0.23733531151638135,-0.14120577161066844,0.34273408207755174,-0.8581579478408603,-0.1522880143581185,1.0542085577116274,-0.283666379731841
,0.6697633883259515,-11.441435466573731,0.22932917101907424,-0.04480555767014723,0.44888963782493313,0.7962302590808739,0.15871271038140874,0.34527665283299647,-0.1741518762965651,-0.12167327431656277,-0.12267675618506937,0.07934650052651335,-2.0964389543838715,-0.3015985139919003
,-0.05177821225400787,0.7376918011908302,0.1922842102581265,-0.059130690701101295,0.8370237784223143,0.4498620982906526,0.5619499611875937,-0.008708267521404797,-0.0513481450755307,0.23357855296615238,0.21716133490704814,0.02558982656200986,0.9014178280996091,-0.022366659283541975
,-0.28927769865804914,4.507890942209471,0.02708034074551988,-0.31968847812039614,0.859740714428633,-0.14835939543976553,0.5238951531331015,0.3471525345953439,0.10028098377072053,0.4671689091427975,-0.04708917158658899,-0.08293930579207791,1.5799730642019194,-0.18864515389355366
,0.5996363715962328,-4.94904678228577,-0.1048775316931615,-0.3504974690476019,0.4516912297057185,-0.30060584163795495,0.5171339744403771,-0.3121873140734286,0.48632954428676,0.2653868302350619,-0.6329179831472328,0.006897382443839674,4.955650922459577,-0.0037851051056014074
,0.5205076345373886,-12.536853108259063,-0.233449640367961,0.03117091717335832,0.5219328488922456,-0.10382893386952755,0.26490972200761986,-0.3294731740619145,0.23310101391777985,0.31334695171388643,-0.2800984476616297,-0.1858793439448616,0.6123701873884211,0.13545978250635554
,0.1930530803094537,-11.85102317000593,-0.10273128692317833,0.2118197416558495,0.8184872785951367,-0.10838804387653207,-0.2527701228909698,0.09216428772401611,-0.003758018137151616,-0.1353380034577708,0.10170835562707076,0.0052088639463322576,-0.5035639299003606,-0.028706320466499628
,0.10209433935148583,-4.033414699985793,0.006847487051187051,0.20614778522301572,0.41129995666980257,-0.30003161817227114,-0.6078912730982352,0.4455427034687707,0.06934877146386184,-0.14779964862251058,-0.5898095848554811,0.3520714626252934,-2.76170165321366,-0.04494107606141612
,0.34018052276891536,1.7545107586718256,0.06801277765989569,0.17580602745207966,0.3861502252072761,0.5297671802755403,-0.07992516172482622,0.2776046826843182,0.10711607846093811,0.01996453222202384,-0.153804047156724,-0.061205208150433184,-2.8012715228393374,-0.054890221919046564
,-0.2687637204317037,-3.8053324699482585,-0.09472854941371983,0.17426950274663167,0.20853202351983643,0.3720007442516914,0.17230038367528985,-0.02590086351729576,0.3758302010360782,0.8366346495935931,-0.1492413434417628,-0.18275290754829138,2.7037205412139027,-0.21917526585521785
,-0.10778798998230178,-2.9825544366337584,-0.31754946599413025,0.6161509091857976,0.0796041721522348,0.17139339447891958,0.07329859095337465,0.4145976078207334,-0.0662595027473615,0.372464837860104,0.21680170845960753,0.07454364616084898,0.7088958700660463,-0.17417915216556018
,-0.07409980925105752,5.587243536428818,-0.18703136486208718,0.31070494770211105,-0.4102865509807247,0.06528182015173079,0.1303808544105489,0.16605075592207366,-0.17329088340030951,-0.30468810768307364,0.276796986881826,0.01695726325984677,5.752516130590927,-0.2093328733457961
,-0.24550973109954416,7.602534404405538,-0.19369554879874498,0.1335171547432231,0.31251839166496637,0.661486238170717,0.2765434640396771,-0.19482435774266338,0.005818245502003037,-0.056282752227576,0.5982779060929918,0.10297695962809889,4.975145857332943,0.18659486848042137
,-0.2112162223467143,1.592237777549199,-0.20857675655414934,0.09243508437430063,0.9784422396724843,-0.0393349092409941,0.02320272077783513,-0.1978505554202884,-0.06989475284956848,-0.28569773865972803,0.769419448347244,-0.1712403696254489,0.75171804282043,0.10960123161587237
,-0.2423672832025403,-7.12999979710561,-0.09700615124763028,0.6554400675500678,0.020344758230078527,-0.41038612737430996,-0.17227834836679246,-0.07843536110560823,0.4767433568017261,0.16147078182283217,0.2087075247429882,-0.22173091787997407,2.3508167178071515,-0.01903442411778404
,0.04680794901038907,-3.344643237626304,-0.15889007685498846,0.2989783388311012,-0.595463841883786,0.008257543527947074,0.20568812789281551,0.2574454206048671,0.399376755575095,0.9021975731751447,-0.05092998807493581,-0.13594318422613427,4.900601874245814,-0.13448893291831918
,0.23156383768518612,15.360331121268256,-0.10531585124867716,0.6998535359053486,-0.22262153997445366,0.39940928848673424,0.0780532218304903,-0.09214375133444418,-0.1725275806885725,0.2899223190877434,0.6496502827745495,-0.0027599641908376024,8.673972141720709,0.1816757785389783
,0.3190007928307315,4.938470612129407,-0.13655299806714602,0.20094739523468344,0.11008274194078832,-0.29415848731388783,0.11127994357579535,0.1979883899469247,-0.21993122652887953,0.02014479765272847,-0.01241758621519756,0.046348731093384596,3.498249144929673,0.1887696766261053
,0.3167531093607637,-0.3413493883578895,-0.12863279763360677,0.0797206974818179,0.46634221451885915,-0.4724465548944205,0.4678334918774903,0.1274860476654023,-0.26226247316659984,-0.05473367159147788,0.3015701258470787,-0.029878055285471935,0.2348982046175697,0.14580792885320812
,0.3049772182937941,-1.13491628913258,0.12169491100218406,0.1305579853330527,0.7903855003651622,0.030312788615289053,-0.029245925208869865,0.23840980381933505,0.03625266359842958,-0.16749227990249094,1.1000474613393487,-0.233877279331811,6.679021086609384,0.18606742165505846
,0.6739607668647462,-7.274012852365164,-0.12688593453698235,0.3669815271397427,0.39889614128895284,0.09258435985363546,0.6374040797275123,0.07062196514175441,-0.15150302563058224,-0.009239918378541438,0.8096026517568423,-0.14466472965995922,2.962059091796414,-0.1763366587915521
,0.06629820608137771,0.3127435929793331,-0.14956741359982878,0.4350166487866626,0.524518160925918,-0.18684660055966346,0.5128468148006998,-0.3064698061123499,-0.47856871821744057,0.26050311738063614,0.6401986052411078,-0.07269379664386906,-1.665579506861189,-0.25480327968297317
,-0.34433354767297375,-10.745630151559643,0.022412763610915164,-0.04330181524338966,1.0437047839284221,0.11245868936296484,0.852572234276329,-0.30176582257156015,-0.531043009532327,0.22944517281396537,0.5852226132520699,0.0691625320174726,-2.8445601780969496,-0.2026347208596444
,0.11233535115151387,-7.717318006607271,-0.050720469991952136,-0.1772026275306511,0.8291018499428361,0.14316632932370388,0.9450146450089482,-0.1018414021437406,-0.22162950333654602,-0.16624866072237826,-0.16737193752854593,0.013837603118660134,4.723651772061465,-0.07466641074632048
,0.04721033197429082,5.474694622722318,-0.23179728554680082,0.16562730633151138,0.20109384529614513,0.03657908705094119,0.4787564117649793,0.21367323954665568,0.11120488004468827,0.09252046719810673,0.07055643980083821,0.0395976060934648,5.655863676610176,-0.1445905397425734
,-0.3813760420854536,-1.1414079526730287,-0.15209798330572147,0.4954216469748028,-0.1589488729052571,0.07880567279742742,0.16230824616830616,0.3917112897299107,0.1972384165400407,0.5108349794845369,-0.0001448852833105155,0.010184845741531185,-2.2211148171251835,-0.031851289689423815
,-0.8610760708237589,-3.646566275683531,-0.31968278818522794,-0.017317775916940305,-0.3541403805480422,-0.079722375780798,-0.31891546304574286,0.5308107787524954,-0.2282200109157552,0.8663258113333647,0.0015635233541825345,-0.3731747008342726,-2.143015165381082,-0.49859325021940115
E1,-0.5763096903225213,-10.884083468165013,-0.29582116946174336,-0.39953317808942806,0.06900009046898702,-0.08423976055414203,-0.21033222143646438,-0.4834129006571531,-0.47268712740935104,0.10168944714695069,-0.19293112516713548,-0.30286036184061377,-0.2151598144816925,-0.5273453694969829
,-0.6435146402193014,-9.516582029120062,-0.3945126953946944,-0.5430864112066996,-0.012080967151819742,-0.7709404458097968,0.011525465466613007,-0.7454863967648749,-0.3645563152335747,0.15917196132096004,-1.0934655522729373,-0.4959040845335643,2.5671744883207577,-0.4558966380642167
,-0.6392893143860466,1.7559383733168135,-0.3888882453630013,-0.4045921454909129,-0.1057468951609141,-0.8112875263668209,0.12935097888360308,-0.2411184758741634,0.13370611584859562,0.43215780281510485,-0.20916567276025805,-0.4728362375639574,0.053247187265835265,-0.4292321632426566
,-0.4807903084028395,-8.163132924873132,-0.39895318462927526,-0.3553810985810141,-0.1478434994965469,0.19167555277828602,-0.2781195203156326,-0.20886058486935147,-0.3099120511046011,-0.3053302371891435,0.16412219534523634,-0.056795227520373234,-2.1885558998286188,0.07857566441124421
,-0.47922613313323065,-14.851609290125037,-0.202650605257983,-0.44003261070454647,-0.7134058492342917,-0.16840005420568577,-0.015289133936902758,0.004318329979005034,-0.16188429202304747,-0.7913723400709454,0.1655179427389489,0.12185283473985017,2.7503869468577595,-0.1313161443500592
,-0.3662222388256606,-5.284314133363977,-0.15824870216623638,-0.3467810392791383,-0.13685160482506645,-0.41683082858923914,1.0905516448480752,0.8246594824590494,0.23956625733424722,-0.7154965836778435,-0.3905998464464096,-0.0938184933758257,8.939103104311682,-0.25536084596538355
,-0.5116312349838305,-19.90691495025413,-0.06689433149868235,-0.5384186118862981,0.5185815327783739,-0.2154474396060143,0.7388853046603316,0.781026582684884,0.17779536671920831,-0.03997696211329547,0.004016186795775365,-0.07673005439705889,5.857171154989742,-0.11682057623984451
,-0.47260871927630654,-21.326193821956473,-0.2345442431520489,-0.37749178968654323,0.1023682130963765,0.3099594335740915,0.22465598890564378,0.19093727293926988,-0.03043176399368735,-0.05454358110528173,0.12413085759066393,-0.10794418842172576,1.3076641512478884,-0.42761980193076427
,-0.4209046035092369,-10.709104349416938,0.027566592098921504,-0.11002185878376383,0.12038790870224038,0.35360004388218363,0.35605175227320046,-0.1352470364923383,-0.2708146147309294,0.24579849051087554,0.42156955303364724,-0.25317083244718824,-0.8875981876892473,-0.550059402974419
,-0.21822637289062288,-10.05321728640863,-0.13137305809317645,-0.13859267905192363,-0.04069843584234678,0.13127290603424588,0.9277489067419109,-0.10961863601096623,-0.392512990848721,-0.24230228784918928,0.3595034972530332,0.07900948073272537,7.101963839777357,-0.4593324029162225
,-0.127222550913064,-2.548376644212056,-0.23601241057820674,-0.1493370151574532,-0.2656561072374608,-0.07739003892558655,0.5099233165126825,-0.00873328734076459,-0.13016124236267138,-0.46961247631324987,0.32796102044833186,0.13331282951176346,8.134145353284753,0.1614426655945031
,-0.33358261428520913,-6.850000498442804,-0.1411135305233399,-0.7159722577184178,0.2546050170891723,-0.07312939456886901,0.03555931841812131,-0.10526345170698344,-0.23446373180185173,-0.35703227269022675,0.1531716243363304,0.08024753234953338,8.352979910348767,0.6079639045492189
,-0.05992955053713494,-11.261537641545557,-0.10882949517993913,-0.34832576295089224,-0.1699657180877069,-0.0183051706070288,-0.023168800316957953,0.07876575135937045,-0.17747253483569903,-0.3534627210530518,-0.437849343054085,0.10066031757785608,1.8976646041479328,0.44044169862877214
,0.29948545122714326,-22.570643065386093,-0.2818984493486978,0.0017000829287819586,-0.1318851193094716,0.31979527711706945,0.15543610229021346,0.09252987143575751,0.1937662979694226,0.06751131741489283,0.23495896647633793,0.04468274387639118,-2.8735432071900924,0.26471947910449234
,-0.03600943424849946,-16.51346703212525,-0.2984685531385924,-0.12195166655973741,-0.12706064001310874,-0.09681259972786106,0.8397789695023299,-0.2637100659506042,0.12675744678242656,-0.032207068179415065,1.3811276284404004,-0.15208071505712126,-0.09199727716526544,-0.07794430156041687
,0.1874453263442141,-2.4653761025505014,-0.25135282928543373,0.16498920911689513,0.017310976693151507,-0.3218150907708206,0.6029153404517713,0.10899879045244494,0.19749081552816175,0.3011618833644764,0.6660952176712852,-0.33241257599804036,-1.1117169167778345,-0.139404675572125
,0.2625557048340478,-8.448672017978282,-0.2415425227305902,-0.09725478288058273,-0.44592577559880187,-0.5271370066843923,0.2828965365645654,0.6108960574516239,0.2298955319907385,0.206146046970311,-0.20515892044329026,-0.3397146710637348,-0.14226144317268044,-0.25171377482951035
,0.5044850099872514,-12.349315742077138,-0.2868989013974427,-0.4034333202270593,-0.9205998601786961,-0.7787348031216875,0.28569910579570806,-0.1511881234451486,-0.15082677852980395,0.17134942064189884,-0.9885510273261302,-0.447277039634192,5.649437612779754,-0.36204352768357845
,-0.15138338250323632,-9.613199938183675,-0.2836413728169033,0.1651647314471316,-0.4451844810765325,-0.5836910147662794,-0.030437151989959624,-0.5378375149154595,-0.06614952979933064,-0.033542726274651456,-0.35782273106909424,-0.12472708683867763,4.100476408536153,-0.2028342140550487
,-0.4177076541451517,-9.272359411118764,-0.03407991190727452,0.021842234787477655,-0.05391562344995199,-0.12561349553923742,-0.1280887554057864,-0.4896954974642422,0.32129720323594135,0.28961944047239807,1.339575130532263,-0.10442821759685184,2.0792819530195596,-0.2673071388457872
,-0.6122427281774607,-23.835924170112033,0.26392761281189125,-0.7218970594080281,-0.5038240217538276,-0.5452398254542631,0.014442573415351344,-0.16534753106132738,0.6570028660016233,0.050297505040413096,0.7876735111656402,-0.02588316501797063,4.386737751784891,-0.43174298523941446
,-0.6701392542627697,-13.285854183725188,0.0019535488755274104,-0.6868467737960842,-0.5145454712562637,-0.27814474236516995,0.11399480876409931,0.06404894349980285,0.39681518751180106,0.15626683740835992,0.22161472896987122,-0.1295267883524956,1.7275991980175973,-0.26291644751482013
,-0.6257692276319972,0.3473081763252495,-0.2071000702289004,-0.49037658345155893,0.3058275728327205,0.07303803269634973,-0.14331077723890548,0.20922052864308938,0.20319778160633314,0.4678646710175757,1.1051199039051853,-0.0031699948124301654,1.2905157482690577,-0.014432283438718631
,-0.41843488985876587,0.9886788848846265,-0.23952805049377432,-0.46911578975875345,0.010084392401527344,0.39969422594066395,-0.4809483578244922,0.11659453964715287,0.10093407750337612,0.6665132080274221,1.2657975608193597,-0.16483942297871768,2.94940535204603,-0.18122884498270084
,-0.12958597503633748,-7.692303874427235,-0.21221658280894992,-0.2443907580612607,0.6974050373938959,-0.055865892202723755,-0.421459592215442,0.1512205977256335,-0.16148226702336693,0.6666600032219541,0.7652890302581795,-0.20876314651507297,3.597401335010378,-0.473162148006398
,0.09292481499632971,-0.36627736162288604,-0.17470427371695957,0.13662413058920903,-0.08630060778040581,-0.3075680675534147,-0.01467778290622597,-0.1483364155395174,0.2017356606866275,0.4924543902867953,0.9470666721131596,-0.23221906713375265,1.5373214842960856,-0.23050080929003092
,0.16375945630644537,2.2846333282224567,-0.03731524647783951,0.12528816396323242,-0.205819586240096,0.013059722267559483,-0.476270936947237,0.05167995030504333,0.19475542466605805,0.4492614756642104,0.6201033106271759,-0.056529972629338614,3.141727572753928,0.01750354619257615
,-0.2493270884446862,-20.56271854081061,-0.3064961823692242,-0.4507915483641792,-0.7323606803360594,0.07253484828142702,-0.1835752630824498,0.39885588367318797,0.1881438646243558,-0.10916458382547951,-0.4792809703261304,0.18551806603471735,4.620423062578698,-0.0013270552637978212
,-0.4536744824339005,-15.116921557644782,-0.22839373463569915,-0.8229071920700826,-0.5381138356759494,-0.6867455703547829,0.39313063630411693,-0.0342098704447183,-0.06297955795382867,-0.40754066335874534,-0.6496428606178628,-0.11189026595175774,2.406702805287902,-0.2178910029408853
,-0.284806646644896,1.114409222801582,-0.329925125080204,-0.8455780626734439,-0.42099820254180054,-0.7559106140988908,0.11035880969005464,-0.2354867407547159,0.07058039277771869,0.20185501812359513,-0.395505117915219,-0.231089416078168,3.740176333373736,-0.345855667460691
,-0.20859298511117064,-13.225239717595736,-0.29689814444900775,-0.9590333421911705,-0.28515205549314354,-0.17259695981667733,0.22609505179285877,-0.5103749289251266,0.1522541376571354,0.19737285792777962,-0.10528086956676168,-0.2158348316734214,5.123089894556384,-0.5362718055918745
,0.14546589972321405,-16.423952397919063,-0.112223018760558,-0.39884990916581836,0.08536896121302563,0.08123876647456,-0.21208665087297573,-0.4495016411171714,0.40948334044878676,-0.051786190011190995,0.37382574699872256,0.017106303214650787,2.508871134153506,-0.47868203689095395
,0.46861271985628394,-1.579839465003454,-0.07407019814696875,-0.25289393364230894,-0.6168260456457536,-0.7711923581192767,-0.22404247657750445,-0.15451125859932752,0.043251162949009325,-0.0838678338074742,-0.09704213454652048,-0.15358073005409298,1.4511632592333548,-0.10626453041934307
,0.28454294409090225,2.886903549759839,-0.3350698523508612,-0.04583263437290644,-0.8713262600192152,-0.49545171494391615,0.19698190594625503,-0.04552367049940424,-0.01215792343814323,-0.6510616600883307,-0.6671910946426884,0.01290252623041045,-1.5560044285493424,0.26745792854587436
,0.3493019577807337,-5.002520475922595,-0.4046940617901132,-0.35668109273075566,-0.27820093649127214,0.21039674007954132,-0.33222733054114323,0.2711237207186874,-0.28690340807663384,-0.7541455850222223,-0.5448859998908121,-0.06278249940222543,-2.7836032527025454,0.39745127100639666
,-0.09594111168980533,1.8767632148344797,-0.048446762110009124,-0.2743188177018799,-0.10221516226642426,0.5649644081403435,0.0010639617872369414,0.2619506301245439,0.17337888155588574,0.3061843508472888,0.7666994765498705,0.014066655549760793,-1.3239472840289859,-0.009912110274240219
,0.001969923209813833,-2.185853154557762,0.11483375482776201,0.1748688023024654,-0.09802682238096852,0.19315778326288352,0.8062565773055648,-0.1357389785072103,-0.20016608366884778,0.20445948233969935,1.017389040625038,0.02285930110120765,1.8713703414182297,-0.028052939493542456
,0.1881137765085104,-7.523777179273115,-0.16224491691178466,-0.5851880912550559,-0.5327586330648556,-0.2083091990534123,0.515234732796279,-0.1257221076041526,0.03480050083901767,0.05648522216643033,0.9426438617749803,-0.012838807103384234,-1.8528891346664336,0.026357091836880158
,0.012502871361743865,-7.720974265989767,-0.3681875119050285,-0.47287176786235635,-0.2700493632183592,-0.4072450290999352,0.1126705101350955,0.06486545442669571,-0.15906172133060434,-0.1138592398133645,0.8973726032513099,-0.14764872515297622,-6.871118434457283,-0.09730210542363155
,0.14459382669792178,-17.779639863146198,-0.40211546958028416,-0.7085880241160073,-0.38590257388028054,-0.7501720549490902,-0.004648154058442499,-0.31928532825761413,-0.3433926031624292,0.1787241724656178,0.838100902019826,-0.19880597645143627,4.886956696985511,0.11016065319784998
,0.44230317920953205,-12.167695648910417,-0.24323938523047403,-0.8464846050354714,-0.34121217073427235,-0.7458940998589796,0.15754405815245048,-0.4002232109386654,-0.4414393032072102,0.14870234886444506,1.1891557438783538,-0.15636408815843045,10.145518498008528,0.08004518219192039
,-0.09815360187082844,-8.566119206489759,0.021389644656315834,-0.06697636305306681,-0.06879373927725507,-0.12484336953793812,-0.0870720061453264,-0.08141124189684705,0.10537692007651163,0.6749731655943156,1.290750158573929,-0.10977592422089759,0.6521618510621943,-0.07857304484206773
,-0.1085579052628144,-0.2389764571293624,-0.1258281355961209,0.1362392756244572,0.2366400198178077,0.17723060163704335,0.16580717399846126,-0.07946885950894989,0.3219020877918774,0.7759452418469133,0.8940583799368028,-0.13385009894110703,5.526236836810836,0.03390534487152876
,0.11706492636021827,4.931372769090819,-0.19798279383028342,-0.3455361408251884,-0.3643446538975706,-0.004636175252873583,0.9088524873510517,0.21189095419598908,0.5889251187987967,0.2431834923706738,0.23494863530293877,-0.45241793759253535,7.222049654063275,-0.13563506053928442
,-0.4165311814538148,5.236971704293308,-0.2157964139645406,-0.4026076310066226,-0.3464369720158897,0.2623994123230999,0.5200973507898785,0.08314002882008964,0.6124805272283544,-0.08262696202672767,1.0486905464121465,-0.43138656856574453,2.7699246474570525,-0.5008084110573431
,-0.5301717633941139,-7.366430264278523,-0.3191069040101751,-0.11147725809414995,0.3671829294293063,0.38954927179806087,-0.2594784772104146,-0.13537558256100213,-0.3218820778804434,-0.458661252657052,0.6627859795487847,0.20457875165275505,3.1077686885238562,-0.7491917535735426
,-0.265840993107538,-13.519658271875672,-0.5342576297640208,0.0956612953948596,0.6898523672155399,0.22245459774415346,-0.3735666847467975,-0.2581107950486608,-0.2624724871416999,-0.4259128457708691,0.6608122206512494,0.1382644935211436,0.7881267321194586,-0.8120648793689567
,0.05445150223850755,-6.692367756700016,-0.3397379072866476,-0.012178334871896108,0.0807859667150799,-0.2234711979006899,-0.2636032637124799,-0.1454766093017056,0.12402746914183281,0.3047573654479683,0.5585629514523252,-0.13220488893174245,-0.03041253999641316,-0.631227579899432
,0.2058183394736491,1.5536641330597865,-0.3078125706323995,-0.22411023168285338,-0.16512410857275214,-0.12599823215342149,0.2439520015872754,0.19018172752358858,0.2400197217608474,0.36215622545343507,-0.12821060943388432,-0.06856160039799859,1.4766441627470976,-0.5487539863386615
,-0.00717233443274218,-0.6169815595501961,-0.20347670529648318,0.35852689066049026,0.2076634147797358,0.09943560072048047,-0.07081612326287795,-0.24880302312882352,0.05757454744373891,0.048940407213960736,0.550859552255869,0.4153073505857499,0.4732343792957308,-0.5711891738389684
,-0.06460148374523005,-9.013643391292522,-0.03470699228718573,0.5245542659260363,-0.07610993319341719,-0.0080798195985766,0.10669211864730731,-0.24925394491098646,0.07348697650616406,0.07003475927263976,0.6262619738051576,0.3600719871005049,2.521734604594914,-0.4909829171247345
,-0.1443257304919435,-11.271358556907467,-0.015513031675117575,-0.3677331500878062,0.18602756814222204,-0.0905508102914081,-0.08717451502660453,-0.4186019123716019,0.3707515625288602,0.03907240692906925,-0.1502755595156722,0.40267696415856674,5.961456555693223,-0.11133764478247349
,0.30770098622175573,-6.84318866979018,-0.2185957197869178,-0.29550365192371575,0.34990896933309223,-0.28517428602688577,0.2227909484510035,-0.2943275738374518,0.18630754298745714,0.14643742155308914,0.37578273362097164,0.24104246346248048,4.8279803300353645,-0.173255965914446
,0.25807320442978626,9.268541939884447,-0.19500427162316863,0.03881693016362611,0.29309128542059304,0.009612126741916164,0.07461723097403677,-0.24336098228700415,-0.1437697229258753,0.3848926313798932,0.8487635101824601,0.3341991941885289,1.289279535229197,0.12266254626687183
,0.30331306184696605,17.16769502039794,0.018504913937778446,-0.128483662848376,0.3635471531535052,0.06275428397519262,-0.05100643245577629,-0.26105413161845387,-0.39732038432910927,-0.13354006531281223,0.719819238798614,0.23240593944311214,0.8213685585686159,0.1544555818504072
,-0.1945843783675275,14.158590985536758,0.09758595209363476,-0.17482760623778593,0.46659779838905063,-0.14413204857095777,-0.294177191394938,-0.1644238861737932,0.03186204640339696,0.12560847958135163,0.33478649798186644,0.16827783659472653,2.77459336710379,-0.07815922704807128
,-0.33713290307993504,-3.3224267105110883,-0.028010382401619127,0.025704611243269247,0.5057902839612021,-0.1562572759621012,-0.14924172339442426,0.008917840096393253,0.1735093863016825,-0.038974247567728944,0.5305273409932009,-0.007851475570507391,3.8243994502170273,0.08788721041905223
,-0.472726221687701,-0.6318446601719941,-0.306189462577753,0.28517146822682166,0.5759844653926363,0.3081324170651474,0.1735351301712051,-0.33556681143488876,-0.020720155624653062,0.04591671920888949,-0.025643489007591027,0.21882052115295259,2.361008996045653,0.20709123479065097
,-0.22041219821258537,1.3850213023469227,-0.022057787049800964,0.14488010068089222,-0.2771071451034335,0.296571184204626,-0.5077865269991222,-0.22744458436951123,-0.07629521974422225,0.34207028269141937,0.1720967299070962,0.09829661650706115,0.46730831039495807,0.13851513334690105
,0.36001767174071586,7.90992644196479,0.021088829983163533,0.42349808465365474,-0.03918405410970409,0.07283401803693246,-0.6631244655682522,-0.08915064270027483,0.23553398926311947,0.36320431213836923,0.39834383720834826,0.12152722807494037,0.8690727523527864,0.055225349911378126
,0.317795484838308,1.401531856690667,-0.3628800361382578,-0.22784714381408386,0.5447535117974471,-0.17145967160145117,0.04340496895371678,-0.0572277813879284,-0.23085235696980655,-0.11230288545198007,1.5418601249019763,0.01805957459369999,7.895416216210654,0.20661060759557773
,-0.12724804024160088,-6.149253753269081,-0.3860687754056005,-0.5536465782829535,0.3959493871724769,-0.3755571282320842,0.11222940809359523,0.18714393541225816,-0.21247228048298164,-0.23000477641668648,1.3227411604125454,0.038122184688690934,8.642044532370624,0.11934157977608462
,0.13881697512185223,-1.8625167835019867,-0.09654125402065489,-0.4401183961187412,0.23061991876428148,0.14376054013105607,0.14212028906462962,0.1432702661842004,-0.03380125572646516,0.1143539300539154,1.1918981683572205,0.0033932195997110363,2.6965034950436015,-0.049725708154522735
,0.4519782380780564,8.586383514918401,-0.1455110966923325,-0.08489700385204726,0.603117371863814,-0.07717749667228617,-0.12157119691527316,-0.05734218455960436,-0.11832583285104029,-0.4761242334500284,0.9550829168261191,0.2131119350929921,2.4603852127543826,0.060251686104521134
,0.2878568535709549,12.726485815699737,-0.5591377551869274,0.36623677797276394,0.5738286908006142,0.19287327232737028,-0.024725257821392812,0.050211105444861605,0.2533586083773078,0.15526213522968035,0.10900434492329593,0.03013300958444553,0.18225445996575967,-0.051390207031157036
,-0.07869231508892599,18.77778772963652,-0.4701384718023626,0.17391836727460921,0.5076786163802998,-0.0028644853212538885,-0.16207802245558414,-0.08877726803316954,0.1893169287737297,0.3155475954805882,0.8019951586587944,-0.05031949552595708,1.331891386507356,-0.21058857156644395
,-0.27316278696085117,15.910761453778887,-0.30113348713318416,0.34966972630544796,0.10130052202806776,0.1051932208217557,-0.261341257411772,-0.15261341973803572,-0.03376491300260641,0.024864212572188193,1.0892893962664858,0.008501507524909357,6.537515297066139,-0.5149685874097509
,-0.38916727332709034,3.7912951169504976,-0.4795820768997195,0.891740140900419,0.3807221465945605,-0.18876112880018195,0.15972724504284533,-0.2546243576989571,0.07833473191046472,0.46356217453421494,0.14765246173394522,0.26293882978732513,6.621208928062575,-0.40355280939024235
,-0.09586780941951178,8.458135744738858,-0.21921394486418566,0.4189028069140221,0.31916363132647985,-0.10938308937995513,0.29074540149907474,0.023437757340438896,0.281685377813075,0.716060149895658,0.7779380230947348,0.3551067574024684,1.234411295531306,0.04195700579739413
,0.6251445708258075,-0.015441546669379698,-0.07173057621755403,0.10411855239721467,0.22098929258898226,-0.17468652324772216,0.20035209018156278,0.06037796067532379,0.23941431233328853,0.66046846501455,0.36301073465217937,0.011782630852227693,-0.415477542854552,0.1875104649551212
,0.10248284954187709,-3.0347409671819983,-0.14166499419792566,0.13085400640841985,0.4485539699654736,-0.04530465756557555,0.22856684045874737,0.19522573149171935,-0.1699180305864805,-0.08980542022106924,0.3329554170444988,-0.17400896301335625,1.867512616771441,-0.21587499810885646
,-0.0896523336487766,7.3089289211705335,-0.17314782734524806,0.27412341674511853,0.3937732502820329,0.006569694963348534,-0.4130945287725412,-0.2420510172218632,0.05528276584614632,-0.10382459739730321,0.5121360872497926,-0.30848735378143943,-4.574013507146402,-0.3474300703893978
,0.4119566350252286,13.825314661696057,-0.01782513681130834,0.259083838782275,0.3940333850229885,0.09732351876629207,0.004954470661781455,0.12210972301551304,-0.0400691739045269,0.514685477086894,0.5820036025987307,-0.04590885970058476,-5.0473889696038094,-0.17122029585046467
,0.24484528534946204,3.4920830080769405,-0.04452058803250553,0.02124244025320177,0.5845041743660081,0.38432871927111356,0.09547454574053914,0.16146427090585858,0.10012029216808353,0.07592110798097479,0.7188287908907918,0.2691104360512836,-2.1521001792710823,-0.0952011719084423
,0.43010576352329016,-13.50972988637126,-0.24156431527750863,-0.14936190597980645,0.9687740378826037,0.47391241714251453,-0.2531078626711833,0.03429746596808964,0.15069345988632354,-0.35720139929528255,0.309650323549691,0.2833611362173532,2.490880435746962,-0.018770162373857
,0.31889510478252076,-4.158223834780999,-0.09679647643064247,0.30597571604594376,0.6445137969743544,-0.06552053299280636,0.3364909285611452,0.2798119624750286,0.2640038699610381,0.10504619133673505,-0.0522169545228748,0.11063510154992418,3.68611190623533,-0.22845401189043646
,0.5527433613673135,2.077184348742258,0.12467650253614798,0.5753715126117489,0.2580460145705518,-0.469765827518203,0.41617724622479163,0.13137052600248084,0.375577878499256,0.6162352226654427,-1.351878545634391,0.13978808231898943,3.5096718938416647,-0.24603965610429174
,0.5600247102946311,0.20214032846667446,0.15597902360199484,-0.09907220286735201,-0.3713041614476625,-0.4888699752897944,0.460990880122854,0.26228928787767175,-0.002432598411790257,0.7703774642080706,-1.018592824319819,-0.09189747940624399,-1.2080920885761388,-0.07314923071982775
,0.45421742506788304,0.46644551294757414,0.1896913108086282,0.08681713942518887,-0.5218517910364894,-0.047180701621760315,1.2060837083607823,0.4090494247165486,-0.11138843357742945,0.35775673239392847,0.4110222285474276,0.019069997210304487,0.7972768005280144,-0.026701823651226385
,0.0647682811736899,-7.6410310850932275,-0.11476274852261631,0.2767704595810574,-0.37533912958641225,-0.366617405007584,0.87939864402836,0.3487852715133406,-0.3312323988416465,0.000770808321704599,0.4608708693401188,0.1361730107963606,2.861457921579031,0.30022262963779633
,-0.4627037873236672,-12.06269357201078,-0.15113011653989292,0.07639749383503451,-0.1199624452010124,-0.32083755481163395,0.5463766741099633,0.3495508697720441,-0.3791573441846533,0.1861610390029548,1.2405310726566503,0.19163231029232936,2.051509949539443,0.2467404760613372
,-0.22906047791962064,-4.537596242395546,0.036959408050518845,-0.1286090744928686,0.46886289557383787,0.3794501346032481,0.39753682338321206,0.3429340647258274,-0.06922645831303166,-0.2653812738297112,0.3742611658290134,0.18405751689289232,2.859504978062707,0.4108725241343313
,0.583190870651415,-2.130616322831601,0.16469883193846147,0.31641050763277495,-0.1745984102301411,0.2475153680795815,0.06665339421326369,-0.026284144234082624,0.4711848419780037,-0.4220244423277135,0.39401638196457267,0.13653909247284518,0.6768073790093773,0.47829352127316604
,0.15275635279287456,5.3660858036811465,-0.14974095064061196,0.17783065169034348,0.014376924581057297,-0.5476366499966799,-0.006772507658478132,-0.13058131004959506,0.6176854025942013,0.40870523145687554,0.9354529793717848,-0.12913098991253633,1.9124095466424955,0.08643012629092639
,-1.084528308468273,19.21389906453571,-0.3189556687065081,0.4443574986427947,0.23197297738322564,-0.17912855127230698,0.1991311436292867,-0.28706132505226667,0.08967075636517666,0.647786998956,0.8554431253907131,-0.20480960470025947,5.159602551078461,-0.5507889917908269
,-1.6896580122828315,-4.300656789158617,-0.43932022085817246,-0.09655324761765009,-0.42942199370322004,-0.010309810255446887,-0.20994073913714917,-0.4138304538402042,-0.47024990217251234,0.4021380203444542,0.9511613580469418,-0.046359565473044095,7.90325243098635,-1.054175799442726
E2,-1.3370861949420225,-7.757127913059035,-0.27122155019291244,0.00737624102539105,-0.10567209735983471,0.3585827304725206,-0.01376538928348083,-0.3335582218002857,-0.1959354574820086,0.22297260796277169,-0.25984984639998165,-0.3077094526035382,6.481970744470456,-0.8426327771580131
,-0.8426775237440417,-15.000281742328623,-0.26703961240370894,-0.05868047875550416,0.055322115652137356,-0.5500191099279661,-0.2638298926130885,-0.38116973091434303,-0.10857403844664179,-0.06957578526922917,-0.3714263949489396,-0.275298694334197,5.357625988637386,-0.7141792512846096
,-0.26388537843356813,-19.02015893096371,-0.2880756987835085,-0.4751629967792135,0.17577449655783084,-0.7148354425123596,-0.10170646920143406,-0.24777323812532803,0.14364696430350518,0.24464685135444894,-0.4693884651683379,0.1651319853822898,6.448995434186889,0.03211281572007138
,-0.032091354517131035,-18.718820146435544,-0.26438445045811093,-0.4357656858992949,0.14459349303698976,-0.04810645029592434,0.01666235819445978,-0.012615084374619384,0.5932725457220778,0.28140655373151074,-0.28034716895218326,0.10248730326188547,-0.27029881013296436,-0.3699339862690954
,-0.3446049083648155,-8.337783730406743,-0.10127713852573209,-0.6166246349610349,0.3230845253928084,0.17641953220483256,0.3481014685325248,-0.010207658830550241,0.5120740150254858,-0.09628081173834366,0.2779028171597882,0.17423021112560294,4.812287079655686,-0.1849676656361493
,0.21961457450951474,-2.736039776233163,0.0727615696502811,-0.8039854626079772,0.5822588121339379,0.11715547778648927,0.24465025786141337,0.08074466196495733,0.21020549515068473,0.29573875541933137,0.3891506921301847,-0.0010528927414250892,8.90545448189406,0.10667269908534953
,0.08569827470819887,-7.1187085695364205,-0.07210361334320743,-0.404085242801856,0.22109837200365873,-0.2820144098687523,0.32350430314302087,0.5965506470783395,0.1425597798736156,0.781815862119726,0.08106874324638538,-0.14170412936458712,5.449780011808504,0.6839758052892058
,-0.4679287770866737,1.5179864994187902,-0.42478564290408977,-0.24574779378321632,-0.19496034567931023,-0.7681001321607989,-0.16368849450840187,0.08653922340847553,0.3386718171400207,0.6463440792449477,0.15560896406292835,-0.2475207198262616,3.336947700226359,0.08250153713855846
,-0.20946050333682134,-12.078867740542231,-0.5064930867123055,-0.39843207632707833,-0.49963652180233714,-0.2905537730015083,-0.08025171910585271,-0.22258843328459788,0.403359690667769,0.8391473864496655,0.42490581635583635,0.16072744613333503,4.010633850201675,-0.37063921654680504
,-0.05667674486966814,-24.11947161044341,-0.28119385840469013,-0.40969590047813426,-0.3465259700467211,-0.46494730134279816,0.022390325432153288,-0.3844219504524899,0.28615710239266334,0.7956575408449312,0.4946655522477255,0.16017904660906138,4.124156751725242,-0.31147641759067535
,0.36956590564462405,-17.34653681729173,-0.07239541457467677,-0.3152177166092273,-0.2871261334474355,-1.0419977943776133,-0.2477273673587846,-0.1982490054301555,0.38090914097392387,0.10391764652220746,-0.6920825339485547,-0.41023178698716084,6.601257468815646,-0.35451246193181535
,0.053521406390149,3.4854166856592323,-0.11413731415281733,-0.5439218618414157,-0.4190733183015147,-0.8644054595471287,-0.33879600624151873,0.029361395775367338,0.2833978511393689,0.05806299356438096,-0.6209502900318588,-0.41884301906140553,4.652477351836451,-0.43295430302885196
,-0.1249630965462402,-9.893662946322502,-0.1302943408433635,-0.5435872309824362,-0.05340684427028879,-0.5266662732315179,-0.3552390463308033,0.4581319117674432,-0.072605550659024,0.6632907930536042,0.9036796810329666,0.18688221328862362,3.706729781524865,-0.26484554534993604
,0.07100852498241349,-29.184028296738497,-0.292226219396633,-1.1111169724356755,-0.11501962584058417,-0.2990250461903236,0.3713113254570152,0.36808149718634503,-0.3189582518942608,0.33794415069862965,-0.3545845425152285,-0.005328564954153576,7.9029629050418135,0.152634892049343
,0.25279179280921815,-30.333703698699743,-0.23289030513788134,-0.9462487306319312,-0.07391801007559477,0.259417071176016,0.44196077664725314,-0.011144594103296735,-0.3765760529230409,0.3647908850585341,-0.23046130827122507,-0.21142410017053329,3.982650308147351,0.2106575647872652
,0.8451527284896887,-26.121384492485166,-0.1881061737670855,-0.4469430804426359,0.21582080013963734,0.16158601477301143,0.09836809121066238,-0.02516194879957124,-0.05974894977464508,0.4192861935288205,0.3823525027679157,-0.17339523066791093,3.463998959533348,0.08430208344808382
,1.1976738612237376,-8.044120169368366,-0.3471432554695815,-0.2782020642371088,0.39770517151687834,-0.32761488363643226,-0.40087467136128474,0.09437777511490586,0.11122252867417246,0.42078090624345904,-0.56037251593194,-0.21889098846701227,-5.3525196893560985,-0.26656003141167134
,1.1017902267703363,11.05119302765536,-0.27786099893389987,0.09898799026727523,-0.08159952451130885,-0.009601953806966703,-0.3197551505163442,0.1234079119318408,0.3745874115588888,0.5548662202251601,-0.3409093031336998,-0.16315069883391684,-8.188480407597108,-0.39058120899535315
,0.5405293749741266,14.58940128568584,-0.39645580708166767,0.0037787964295862933,0.2015337305669379,-0.15059668800661724,-0.04639877160383119,-0.2774402289017509,0.2850310291876681,0.5038068628916605,1.0629249515426686,-0.139410161998601,-9.504350622128907,0.3794983500352789
,0.3127955012301799,-19.106735495148854,-0.45963158357946843,-0.3971385276461135,-0.670552374065539,-0.5242871859460142,-0.001524607852610901,-0.5418656933432086,0.196181531259361,0.43610137257515624,0.8231419296256008,-0.35696469238168616,4.226353417074703,0.5129076977124105
,-0.036592765641525915,-31.43774666990668,-0.39859665347755957,-0.17385119662975088,-0.6907421506006838,-0.8247531813316726,-0.11495630063968938,0.023229910929043245,0.001859507346923845,0.550668451279781,0.6317828312929714,-0.11456133959184418,4.889306557811272,-0.3891237389744049
,-0.08308425359239523,-25.244395999678666,-0.24118882981594136,-0.9769839773931583,-0.3932774922491713,-0.7820824374769533,-0.06378627913365519,-0.4964207576914249,-0.46780055860266917,0.5247193967411744,0.13033181391090778,0.12923330592868204,6.857371530469336,-0.6363961145462049
,0.14128215534055105,-24.772067338790766,-0.1120368859528778,-0.9596002457068672,-0.6929655501647667,-0.16127583077542562,0.102495658531992,-0.5472423926992664,-0.540097476045894,0.3454372546518244,0.14968098633810084,-0.2852585614090347,5.916143948515642,-0.393945332736361
,0.8694921648952539,-6.979449086135071,-0.15455432820225504,-0.5361023735172811,-0.037958089780299326,0.07811686608817159,0.2785617909113996,-0.24872086521757394,-0.25085103200399056,-0.0685211966588446,1.1806687445094195,-0.3537490284617879,0.4794736005996884,0.1645030752646075
,-0.10040644364938354,-13.16530917261544,-0.14150802891364664,-0.7179863965504228,0.40932363298841634,0.24111412176480967,0.5375566653490207,0.060052936707911224,-0.1819359584508561,-0.05634604964217449,0.17571108671880523,-0.2732967488425955,5.639813092437643,0.12747246833177356
,-0.14168135588819253,-18.477680758221222,-0.1829599396008433,-0.5659427682122903,0.6186020345659012,0.19235804480309865,0.32437569187053056,0.2531701134693569,-0.3658248722627872,0.5855008187116265,0.0007336578201567812,-0.19277130141773757,7.764081832812002,-0.09081584485443991
,0.12079172435293081,-14.480653679709249,-0.07530264282219212,-0.3055205304417563,1.1429730224585923,0.4847338253210092,0.6444046797149201,0.1898136599238349,-0.14826591771704875,1.2460426599465695,1.44582927931874,0.11549676624543181,1.6793705185658596,-0.3290733700713458
,0.17764476914696425,-3.58434454081813,-0.1665913637417498,-0.17699365862455996,1.2625480333568864,-0.049270389019646955,1.0474607132645326,-0.08014045083485828,-0.053051016483603004,1.1659265743820892,1.7734888312770758,-0.046473445947584104,2.4795703531052498,0.13649997130727448
,-0.2717926347816086,-0.6037375182852185,-0.0837113992520021,0.31119790930571567,1.0156451352471343,-0.5634569720175663,0.8035484109839848,-0.6059100900887644,-0.03387727325177413,0.6625884815690941,1.3204871836982652,-0.07264700429985478,-0.7030098395726103,0.02108003553100628
,-0.023196495992562752,-9.254992439596062,-0.3382242326168721,0.03194856093178448,0.8008077545898798,-0.23295496378251376,0.696894156466704,-0.5819397961654708,0.028318734588721493,0.24137121923194887,1.4408629084874813,0.2804034293753363,-1.6340986682139764,-0.13216727560488126
,-0.18283215142672107,-6.768566590533797,-0.2622589369202632,-0.12375308385537126,0.3997236287194237,0.5743948832972924,-0.043258443720919144,-0.35967388266479233,-0.3366966105785283,0.2535624484601082,1.7485556484582963,0.2237897338133059,2.2963889706837057,-0.0845643314395356
,-0.15747129664737078,-5.530614054292104,-0.13353226731876536,-0.20810799281898706,0.052361391986114225,0.9237354909152893,0.24335619404538328,-0.29230799670786894,-0.29741961630863406,0.6428120947123619,0.3711443270753906,0.2606681401802694,5.111162111201681,-0.1636996869124943
,0.012065087248446108,-10.57335766388903,-0.137765404948825,-0.16851778661595126,0.2171504038156999,0.690694342245903,-0.024952896446388012,-0.29949461328203425,0.13077745365793417,0.07763775828524427,-0.3564575044202511,0.0181509079474178,-2.354184364465011,-0.33587411003522405
,0.17515792730084448,-12.397145916130999,-0.1912719431130108,-0.6083620716276014,-0.5874935854392079,-0.8846734807138478,-0.41375571404442596,-0.6411859886649115,-0.5602461982813468,-0.5097511143259655,0.08398257048133063,-0.5264163503945366,-6.817451297784719,-0.09025066656598159
,-0.421306275284649,-13.306821639513187,-0.2143716011700208,-0.7207728965995642,-1.0999550861003327,-1.3799523473489512,-0.33247214804901154,-0.8624488051227973,-0.9394963175365474,-0.27502394048543616,-0.14111507939190496,-0.5482260163641431,0.8198385505974078,-0.295071539780382
,-0.15222389518013624,-18.78712118184394,-0.123178508917023,-0.3092213539611023,-1.2546826277715928,-1.1069216027982156,0.2409907121332265,-0.004485847429321556,-0.7519354799170704,-0.07322595517981251,-0.10747093941616986,-0.19664007924044544,3.098031159760154,-0.17677758141003647
,-0.0026292381743794222,-30.19338792911532,-0.048424162723391104,-0.7460147913125795,-0.5083536387017124,-0.22828114418771756,0.18386881510246628,0.32601900692679636,-0.47960743096927994,-0.02999181670593028,-0.5256747119435372,-0.19764162494046242,-0.03775283821838138,-0.5184780025856125
,-0.033992969161372524,-16.01193464868724,-0.25803075430059863,-1.237589964272477,-0.6017022499584166,0.05253728408642174,0.23859331855323754,0.21038396728152117,-0.0641749353964559,0.65334872145028,-0.1488097006193113,-0.0010671316797786904,1.963221683722395,-0.46944880398857536
,0.2596095116242157,-10.136485730446447,-0.24807665532150613,-0.9984550417036937,-0.7414682070474834,-0.16469963363450912,-0.43686627234587405,-0.11499667594784081,-0.1225371304793457,0.8639647876979625,0.3335059980912049,-0.009697504620244731,2.974523772303652,-0.18520215353425018
,-0.9581237049650044,-36.35877004880223,-0.4052053130735598,-1.5503906794537914,-0.6006683680024293,-0.21901920470687522,-0.3341041151093896,-0.44809182235785333,-0.1747948809138455,0.13174113500889087,-1.8672499724137224,-0.46292683594515777,15.43857591739368,-0.8204571229866539
,-1.9549986722966117,-45.98695254945987,-0.40493502026902617,-1.6108521971564096,-0.6667050758995304,-0.45089757859673496,-0.44091182392000117,-0.6743012368182849,-0.042176924744954464,-0.43222127695251894,-2.0039894375538765,-0.582536581133284,17.813627928671128,-1.2743212215185176
,-1.8050815654377659,-43.57116830023422,-0.7334049341275856,-2.1267744633422754,-0.48742614242661525,-0.6488139428550377,-0.7432293693247206,-0.7326081474679524,-0.33864920020910416,-0.4655290705872526,-1.0301061073037907,-0.7567633627169614,15.930118340304269,-1.3069794614306338
,-1.8406461309444615,-30.787440453525537,-0.8231851015889976,-2.051782698281397,-0.15572960451995535,-0.16971492437405297,-0.28127639987880715,0.04630819152817564,-0.20387356219989386,0.03455019996695054,-0.36814171276562635,-0.7314440964618473,10.938630173831843,-1.17793908604808
,-1.3252741829394743,-26.869068881148475,-0.46298762013703004,-0.925427138366316,-0.2008130138540471,-0.08545606920795046,-0.45937295981857196,0.1755583463456289,0.11788910670053249,0.2591661657233722,-0.48147314374284045,-0.3949137316196834,8.547446399633657,-0.7176320458294048
,-0.9952513671026808,-17.612108329341368,-0.339708805863616,-0.6912310025882752,-0.5388249548848074,-0.036186361891484435,-0.2473444471728048,-0.4041915500069985,0.12383632268643188,-0.35848607895320955,0.3091316588242658,-0.41690697589720227,6.443274738112297,-0.6785165867499019
,-0.04292746093548688,-10.154966739153165,-0.24760744755168934,-0.5618037745373224,-0.1690959479744186,-0.3093929849040071,-0.07661895301915707,-0.313074565349388,0.23805739078361948,-0.34424490752816145,1.0989353839948968,-0.39566444743449086,5.422494598637148,-0.5389344187179996
,0.5480147339849171,-17.365460376108068,-0.3283916055721407,-0.7797098272474295,0.8220817689802553,0.2891961049053531,0.37861681904985595,-0.042347040906204475,0.2315283825968915,0.2974767268654249,0.7252984444862557,-0.19129363658536433,6.317536812269875,-0.6897242101024408
