event,eeg.af3,eeg.f7,eeg.f3,eeg.fc5,eeg.t7,eeg.p7,eeg.o1,eeg.o2,eeg.p8,eeg.t8,eeg.fc6,eeg.f4,eeg.f8,eeg.af4
,-0.03559241432159077,12.278931512466,-0.06691008266714706,-0.3412374328328792,0.3253462914130372,-0.19714644389440503,-0.4777627323018995,0.4316612911344894,-0.2783582727020647,0.24765284968911577,-0.6648611762587563,0.2895828925028869,0.1372282363738656,-0.2315485115704102
,0.4373026224933159,29.4400801644887,-0.27201096397893443,-0.3579435696149528,0.2564910807824003,-0.1990437608156111,-0.545710737047967,0.03934817931742455,-0.1714056448144434,0.24803281748711753,-0.35428688543330794,0.13673855407464114,1.3099775854282267,0.08648748017853365
,-0.7709135869359529,42.29822447082852,-0.3019397683106512,-0.45949891358259276,-0.3873460520352291,-0.2910388341811077,-0.3940749804194658,-0.5591357405001071,-0.3042610490253005,-0.08483238670150965,-0.7469396934009328,-0.14826924100818567,2.481442390158025,-0.6056619047667957
,-0.9725882905060544,63.539819707190574,-0.22442000038173876,-1.104286155380574,-0.6004572828442858,-0.44257972138561774,-0.23379402066273683,-0.6476437573582519,-0.382427350596499,-0.37191507760088527,-0.9039958167789955,-0.105544193154498,2.7077467457453563,-0.4364852670745182
,-0.48290008873403895,45.81249331706585,-0.02353500235292126,-0.7808616361104961,0.18921827631609006,-0.7336464796256968,0.09804031235916948,-0.4875055144153246,-0.5003614537486691,-0.30783627620161425,-0.229878020616691,-0.04308334350190354,2.2144673751747392,0.2505490327845319
,-0.5887693676822986,24.439975527181577,0.06789502154517801,-0.33490903964376717,0.4831883426654995,-0.4542267371226326,-0.4819263166654617,-0.04139828792095091,-0.22200649662843136,0.4980078109378402,0.23714076312168392,0.00842999243642882,2.6663563242272934,0.3568867130807142
,-0.5908572311572492,25.45245267491469,0.18300423933829457,-0.21567912658570831,0.4020771546416599,-0.45874671875937145,-0.4839818370804266,-0.10246985510178434,0.3298306355703226,0.40127242851094724,0.09851713213648067,-0.2000392763286856,2.321524812477489,0.08109048094652456
,-0.6667877093334601,20.153989343397996,0.38377067803844467,-0.289802816274588,0.43301884315567535,-0.6166014004472787,-0.10063555674719685,0.004554047344612482,0.38249750275399114,0.22514516599604126,-0.1302988988998704,-0.2443086902223097,0.06726727788583924,-0.2446591162043508
,0.19254501171371663,0.3759283131273851,-0.31803900424896947,-0.13133336014141783,0.30912742347987415,-0.42032896609657516,-0.09523654184581362,0.47361191086158744,0.18299354410221105,0.2953018090057524,0.19446924525921774,-0.010130330877976223,-0.24240852058146217,0.14345680288619575
,0.8188513184835707,-17.749424186329165,-0.3861278895474038,-0.4258058456567503,0.08491476725756772,0.537202835369903,0.453488456508964,0.2850390833376127,-0.13358262680334573,0.2597032308665725,-0.041450542923828416,-0.08736036089481584,-3.2292060223558843,0.20205574749203858
,-0.11548504109566159,-7.75039025676342,-0.051802547479945206,0.028899893725514297,0.49648822037681245,0.5826535513800093,-0.08747206837372884,-0.28356983317298884,-0.08596302576052572,-0.4300539032779092,-1.5153793362002963,-0.24290119248141415,-1.972795377812279,0.31946234034611976
,-0.46410177026551325,0.48057578709003174,-0.09658695593115245,0.03304428063365408,1.0264332653666732,0.14610799161647,-0.5947177292027055,0.11501902751392759,-0.09815710335804419,-0.5200808843637467,-1.0897441303715698,-0.27451028572635033,1.4031598210796068,-0.11690116249671686
,0.16297262433966836,12.91824909135524,0.05823910362870716,-0.34934461322382365,0.07594716071831921,0.5670771140911117,-0.05738354967529203,0.4096898097117029,0.22152745817691066,0.059463122128988785,-0.21507619226082417,-0.04156966356484835,1.1574481047990135,0.4620145831716003
,0.29076686503270827,19.90434883666747,0.2505670739984236,-0.564982258314231,0.3838499624356596,0.5657966567981604,-0.038421305122009024,-0.09454117314176434,0.020491965060885627,0.1268103467929655,-0.3647919142473964,0.04024058122763874,-0.2397914653375509,1.0803268002477469
,0.46996279138645675,8.808193948897461,0.09491939681737085,-0.2839876721880839,0.2140731922379821,0.8122427051650647,0.2060450925114299,-0.08574721227194193,0.09709098978908262,0.052941510045003866,-0.018315838313776964,0.0950406324039207,-0.6777816705426836,0.08713344847244787
,0.6537280123708201,6.027288169137776,-0.2382372760025783,-0.03480730568522259,0.0379792071169318,0.46870655709125675,0.0979553556001479,0.24929771011852325,0.45166263202044277,-0.050666728365510914,0.5769253251356914,0.13429117353099587,-1.897037872286081,0.06115922993404117
,0.6482187193919549,-17.45721058960722,-0.06518677412554072,0.00938053950724323,0.6987796380917618,0.08436228037882594,-0.23859028244319017,0.1242369450135782,-0.16194025103288354,0.5722632776330955,0.1848034880054507,0.09394848618607636,-0.7846144168126645,0.278535024322597
,1.6053023258353218,-32.60405019541751,0.29141132092098404,0.08081448608635176,1.222356441073623,0.2598792179177026,-0.027647107488760495,-0.018996743617230374,-0.1748625405299164,0.08245745750882143,0.46862723676033985,-0.18717820146419223,0.05667632335863412,-0.3285423329954368
,1.2349833455596255,-11.839634162942792,0.08741857345909188,-0.1261288329183175,0.16714711161038884,-0.14724547053785408,-0.04130128686923986,0.12548624272356293,0.19647918364595074,-0.3345623876766759,0.6492754157019807,-0.1887698125745775,0.34331013016573125,-0.33714336832811304
,0.5553156205637,20.532072015128474,0.19751860017526301,5.951799211469507e-05,-0.8164213722365011,-0.5065918335215566,-0.24540076184702586,0.4563249331731851,-0.3774666392991738,-0.19140129739532888,-0.6650782243524839,-0.18245073238771228,0.13258282331508345,0.20021352019413627
,0.30593730197798497,16.459136029876518,0.2731920611520572,0.17885258087623984,-0.31361461191080325,0.12305800366046483,-0.3863948387771599,0.13959548460544205,-0.4972426492789631,-0.7235991701065826,-1.7159372688931984,-0.35480873265791374,-1.4149682401501997,0.573828169540759
,-0.28907411927371646,-3.0969932127938193,0.24160541461985308,0.14514629917514546,0.49401314728149687,-0.30869148868785606,-0.5147396192462622,-0.318729679247226,-0.21883333324067256,-0.8356831256770095,-0.733879060577124,-0.16101725442752285,0.25102023582199107,0.35547504217645437
,-0.3905680859286712,-1.0340441150940345,-0.014748355394367954,-0.5586123744606338,0.596671803417834,-0.013183104249602161,-0.4003350808670303,-0.8985286509721709,-0.1278468049296668,-0.08289241381074622,-0.23986223075582502,-0.0510850713320681,2.2383046890157186,0.4039536753968702
,-0.21506840745510603,40.4156296310404,-0.3292105096828442,-1.0233038602743645,0.0036110586622152495,0.15614567390282919,-0.7482097458590965,-1.177855801062219,0.1322732304015046,0.2758234417990941,-0.6574600800320222,-0.0872363142452481,4.580298520113106,0.03972226832647622
,-0.700651653575074,53.090112223491715,-0.5544014811847928,-0.7889300446600579,0.28649880549424606,-0.2535524369599661,-0.4569499849390395,-0.6839575433041769,-0.144425012740595,-0.16720123895213287,-0.8211744295171758,-0.18073982923531037,3.186253904574463,0.00386221235487608
,-0.6504400600601562,19.54782947326655,-0.5445458933188013,-0.8295704039913804,0.4033965291513961,-0.21463136155073864,0.2380948599188187,-0.5567800113974883,-0.4103194719124827,-0.41428748059067216,0.1105326650917019,0.08910037698006272,2.039085194482405,-0.30256239196239915
,-0.3341485255507283,4.536975243809611,-0.1638142101692584,-0.48027065352282156,0.27039414787096167,0.2928743928005242,0.2770640579535568,-0.23626732869846429,-0.13327928635489605,-0.02328097255284241,-0.570332477667624,0.16864729190835623,1.4620762364209337,-0.5500201353885221
,0.07070734277937371,15.18840937671363,0.166481630297373,-0.3175303745804944,0.1535960183521488,0.028868899649868378,0.5527992843909901,-0.02503369711851645,-0.48545725912690124,0.23344484860366208,-0.628119376585489,0.39791236476380687,1.5656906817449003,-0.08698349964704438
,-0.27853067274644194,33.7287105561576,-0.026714390820884375,-0.24985426730683685,-0.2736085453446746,-0.22117826491004244,-0.1533311431277496,-0.2846130887291703,-0.842612802358306,0.11416265498379817,-0.217570464451761,0.10671117754622167,2.528817618284873,0.06853917127215686
,-0.6475935633507537,31.32191498170691,-0.45458294739025984,-0.8651840435101197,-0.7134800903653384,-0.3911164745196858,-0.47169491318238466,0.31381161268935287,-0.9193365274587015,-0.24903490742105958,-0.02122021849228109,-0.06512837952409949,2.7369632649971285,-0.3471294852573696
,-0.14907856037585202,4.372265087421898,-0.3070560698030518,-0.5005158952538185,-0.8412392347209966,-0.20832048919375057,-0.3406574244051599,0.21244594353045165,-0.48664902457379283,-0.2025375787509335,-0.38250709084825324,0.047413938520337574,3.089934770596982,-0.3959966844198967
,0.6240641009183883,3.8846615347713405,0.057804872922325924,0.173988980435488,-0.34066590736444025,-0.09358367648277081,-0.3147595617789429,0.5830259257863557,0.04909332913458851,-0.006446727025635115,-0.5828699228504823,0.00047493635099898223,2.929551009569872,0.012677652448765281
,0.166277195731643,13.65387239142496,0.10185121589838138,-0.46743470906634776,0.3215469993714889,0.4736861747573096,-0.18413842254392646,0.2816821846419053,-0.11408433139905283,-0.36616327400663473,-0.4516582852879908,0.0921283057526171,-0.16471742874987694,-0.0662955505630303
,-0.3066102506782406,24.74516692714021,-0.11656947072149682,-0.7102161235229767,-0.20882686577817117,0.32054192737415893,-0.1607800827410013,-0.3860226236866594,-0.07108942673722567,-0.41376668664673516,-0.2193983367702278,0.06450323656402476,-0.4011664488508825,0.11217292418860479
,-0.15039626785818588,27.366716844917406,-0.25319350350452274,-0.5238785435819412,-0.240474301002555,0.3599447754083963,-0.22578886496008838,-0.523182700880292,-0.038473078016359685,0.2160457501345957,-0.29503667949948587,0.09642421327223573,-1.4869874171979776,-0.008381972902218787
,0.48175582579120013,32.29667308027947,-0.31234714190949614,-1.0158174500657826,0.7197034659507735,-0.2800803351279046,-0.21353406314311582,-0.4385814878502799,-0.17627871718945193,-0.00650661731485643,-0.08734703220364226,-0.04952933027907316,0.6120500061040874,0.07013792372710974
,0.18185511812859056,33.99604244607478,-0.17871004442476748,-0.9468288546384437,0.43999559633840635,-0.6483992129559087,-0.35540833241198505,-0.19424649622577345,0.21153838314635767,-0.3048399776387749,-0.1370808602375972,-0.12446209897346037,0.9060252003066293,-0.39331312839726235
,-0.23475773707206696,10.377174512240028,-0.1868389254884582,-0.48049642920844626,0.3311392256562117,-0.22051736244965608,0.2527239234800276,-0.7752419601463018,-0.4922844411717448,0.5690433086452035,-0.01419158858435834,-0.18322470887518816,0.6194110522146545,-0.650897560347865
,-0.09957850646575608,4.646731286628626,0.109399926154221,-0.12298989034588077,0.24351192534481725,0.13671358931049288,-0.14275962052945607,-0.45544502488568067,-0.287998639300833,0.70615006599064,0.08639045805778972,-0.030834719676409564,1.299398397324025,0.13725440187782123
,0.03566946963028229,5.7694357590746925,0.22309794953364745,0.31793044238043877,0.5924618379850345,0.14600836074923076,-0.3267535137588898,0.14722482219025074,0.12161235321618565,0.09887946824367982,-0.0659672389016591,0.21936720642173277,2.239405408105014,0.5753271843938533
,0.32491530049121614,8.771729905035746,0.4446149491460545,0.44095810905918237,0.6769055324613495,-0.15849801598030025,-0.3335523129834437,0.47174651259017364,0.4398427634653961,-0.11364258907431028,-0.3837779992665382,0.16185271200849427,1.3992503342331748,0.3836656944268401
,0.2974551198223914,10.200034204171128,0.41495965010368735,0.03920773088573899,0.684509717332898,0.041648360022339466,-0.01059721214282984,0.2028410072973978,0.6176048428521417,0.31402031535401453,-0.38741848817282537,-0.043120360842868806,-0.19754648800325347,0.31215728557248806
,0.3824536253145084,-10.8669831095617,0.28467593553442294,-0.4614132761732687,0.6463392245976345,-0.24347025741614245,-0.06903836143085787,0.16704656204772608,0.03698892765196045,-0.0754235787405474,-0.49465695419529365,-0.009471475201960573,0.878257305829427,0.3844526420686267
,0.055984344567055366,5.895255819744158,0.2950731492425278,-0.527030336673165,0.2062588672256347,-0.40796580578324426,-0.37254140693933163,0.03160318679521526,0.05037533395154955,0.0822722826356172,-0.06585675767263496,-0.1212568896435961,0.9938853041313911,0.013858269112871578
,0.1415104597094648,16.919800932397685,0.4715847214653706,-0.24823727026689524,-0.07163206790753923,-0.4410520677380004,-0.49515815304231203,0.5266759341208258,0.13436107257625754,0.2715465099187938,0.7469357192181317,-0.052250032251954,0.8013817083969912,0.13558983821254292
,0.04548050205314588,13.78409604165724,0.47528634692276117,-0.13937482342903246,0.06835261083190201,-0.035969355000110274,-0.09640972064076163,0.6013512654855924,-0.031032894382971018,0.9585209487724561,-0.006770284916273563,0.13123905765508193,-0.8924428005183395,0.6319564272455109
,-0.5424480716290001,5.830411458447255,-0.12874483383361593,0.017769808166705352,-0.011448733241011828,0.0062608060432211635,0.3078159031683589,0.1127282668151548,-0.4065108173892168,0.3946018277921932,-0.865170802199282,0.19146206837260635,-0.48053890467015503,-0.1530752324314496
,-0.7961271623816701,23.42025442587066,-0.14252488958201398,0.02878703832048945,-0.46130281899328046,-0.3024319829824514,0.3689942170431656,0.13789283902236524,-0.3179271034168843,0.09539157886455579,-0.399592044820354,-0.11581997071796571,-0.036898240729545784,-0.44905273871191714
,-0.04310518585741778,18.943952046626613,0.2769038040261378,-0.1269160009361204,-0.26699431652316086,-0.30737180083379106,-0.19016608935529442,0.24284984289808556,-0.46886318990544584,-0.4527341573540856,-0.24903780197763692,-0.0273151961955862,0.9417125331628138,0.453999104980591
,-0.013147493359110161,2.8265436827925714,0.4532504405790825,-0.32228527911578136,-0.25411163782557866,0.1758324427013069,-0.4204850393484966,-0.36220939503473465,-1.0039862372236072,-0.8144652406511208,-0.6003712739448965,0.26156540228156755,0.0387851744821063,0.3109454162997194
,-0.25300004533000175,-5.380611893390581,0.41664960413098745,-0.32644560624714514,0.5122438675772206,0.5804444096943062,-0.31125595122068866,-0.2393762483930746,-0.38731013991752394,0.03863335665244841,-0.006964475711651504,0.07651779585499398,-0.08357024336584613,0.45668203808149094
,0.2611776497424408,26.70492335994609,0.3012370030103115,-0.5234056104498745,0.10401063872774877,-0.3526436724973579,-0.41858575729899117,-0.28428982155913785,-0.16500075348073953,0.28352787578415806,-0.3633232366628099,-0.10384183158952684,0.702917902583532,0.36525861310274893
,0.150909494414947,37.304054390176375,0.13351224923618368,-0.4738862386881318,-0.03294621233921018,-0.784535721012232,-0.4920574254991561,-0.3444538538135127,-0.3213074964798235,-0.10633082591955026,-0.05381970854353328,-0.11458070372978188,0.45090853115504875,-0.1556375045192767
,-0.3684497046804672,29.742876141242018,-0.2003391381948059,-0.4883546267100229,0.5280063579567909,-0.6368917676592498,-0.5003012714889203,-0.49235188946050656,-0.23907631087614878,0.0037447515322803432,0.16067883275805755,-0.15254383851929465,0.5354289155298543,0.04480452413366504
,-0.13455775127662287,17.573350665509682,-0.07522452586241168,0.04009829264241871,0.7918086088591096,-0.42757813965164965,-0.7137220400981247,0.04084975139131174,-0.20732569311544452,-0.0899074370991211,0.4085661774207924,-0.05963656547921704,-0.5960218911742533,-0.1393291968067168
,0.41859810261890723,8.732635635335814,0.12199161807346752,-0.36387523527631177,0.31593034550156507,-0.016581492188375534,-0.4358217962163545,0.49107662129978746,-0.41129050540986073,-0.5579907538956751,-0.24055528145530325,0.14877902837454998,0.9610392839639353,-0.20821939114051266
,0.015162223784615488,9.59637878052564,-0.07595370130404575,-0.03899540928353795,-0.20549619782004352,0.42947256471498657,0.23280756305490485,0.45216032613602075,-0.3674171304405884,0.03868959865171465,0.15072300176826853,0.07109113454470725,2.3373334405628166,0.00973952784972962
,-0.1473954696326328,23.780402778061283,0.3319665420936041,-0.7061862554050333,0.05914162278596881,-0.09384679274981919,0.053412330024631006,0.012778388052674743,-0.4448092999659515,-0.14713820881248274,-0.09981174341953349,0.2075153498250278,1.1419819526414738,0.27724218233290604
,-0.8419200101836936,41.996251115805094,0.25115259584127014,-1.2291668980721318,0.5467925331854796,0.276854846704399,0.14580137052748496,0.2949943626416393,-0.5655665608841837,-0.7319743156835291,-0.5858549776875989,0.07430018655818951,1.2824040886594232,0.22360990104916115
,-0.25401747790648105,13.854152288997696,-0.13880038765517078,-0.6433497913810925,0.9088355683093303,0.578096096243334,-0.2467299244491971,0.6015698069130542,-0.13846943360460434,-0.26199259744252956,0.09162683516551115,-0.2734076868621873,-0.4303126374242788,0.05355600332371911
,0.14005139363436475,-4.954832766793733,0.07092763666283591,-0.36616980776810104,0.8316155140246306,0.7903542541691424,-0.08010753182932885,0.6045586030308654,-0.13576908175548694,-0.04215638419466114,1.005107706535088,-0.21421198618436632,2.6242076927135307,-0.2229652612293623
,0.19366863794918118,-10.447635424962826,-0.0575710465516041,-0.6343638130024931,1.1149640176292546,0.326397639280777,-0.24714007422211035,-0.1419769911730774,-0.14731947900814762,0.3156759337288735,0.5872972361551189,-0.010751809345242428,3.5093067604254564,-0.20839290520457487
,0.219693996474427,-11.013332735299006,-0.10652121913791739,-0.6737207799786015,0.3566393899283656,-0.4063154524603028,-1.1529586632690618,0.555989063439498,-0.0017857831496097079,0.26797970342876026,0.7005879726202002,-0.07856943919778214,1.6453254109781035,0.07809142113188246
,-0.19288134479595861,-3.3101034770339424,0.15019931650210627,-0.01065152733965016,0.5154041689893238,-0.2942807429819129,-1.3846832920222658,0.7574231978423596,0.36773058848323403,0.27029517950141463,0.42354362951941205,-0.015433903242231529,0.6314608441402181,0.21337294934646805
,-0.3500921882045559,13.854667136782838,0.29809429529427534,-0.19496278012253992,0.8416468673869079,-0.08233591063766663,-0.3379817090214668,-0.04785459646504699,-0.17524441268620417,0.06532744858532302,0.5320703432099174,-0.059997471870191284,-0.02250134310420202,0.13671986603804823
,-0.12582085557821118,27.75831315869996,-0.06422767307562427,-0.408436847139579,0.986021785575089,0.1055912417798246,3.4889294584721326e-05,-0.5749814047129254,-0.4159015897565361,0.31576310063035545,0.7583954873888666,0.08295337332231996,0.8297329660747753,-0.0006462762325697018
,0.00730325818915176,5.45681833321006,-0.1451117236754611,-0.327935270524113,1.286958342028168,0.3680590324105712,-0.29267723263120193,-0.6757128705793104,-0.05613357461056392,0.09479964031570312,0.3075352394858315,0.12898857905275687,1.2995324623941464,0.32376262306721504
,-0.5522155677394128,10.552330059474864,0.28354359220528613,-0.5168308854337712,1.3487563671955374,0.16065144759096917,-0.0874218501200473,-0.41540663231739,-0.2091672684631974,-0.15076893943536265,0.07017793094203713,-0.17207129419229633,1.4821806870737888,-0.08385849157660183
,-0.33480354820137115,22.047503007358525,0.2411215393133247,-0.724558438470954,-0.4261845784066907,-0.1621196979933287,-0.2630310025823599,-0.1429327728910235,-0.3349349460466641,-0.3724583523746045,-0.251433345020578,-0.3263854155898314,-0.20982214832803764,-0.002389292629473492
,-0.1913259230543738,20.561173813076383,0.1367078372895515,-0.2573335842390188,-0.3480817504574293,0.13649994585928665,-0.36375591741063723,-0.4642978233464031,-0.0929013194479714,0.0987654256451543,0.1176285199084516,-0.15595760454722396,-1.333739430782396,0.006931022551062001
,0.21049536818718112,12.454179097225374,0.3555151315385177,-0.03656921420923436,0.35683815502981786,0.23577292486999604,0.2628937126455241,-0.4609201234486085,0.23987533362675928,-0.07865344419628982,0.1603878466747507,0.047048267742068085,-1.7698201885225429,0.47816867979189764
,0.8181842277077316,1.7480968849431189,0.23136928356656317,-0.2693092662731478,-0.3917109063801109,0.08836084048212593,0.14308720073614994,0.4455028892811187,-0.1721963733193351,0.11853865684736846,0.37993259661334955,-0.027301314892153195,-1.56448479684645,0.1938191742290325
,0.10580844570614832,6.818057405202681,0.11736659028929995,-0.30984464913153714,0.026795923656373954,-0.03781167878000849,-0.20534334908069904,0.6203597139745316,-0.2033233040419897,0.5398008996716288,0.876030208981853,0.1645867971807959,-0.2460980376787309,0.20240666848123415
,-0.2810437688891105,23.95279674109916,0.08504181010851865,-0.0801062017517279,-0.5424529319493918,0.34987132513468494,-0.17732345084735437,0.25448010297356527,-0.01418414387177163,0.3242203283877963,1.4905997740148595,-0.027786054690874945,-1.210218719606099,-0.08032449210997435
,-0.11693019207643397,9.63640947147375,-0.2500093363459997,0.08930769007030033,-0.541898493235762,0.43095294018332536,0.21828884794669773,0.4879750083928797,0.10792203694241825,-0.11912371440867942,0.7188889043460381,-0.2422301106251777,-0.8862029651753075,0.16317805682345343
,0.26675441459472077,-13.800134792071342,-0.11018627164916785,0.008383660742680623,0.13945353706374303,0.3608243056815375,0.2186417136840283,0.20113385036920972,-0.606028093310603,0.017230893929947214,0.26900420858979557,-0.11900509072108875,-0.373442797435692,0.7450063658687005
,0.700513800549539,-0.740477767154668,-0.16006283705174126,0.19908438465913073,0.7415495755687985,-0.16243291305777297,0.000909004653243164,-0.43682194538904,-0.5458238789854343,0.20166283029398366,0.5161757114463765,-0.0030709597776109572,-0.589358331572623,1.457580234852643
,0.2565328610192604,22.179874981683675,-0.09670996974334803,-0.15174808386263003,-0.3398975824833022,-0.011341173297490561,0.07998124434725602,-0.43559054641068756,-0.3955472215041683,0.006685984128456925,-0.3215159752159425,-0.04575666883494755,0.7667516174592042,0.9746732731231456
,0.29085874272333007,29.328356649341472,0.08514703319989678,-0.08337182957050848,-0.09982538850440918,0.6969199143590096,0.329013642826898,-0.174638443646612,-0.19208210609614484,-0.5289652212881749,-0.6041241971272714,-0.0014222446103005066,-0.9015732093737364,0.740442584398828
,1.223487845244547,18.1468908888868,0.20079372972436896,-0.15850617554398375,0.23844237725581355,0.37248762669715557,0.63947873170711,0.3301505581198531,0.1436690168434607,-0.22502328448700118,0.0794342994448961,-0.2888945551456939,-0.9364614142274289,0.8606832051335911
,0.8695822191058519,5.336787100354978,0.4002040078234189,0.19098343966933445,-0.3031696403076412,0.669875046757638,0.3648341862741707,0.797075158997579,0.6020078488901583,0.13590725537454315,0.3027844487820587,-0.22709314276982054,-0.1673685432395825,0.37929458941031174
,0.6628306091309765,9.228204724690963,0.026584518759166686,0.0729345678708206,-0.1887387820284253,-0.33064249251272665,-0.015249919673965757,1.0547306530213787,0.6367915102318124,0.12302798761056363,0.24387929963924113,-0.07037487640404004,2.071028705585007,0.2134236701620366
,-0.03138288046812142,-5.613847975922532,0.12152840794561216,-0.08571664804827431,0.45562170695005666,-0.25175442153461847,-0.1792679799135929,0.8056643873863709,0.8784582048965974,0.02042718131070474,0.377587397829529,-0.11925250258393666,1.5707260429898637,0.8412424909200376
,-0.11438379246688755,-23.38786349568733,-0.03458978402098737,0.3420499307452658,0.020316327763305275,0.49539034515441144,-0.5983214908670388,-0.16995257850614073,0.2615032763285749,0.11355497102044544,0.2995988761375326,0.06695628784303097,0.05684881577016134,0.5725980422604239
,0.409275996199219,-0.7316746676434894,0.006951243022954874,0.1881820324533359,-0.5574646846065973,0.4712172984119852,-0.5263761208438069,-0.41792071440614054,0.02316489441533141,-0.21289057059787003,0.47079181727592223,0.02572971011874378,0.3033938039482639,0.34795407714071114
,0.20928697417148273,17.154559914518046,0.4295136469907267,0.6852942322936375,-0.05483784802269354,0.6512580534127582,0.4696908580277371,0.11433318829321186,-0.35521572381540917,-0.33656388075865984,1.2665613332483967,-0.12202084212634662,-0.0012237482284527053,0.6023860218129906
,0.2588996618290123,21.08660206566303,0.4948017540173417,0.40949399665109143,0.1285966677274682,0.12380455311740413,0.15304888994229515,0.038932295774853694,-0.26589635098194453,0.5199593125286224,1.3410987844195321,-0.07751941199003022,-1.8429223435925097,0.8663663134646161
,1.1043075168102576,20.839086471726745,0.4654028815511853,-0.06759430251571043,-0.23980804684600912,-0.44969821790171244,-0.06924965895349298,0.19719279711273616,0.0879536507402473,0.1702607317481192,0.9079390084304285,-0.03509781578659618,-1.827429767765834,0.9584565254505228
,1.1110388625251317,8.095677540105939,0.35560325278138005,0.09288926394327228,-0.35688494549738936,-0.04481340426321835,0.20782065825378712,-0.10083958995321499,-0.21357784216953069,0.45930424389251867,0.2706574738842526,0.07280829261193318,-2.0341610086934776,0.6497160495778206
,0.45285522945110385,-2.3014528635881675,0.1858063236913578,0.34593258039450014,0.676974686777907,0.3326705697042038,0.5389608689360295,-0.14984117235157693,-0.12068578250419473,0.6230274105477146,1.1312450115195316,0.3544498134343956,-1.9974177205772625,0.13456419096568167
,0.19493145242022067,-0.4759934906397519,0.4049252622222207,-0.07264248056871168,0.266951243577847,-0.13829660201273916,-0.00795461559371763,-0.32896719097319965,-0.38905343870630277,-0.12744077814856086,0.6916174546059656,0.04717779192998528,-1.0217568347767492,0.6676102582916167
,0.516805871143629,9.494397372874062,-0.16454615701338754,-0.46508162028383776,-0.052932213586978374,0.07504732211107615,-0.20726821519535585,-0.03467551691530616,-0.462455811106931,0.21345825778117558,-0.2967577259510826,-0.040855372672264904,-0.030873887370188972,0.47361336027951934
,0.25867320042294467,24.78946682672034,-0.4146528013290243,-0.5983588013143399,0.27837124268707286,0.5003290261057579,-0.29570499867104044,0.03161184631213349,-0.030697698808554223,0.2166361940674016,-0.4255879455070773,0.06427824889395585,1.6585657367184128,0.03499440901865832
,0.12791624522701772,20.01104046806175,0.011070063941985581,-0.19142367283543874,0.16025203962448123,-0.15661332864497388,-0.5104837704136849,-0.37266934314731365,0.24361986184513176,-0.06792240950002477,-0.3353277744121001,-0.13659137163356883,0.9493528407623658,-0.11462808040550257
,0.19722597980719064,19.061796166033115,0.16019215583688354,-0.33842803692920415,0.6642238007826949,-0.14732095076139484,-0.2654720665863087,0.05394634768662099,-0.17369273359195309,-0.3482280052160768,-0.38507744149910744,-0.10191370355425915,0.9046842385989089,0.42634568837533215
,0.2957839684421853,20.867129931799575,0.02006885742570784,-0.6314842940608967,0.6087646364662237,0.12833492376312164,0.3283113273548691,0.34460924129993176,-0.5477220008890206,-0.29064980341877744,0.22082397697794856,0.15747936133556717,0.29802841384016,0.569224449101628
,-0.23614960083544737,9.286447016175646,0.3733172629626979,-0.38093417566837784,0.5533832045826633,0.5431760442247866,0.085869043990754,0.33190258916839266,-0.26575822804797095,0.2749901004504621,0.387292556931048,0.2884313636950131,-0.695010967963201,0.02118666139205756
,-0.13586951527065125,18.543073954076327,0.5369033330895017,-0.4310766870675693,0.109786133536411,-0.09871924354629869,-0.40806066997404133,0.28052123687695546,-0.1157971653421396,0.024268342268842835,-0.3819251579461882,-0.013277387947878392,1.2617796347779098,-0.25966474318878563
,0.41625568332218943,15.964651444252182,0.33720794411247484,-0.37141316344944697,0.675182996019698,-0.028750476376716794,0.0015964829894969574,0.04918411842430473,0.16875698002190712,-0.12488830459824081,-0.315419089642193,-0.14591950599958195,2.7336027686256457,0.026502489797898293
,0.05436280929025245,9.456113709011408,0.07088202476707094,0.040955185028697674,0.8688421159694412,-0.24672317493555415,-0.19352170714810704,-0.11219498485907427,0.27358860819579306,-0.2054059614617876,-0.5669297746609839,-0.15339837677629573,1.3173901093195464,-0.507406852573217
,0.11329077485479444,-2.508064760859194,0.02203560104982094,0.15594138344041192,0.2488706509333106,0.17446657507961233,-0.5033932444431571,0.3048812289120107,0.17788371625776295,-0.31995857869206096,-0.23395606271152228,-0.18731510839224663,1.9971080913100208,-0.3255345325273211
,-0.13747161604748226,2.743412464558225,0.29724907773330067,0.228824191420083,-0.03187339592315396,0.26013295880073034,-0.5186155331639426,-0.15852464509171807,-0.4578814736107739,-0.18949249414299948,-0.3551407346427725,-0.08058508171983113,0.8402924484590851,0.3035818119839873
,0.6123948360434841,4.71703136379297,0.2336741862696865,0.4314170354995004,-0.21824855231573229,0.7243717305325751,-0.3144754865157882,-0.4479272356841665,-0.23605408442158662,-0.21722450512406402,-0.425768129442105,0.10485227713722134,-0.5529447047497433,0.6894035434205749
,0.07421573384112518,18.135056499644723,0.029504531817651943,-0.1435935264568895,-0.21579336785554037,0.7394484167569457,0.13958654464894515,-0.32313322063057875,0.30945179733567457,0.017907818507037397,-0.3290948919205183,-0.07557934274018409,1.4975493850365236,0.3347344723778788
,0.03172653252977552,20.205140634534196,0.07026490520830911,-0.31063519862836914,0.02953612079605983,0.6395084345957118,0.01650028921766472,-0.10803744845777598,-0.26167245291950403,-0.11985498836393275,-0.2883145448199226,-0.038551959193439754,1.8332510194757294,0.2638746210647769
,0.41296953634384737,12.81717250026902,0.22708315118198105,-0.29482703985632,0.5591188239046372,0.5843698953463398,-0.02577109910120323,0.34386130769669154,-0.12518370895655073,-0.4741021348285625,-0.3061896349265984,0.0867917362258186,1.1082640159708697,0.3822219027766434
,-0.09544466850008111,-1.8917814744684696,0.25843514278939456,0.30192685239397454,0.9241047270631552,-0.4959426440030532,-0.23557655791363352,0.6787584062639377,0.44025704884145384,-0.15311569926564203,-0.779083510598928,0.1661233296626639,-0.7548899646428344,-0.014266346759873203
,-0.16713107796534687,-1.9400469892095225,0.26553046666290125,0.7372397580954159,0.4759842593875217,-0.3535407442704621,-0.1156802189230795,0.7789874519132834,-0.12128422608028264,-0.2958799028970719,-0.44863875948993576,0.24732634643606702,-0.7991095610702407,-0.09757034407179724
,-0.00885566611926209,-3.5593074895684036,0.3055627338448862,0.625966592702655,0.8135655324483518,-0.19855176379421027,0.2322297125315596,0.5980698868416162,-0.29125588643592604,0.003906836324900115,0.10004035042410375,0.049182204401082764,-1.6057266020655538,0.18114039874815985
,0.034596427889543147,6.7485880277418735,0.06340538076449921,0.06852135891584911,0.8509564409782412,0.012980935130914232,0.36531123249632286,0.7307202857478378,-0.36195838301690714,0.11045322529793565,0.3492812539093991,0.3310987738419329,0.8479328850923494,0.34769227249696866
,0.1222356921266622,-5.334572244864236,0.26081335014614937,-0.12249896593609201,0.9589136728928963,0.12750906106782947,0.6730370780563002,0.4889915847755693,-0.46538826581885645,-0.11695587538656689,0.20168589915542653,0.08167166084820124,1.3333433830257604,0.5720640392240136
,0.3384366168101429,-16.242980681144427,0.3032027768169691,0.3256798936248743,0.37940076631735065,-0.0371888972296372,-0.19392120033669008,0.11509514317527973,0.07840871101131196,0.2587968179822533,0.3310138577302393,-0.16345782958965296,3.0089557938161544,0.46657163790873274
,-0.3578925612404127,17.068005770360834,-0.14586528964107592,-0.12244192993087331,0.35274307747814065,0.1793738279683517,-0.7476789009951625,-0.1560939912970302,-0.07187612913504306,0.6124964440120958,0.36048885650028634,-0.08399695927862799,2.7927164653623806,0.05202884499268482
,-0.513650048231595,9.877347796558755,-0.2781553470604141,-0.24426669165517106,0.2245558887616635,-0.1537222422714157,-0.3387904315151697,-0.05552969179512726,-0.4629868176762711,0.33162508048135,0.009390197032088881,0.009301023550940351,0.8469729443279987,0.2617487743088139
,0.3178075607887397,1.9139591994601528,0.001080470131104204,0.21807910409788966,0.33317436253674526,0.19311086430353364,-0.1446343050213368,0.4896286206240018,-0.32169476604857006,0.23872152368542218,0.5311758339535989,0.14126238734330032,-1.3525518970144863,0.130458722607244
,1.0751200796339824,-7.039770233487392,0.017431973612931473,0.6274963141274569,-0.26018734908169716,-0.12911151988686626,-0.1977839695986118,0.5681755752162809,-0.14010568719483266,0.38109219121429183,0.7860671149444953,-0.20268619547630817,0.35638229792826914,0.34556789661275417
,1.367612188175414,3.583323558502862,0.33424328798016895,0.225521753427811,-0.44454363594265217,0.03337202280923484,-0.49385567929153684,0.48365424112261696,0.009755388872540554,0.4494868354069437,0.6470631830799334,0.1068471834132241,-0.5563112012347713,0.45135705352919486
,0.7073728247751513,21.893658489079588,0.16859240572938827,0.30589790629009406,-0.5442399764279585,-0.036125275749770425,-0.4235101044560139,0.02584748745179929,-0.2694474713514576,-0.24839623870474642,0.2348851089965285,0.3553460404184275,0.08733852488841579,0.22385996012568243
,-0.3382863194867171,20.00231620269104,0.1501902458863527,0.43604790835145046,-0.4040218889511813,-0.06907793899864272,0.11996803136442047,-0.11424771124417582,0.0644561157005817,-0.40837164085231675,0.40912310711013167,0.31932662988743904,0.5401050075340669,0.10315244423937557
,-0.3689224386172076,-8.505174466589427,0.21870138362792169,0.24666900155867708,0.18406541431447007,0.19729194504522554,0.20614060547504945,-0.3418400244913431,0.04675893774128598,-0.022390250672960646,0.17850218031194393,0.14432469954174557,-0.9598988674904675,0.08038791306624375
,0.48281029106426115,-1.5840069226241096,-0.0909663788711331,-0.04477702703956626,0.6916264875559469,0.18365198415952785,0.01486684266202494,-0.2419975216040921,-0.3777326925702313,0.4721440738434306,-0.48283735418544615,0.13916507208227283,-0.4092545735897854,0.7534558730290818
,0.013441615121103107,16.817265637057233,-0.26014356739512956,0.2025065101219584,-0.34304630327271995,0.1230049316612353,0.1506634171935569,0.24072684409784306,0.11265917903751316,0.6357742021918076,0.01875175252462962,-0.11583055315042383,-0.9019650805154983,0.178815184917539
,-0.30031501832823215,14.680156132087152,-0.177396259653513,0.14323833906933242,0.11366166066695778,0.128257353458056,0.5318702235752247,0.1374598672800144,0.3030824346324466,0.3909526995228624,1.0253365736220252,-0.18397573412568516,-1.0076690595782603,0.12340630642333746
,-0.11491760078916075,-1.1874876583539056,0.21913924640814014,-0.21977053146503617,-0.2820752089360559,0.33003221953719786,0.6386617266265527,0.7926265199241258,0.29024634548586536,0.002381176069542219,0.14345028094159415,0.2953018402083301,-0.8835511175035953,0.2799086586574366
,0.5694030924569183,-21.781161413339017,0.18318560876210616,-0.43377048074433416,-0.02443462268401461,0.0970399373885532,0.35107114500275866,0.18720219381248696,-0.1375665602099087,-0.22033652918494262,-0.6036207772669493,0.08281921460429033,1.7304671433450773,-0.0037159842639073004
,0.11965841791324919,-8.122677351586864,0.18439131796190952,-0.07304202098572629,0.2032541879299226,-0.44277272582401883,-0.12699216367860056,0.004860568424670389,0.06181437443707364,-0.031434201399257095,-1.505475770874544,-0.047671402797910954,0.7650594853690585,-0.0964131391618483
,-0.5345208398905198,-10.481160112657083,0.058616765122116235,-0.18571807285503444,-0.3165064408820891,0.08609937947645671,0.10452248011046779,0.08808166212736575,0.2802639739420195,-0.039927401000364265,-1.5420201883648552,0.1099387546366328,-0.8665972568742699,-0.24352201771821413
,-0.32403562967845984,-13.340800842432799,-0.11530074964730064,0.1440991439425473,0.44928829803669756,0.6465265180061806,0.2800004061762219,0.022313299851773105,0.22292971473296738,-0.0955314795795186,-0.8697038422337309,0.24813567263204128,-1.6234582399419883,0.5674805114826567
,-0.7306398148841425,-12.360941032028052,-0.48974441352202813,0.3033289654109435,-0.1610970398293233,-0.5708203626526285,-0.4137284280703592,-0.43005828079732317,0.22759801080139538,0.032497405551826085,-0.20946078983235583,-0.025287698754272628,-0.6715757893465062,0.20565310635589157
,-0.41076483567716643,16.314037525761435,-0.3148202856701796,-0.2721546109697782,-0.026644474095639796,-0.5366978902615472,-0.3959069841389916,-0.26981779040217035,0.09474270371029475,-0.08112945101223314,-0.2787357869619825,-0.17620131211124518,-0.25957602617109143,-0.16939256653402737
,-0.03134617438667553,28.366656472991398,0.24367239819674044,-0.502478113691206,0.07106916013074033,0.0795664290787189,-0.16599723048576642,-0.5277213644736825,-0.16716978688741896,-0.4090114478177949,0.4869258454114535,-0.20755168768614501,1.4430421388256478,-0.18411720858116878
,-0.6310977007649977,2.830957791795093,-0.017662156363925534,0.5136618215831172,0.5104846816636084,-0.4376746852444236,-0.3102255077887993,-0.3655123994915117,-0.26549921196409676,-0.2539392480318268,0.7299529294181557,-0.14294744128463285,3.1278117144985935,-0.8302163226664426
,0.011900757537584692,-20.772697256434462,-0.04466249422454568,-0.22234982367641207,0.9480659812190917,0.01990344476818082,0.11279053536937236,0.137196846715542,-0.024531969287721538,0.12950752412027772,-0.022542720933129166,-0.15180532141084616,1.177346157957627,-0.5652710565283032
,-0.2637911613402816,-15.712679555744119,-0.18846048506056387,-0.8243677167598084,-0.10290861515605385,0.08330620955877023,0.1923002543750939,-0.3670585266136809,-0.05742759077853147,-0.2554513167817013,-0.061270561782998945,-0.3553567404348881,-0.11247913177035183,-0.5154065973029349
,-0.2986817328341032,-3.599814964688579,-0.07900784287945728,-0.3700392656964868,-0.26181031625804957,0.21422802367056135,-0.1748556004220615,-0.02989148690653373,-0.2748262088497818,-0.4279169028833195,0.9156097160750977,-0.1918910201920456,-0.9752161263301682,-0.7049900156823494
R,-0.7358715047742228,14.1836376027837,0.14274811092339407,-0.2009550381008532,0.0201435221732514,-0.055438218906187,-0.22086425798178946,0.1485460650308239,-0.2040379016995815,-0.19611352102168392,0.5395245340303567,0.15809800595068507,0.15567695903776949,-0.39349647876764465
,-1.2851724201033663,17.99478918186286,0.2706116423544109,-0.26685212433086125,0.5181752845955806,0.6314781101172487,-0.16147007852484951,0.24822336851529456,-0.04496679589445317,-0.012256723660268297,0.25274428008210853,0.29159215105164,0.5204857747718963,-0.21295860909776076
,-0.6447775116641935,12.876464384830735,0.39647006623183983,-0.17879483693704198,-0.2133638703661622,0.39278259442466423,0.09630030592149866,0.39469987134258605,-0.18481108538005325,0.2142032373805948,-0.4207403744538466,0.03240426218640541,1.2164270488132507,0.336761106980483
,-0.3967184194096939,8.598792718594769,0.2620456208690093,0.20889207772921575,-0.24399469771534052,-0.031075532666802276,0.08295873973270307,0.09780563772564328,0.13197692148146414,0.38677657914170815,0.07271340310031733,-0.1274986723920858,0.12930588175878405,0.8854518665743161
,-0.6405610262049366,13.631219776215739,0.36175750002573664,-0.01812544553141107,1.000805622813932,0.24858875994233512,-0.26192852732740807,-0.596582380544652,-0.09006249657682898,0.5751463673426696,0.926972119963615,-0.06720249155711577,0.9514760970603158,0.464023557115517
,0.09796615912062064,27.64374014363384,0.17821877015099766,-0.6483481858075059,0.5366134213706388,0.09145061386933014,0.04465281259965328,-0.575257357283883,0.07046771660778035,0.44704115771499914,0.6662403645070849,0.11331314665081206,2.647592634385154,0.45073040432475253
,0.2508884494833353,21.068672969454372,0.07209629328870394,-0.3895454025316541,0.33641199181568554,0.13858410089008047,0.04239561536525826,-0.2207168913685134,0.3744206486664657,-0.14538335340233538,0.8773791511888019,-0.012620566801702128,1.1589634793908403,-0.49726617423650415
,-0.08022989851837226,25.627385268746274,-0.039640472749694254,-0.3742823476295093,0.3137879574780834,-0.013364907844888252,-0.6040042883835336,0.40573144478488454,0.6428354274950038,-0.3574967537869767,0.255407202317255,-0.09071058446117007,-0.6360251915681202,-1.1214865149160433
,0.301306512897298,34.335401448202,0.3246154799938566,-0.15147604121629216,0.1470742522085599,0.4343893926364519,-0.4819463530956388,0.03958634699162787,0.625570853699599,0.32529621640133244,0.779467917593613,0.1281612563286204,2.6604886252297515,-0.28105692474306837
,-0.1087806893421688,24.328532607010118,0.20610116332651351,0.30790976715650853,0.7124624838048413,0.0961281967168155,-0.3220920429579336,0.3713736297313743,0.3447784230478544,0.02479194536444652,1.0571472701655988,-0.029238481860491047,1.734873608239088,0.0253830013346778
,0.03479894804637238,22.75850229648708,0.3533922823663372,0.14343942724488148,0.3305013697820682,0.22492430965237561,-0.23183604087752005,-0.33804025727318976,-0.2715289114709618,0.5440208602591223,0.8825911043894933,0.1632270165986427,1.2710829599209124,-0.2700245044958406
,0.16739081538603162,27.52769138388696,0.18595996126344297,0.10698061739829824,0.20645005620847065,0.5096342030131977,0.21320595655026947,-0.3338042374774065,-0.24397161707213896,0.8286469179632859,1.4520931023577979,0.27785388207028255,-0.9576944739420019,0.14410692225774432
,0.5484550615268867,17.48794017740397,0.24391678784340237,-0.11782231356867819,-0.07363397532650051,-0.1524030478123188,-0.2186691435474524,-0.09420058268269986,-0.06178477757095457,0.5560960081969286,1.1135858586657812,0.12320120860158232,0.1541719026063981,-0.025551867192110125
,0.8424258149055465,19.014504490093216,-0.08223773328206814,0.21280639681611507,-0.0935368417139518,-0.40376787491027344,-0.11196361857907713,-0.2934637712124979,0.38898321148205506,0.2107255063048081,0.5964248631726159,-0.06724697001064485,-0.12769261102072993,0.08257227587796208
,0.868803228906911,9.388519442101158,-0.29449387718725883,-0.29786351352093743,-0.23629692356912793,-0.4607122516915535,-0.4449094123511071,0.11853520864695513,0.41197565245412593,0.2781247457268698,0.1757316612821857,-0.1991608500048232,0.2716328055075232,0.15496965801084636
,0.9698546133568148,8.638437856460099,-0.10108264742073124,-0.1284462952990555,-0.2705072821874017,0.1081352486445407,-0.1399908484638295,0.055837688205629926,-0.10767693575392419,-0.15127139077597238,0.32082487520633396,-0.09303498377149394,-0.7295291815191508,0.5220840291848541
,0.031163346407540746,-3.542493650487086,0.05433551385637643,-0.02706834737367446,-0.15193578412507394,0.08092670009710805,-0.1758844237534897,-0.15551766096498623,0.18793581198032414,-0.06423002891168912,0.027277331453173084,0.08050920170265158,0.08509985865463657,-0.6000635717777658
,0.18542119887837394,-16.03585870473751,-0.11749756285537366,-0.1853333812355804,-0.09400524167215635,-0.3288847670624653,0.17509390463215624,-0.41713478363039286,-0.10451038154494818,-0.3592821896518175,0.06624771108587027,-0.08355501774954605,-1.2432610820080332,-1.4147339568857265
,0.49404511574276666,-14.381290414739496,0.11026056828673135,-0.17946581569267336,0.3855104110291992,-0.557228988220784,0.6644082522694649,-0.6002649153197248,-0.48672062801214094,-0.1858342348659932,-0.4559829123505166,-0.06176654118042089,-1.7203834517486682,-0.6712736191787013
,0.5580412412465265,-18.73019204997878,0.5662225702093,0.4031449361974418,0.5700855594867735,-0.1942301512862312,-0.026868402884940485,0.4153968811000968,0.03678081029176542,0.03178217100681755,0.2689148094917275,0.30702678269653344,-1.3526762027972168,-1.1492328297168746
,0.44502460028242835,-15.23661167219098,0.23861002752748633,0.03824570436474354,-0.05293384349791011,0.18657941111537607,-0.3231266633614532,-0.4377542902686148,-0.22054763533249377,-0.09927048768500349,0.2975731388069506,0.04344177974511709,0.9933454544609205,-1.2213640724857822
,0.5877816477327235,-4.301025290736343,-0.00920147801014538,0.037008578457230296,-0.20259035597422664,0.020788831930579676,-0.09091152633115161,-0.8069119261713433,-0.10195906880901766,-0.30109757205064064,0.5541702437898899,0.043563533783450764,0.4353528266395861,-0.24940355657716815
,-0.588011573646536,24.83947548714199,-0.42240928863617977,-0.7580957177344188,0.0896676964404125,0.4231029259852699,0.07310251200696434,-0.7938357948786983,-0.5224912619052222,-0.018348542057960954,-0.02793759489363175,0.018726218744161516,3.069437797395822,0.1418388322229293
,-1.0916449320956494,56.10172538496261,-0.7552278109187254,-1.4988027195841525,-0.3411407440174351,0.29437708110183974,-0.4906034226878413,-1.5585111416794097,-0.7149626628371551,-0.27971342915984815,-0.9096161000954084,-0.11898636591682639,5.034811650921707,-0.45860525529894425
,-0.7799917425267848,30.036871127003597,-0.43308813344409,-1.1967716112392148,-0.7381864828929996,-0.15819339378036085,-0.4104321421353592,-0.87225757002658,-0.5262867503469295,-0.15839963845046381,-0.5072543864245354,-0.12602498136304577,1.5605512023247956,-0.9906691425078137
,-0.735502500391377,7.4063949761028685,-0.23697022355524977,-0.5156694732312543,-0.2747043753395606,0.27773471370170666,-0.01891616789080029,-0.42005000240471296,-0.2574679868166395,-0.35985585162900313,0.17761145254861369,0.20277887204214123,-2.0925669213718283,-0.7560219726280764
,-0.6957265535349039,-1.5225745246693356,-0.10403358852702282,-0.13749020531361622,0.2488529924946019,-0.2110278579732445,0.4115559637672021,0.18145871357305413,-0.14234198565176237,-0.3897164992440762,-0.47694185025202085,0.1384331175991409,-1.4343703803187269,-0.43455628255679324
,-0.759002064962966,0.11408908117869429,0.185139794138535,0.0075331167673216804,-0.3008804497494895,0.10157290297916587,1.142279486032558,0.6120123418402348,-0.1957931014401097,0.5507287281828306,-1.0857085374274322,0.12729213618136853,1.2933956000269855,-0.005205949208192662
,-0.8921972079331822,17.026254062405357,0.15205751062830322,-0.18049481516940383,-0.362416619826128,0.47493642864981545,0.9013397301349707,0.07189085104526319,-0.06792998541872626,0.5766540743087155,-0.8809980079792576,0.1393913371600427,1.037976940506282,0.062083017050879624
,-0.6545216075004769,11.857556593025333,-0.2261192175375171,-0.2862333493650919,-0.2863727868078938,-0.2111632394713143,-0.2966222503771088,-0.15437741648309525,-0.2938103341644203,0.6941872208174941,-0.4409626097945217,-0.1314325393601498,-1.0629438513915315,-0.3663719168257933
,-0.45130447412141683,-14.5074210070828,-0.3437641388491105,-0.7761081923788455,-0.19617627651998673,0.06014767228956173,-0.25312114602684,-0.047009458389915715,-0.45120648011775427,0.023258398898247632,-0.33347408802202355,-0.43140878817314865,2.411760295848312,-0.35495247262338003
,-0.4901905730159732,18.282499492567023,-0.5023007433040484,-1.287589137598049,0.2583173265642144,0.48766589228351975,0.29696772355240203,0.027024930413393964,-0.17163581509451606,-0.09159639200255812,-0.4410802491411864,-0.45768821538029353,1.8881029435023302,0.423479690815008
,0.21852262293989635,18.97048677574526,-0.31530105933057617,-1.162931757072269,-0.6462921279230863,-0.09230596238737168,0.2927968444586635,-0.09692115478833302,0.17707680111239327,0.444021745549204,0.3714964891477386,-0.15968255905531228,0.1123876164363839,0.39237620843850207
,1.2606705957089013,1.8659241298933407,-0.03491317583131129,-0.5042119696643863,-1.1579760430318053,-0.32464631365007723,-0.03199023092145958,-0.1362966832502369,0.3552344538576866,0.6067927139334677,0.4386831089028381,0.23951014786933064,-0.221278711545905,0.0789162308467166
,0.7105155896239812,11.451487510385151,-0.15128772125201054,0.594417547721373,-0.7896382930123534,0.03628577233897907,-0.383597071226155,-0.22256985959758196,0.21422636906382725,-0.060696885739634096,0.30525169991530104,0.13167217172659432,-0.3710392725381449,0.43381670669951866
,-0.45026745551069697,15.110716267117331,-0.3107407340656723,0.5042248327527069,-0.35993747050769803,-0.04262340759705242,-0.3982233857661472,-0.8996789087237255,0.2393169188283936,-0.20289678588233792,0.1563428510514295,0.014493322213223015,1.2514722335726118,0.8091948119225848
,-0.5830805426775911,9.240332672029902,-0.025275976470497324,-0.07063420997165376,-0.8992797160473353,-0.588706094536097,-0.2219520160622184,-0.41068025746739767,0.31114927765274536,0.3379791236926206,-0.03843612842202792,-0.06617050460909384,1.5760932430519554,0.16428902333487613
,-0.48788569276117394,15.31091462900673,-0.034947460642024294,-0.44030914607148397,-0.744733273577203,-0.5738877893692226,-0.059955921992205445,-0.2451458373954114,0.296517623000589,-0.05719066468077412,0.04722576563276964,-0.19724369822192822,-0.14026595331427968,-0.09879989450805218
,-0.23270823396711088,-3.1657068753432385,-0.06042780436842275,-0.4364387308985632,0.28584067982686706,-0.4655724026545137,-0.31836719737071445,-0.41746400433970937,0.429512518942691,-0.23984521677863932,-0.4005678792673477,-0.10008830879358187,0.731298046580915,-0.18173170444772938
,-0.10702063954119351,6.40613551053628,-0.36852698469497325,-0.39423694310667146,-0.07243216302883135,-0.10018554941843223,-0.2110264977105079,0.3437033961727572,-0.020101849442725667,-0.015239471841598913,-0.22376413597364578,-0.11457619281239807,2.896991919732531,-0.1673147180278448
,-0.14607101554931096,15.192216832438179,-0.07897392839862159,-0.5597414593588503,0.5305584562883557,0.17031093160048746,-0.33233631258104923,1.1073386527282847,-0.037305816768048575,0.9314297504563082,0.6575608724446915,-0.135338068658977,1.9722339209585742,-0.28531169006066914
,-0.09807735964571482,17.341285686725907,0.047262762015244195,-0.589522205603432,0.8461666201848544,-0.10695692190858244,0.20327614698432198,0.7622924172845406,0.28421527080262554,0.15784439505383074,-0.1789832163162336,0.2330805833545178,1.4522371005167292,-0.3012014447424008
,-0.31725241527856135,10.376038489423356,-0.07350206456633827,-0.5110033869550681,0.17171834322252205,-0.09741404505225428,0.8050477277914909,0.7410052727394398,0.44627676835641544,-0.1798906644352124,0.0027825822103691887,0.4110952835795472,1.2143416013112052,-0.10291166684000773
,-0.08858485692410381,20.956018245204987,-0.0396150759588504,-0.2441528933181196,0.1412645500368307,0.3188986837993532,0.5643671401374317,-0.06494703268227908,0.214508595647279,0.022312973779952068,0.7705405971739314,0.24338618598539077,-0.4053797437148456,0.3860114388166043
,0.318379929650826,15.764730428528956,-0.08379343862952875,0.22479215459845325,0.291182425703422,0.6834118473958954,0.43676955763201375,-0.38530310145535285,0.5382967756078648,0.3357183839906054,0.3379595311753858,0.0025376457841799144,0.7891972474888677,-0.004373988633326562
,0.4661005301118355,16.72764553008057,-0.056160685241127675,-0.01701561439459555,0.26776870237533923,0.5630826568754013,0.5475896008638861,0.14895309886574332,0.6595168656572343,0.44265276631143347,0.40653871898883753,-0.026652107334275893,1.2811650587556065,0.0629729393944201
,0.038643589325764366,0.2511691278691045,0.12839774709186905,-0.1413064894417807,0.6323058466331054,-0.023109719500111855,0.038449613268290495,0.11888236873956017,0.279183357297565,-0.1703150636321874,0.8320936947345854,0.038315858094468656,0.2525609930315066,0.615870244333702
,-0.16535279103494416,-0.5563065563366736,0.02092490513058952,-0.1363076517998136,0.22526859455550802,-0.2323177501221835,-0.15221771283759933,-0.24959629232867994,0.20594251113098552,0.10147161694762186,0.1391823067512002,0.1266025751374118,-0.7564364243611856,0.21531867858937492
,0.11252029189892233,2.068507788086256,0.21065768083481134,0.014384360313540994,-0.06219169238085746,-0.18390704006261763,-0.26503397536336254,0.2895669162769792,0.24589758880751098,0.2491416902826775,-0.054528144190225884,0.09987537187388754,-0.9547592418482784,-0.28343951603571227
,0.27823228482501233,10.262383487386558,0.48968841497902743,-0.051143781903412205,0.3430705845950019,-0.45023107299157983,-0.3096437264840055,1.329715340692425,0.1989498796988971,-0.33568339133189545,0.0519057952946901,0.1659996563374422,-0.1084596075073316,-0.20539370987400524
,0.49060166176599745,19.7904559809724,0.6027424211166541,-0.00023549024920158635,0.9730151488542468,-0.075094696825915,-0.3072880528737465,0.7815027766309196,-0.03933736988534235,-0.21707562697842675,0.19418514490592673,-0.129500855506983,1.8948257052916113,0.03736606178691977
,0.6668429011333172,14.64658055755994,0.4984021761586142,0.24204149878119285,1.3812106447021089,0.1406575447147287,-0.6562892686557394,0.459572915094106,0.13831898657244426,0.14332019343800023,0.1880796011628702,-0.2414453822053387,1.8995490658129521,0.4969355710464333
,0.20445633135574698,2.0923839064734193,0.4566946077103196,0.11120159831877378,1.8848500574036355,0.14410929592523372,-0.21180563324764667,0.4428027167726931,0.279417236851265,0.04413323293586219,0.4252231865608019,-0.15291531740598924,0.46809376356745847,0.8451039829986462
,-0.4332038655609086,-0.3716090952867876,0.5937794409479649,0.19412657106336878,1.6108542238903807,-0.059975291680768796,0.5023456147072447,0.1454492984460312,-0.050334618520877075,-0.2799191228181131,0.5025143092142812,-0.02195352599905781,0.8141498897737995,0.27560185949998117
,-0.2074328900986577,0.28979516916964715,0.3133939337494681,-0.044431455449912435,0.5685250544715398,-0.17752433086323982,-0.19019545078333988,0.5004011765546765,0.09177059095480804,0.2963167683575974,0.4531248496893224,0.11545412382688469,1.9181157494740455,0.2320000319354664
,0.1339600741931567,1.3724299055466307,0.11660482231161996,0.011266002560296275,1.187131248521939,0.08712858823583305,-0.41267591536160686,0.4748952505203056,0.4731393102584433,0.3975849524443497,0.6787234340593,0.12696033152699415,-0.1975397002956865,-0.0024916092636350306
,-0.017749270264494646,1.1071631464892557,-0.0639814218390396,-0.10023463579565543,0.514107736784695,-0.31211237056306645,-0.12362106292752187,-0.20685066524953447,-0.30228471901826,-0.3717935386871717,0.28575267653730474,0.055325301377758866,-1.4382609255682397,-0.07729289805194364
,0.1412781225782748,-5.464944312794724,-0.13869662509012196,0.10157968063103587,0.5426580182919731,-0.35640026790360546,-0.31204385359174275,-0.6273884804652758,-0.010455327781462201,-0.07074446979236916,0.23981066705942258,0.42782205696467795,1.005391663080824,0.17986276923087427
,0.21909788110995723,-3.7217372654145886,0.3975287606154569,0.2666063032399149,1.1491265110909257,0.23257202464088036,-0.15337045298675733,-0.10389875834272869,0.17568858177024446,0.5869236445551764,-0.5544466504658441,0.46595285858584445,2.604652368540582,-0.003621347951687822
,-0.09168705989256001,21.139271175004126,0.4041539956023908,-0.2884814562937713,1.1464253697974405,0.04689039443450584,-0.4214246506255323,-0.11497134499430978,0.09222995074531568,0.24228838598654595,-0.5797576449358586,-0.08384994136877706,1.9054197679900868,-0.26660886867915246
,0.6160307512114628,12.8244472605047,0.44738157034776627,-0.23431505397588653,1.0343281371895154,0.14287464041805237,-0.5516238451883392,0.13455528066983166,0.04127537151250247,0.40518450661054567,0.5565122238002629,-0.030667237504965843,0.10243352033250211,0.34422321534551575
,1.2240069306672052,-3.7060443649403876,0.5170627094121462,0.40037918697735436,1.1395220604255747,-0.13988797558720167,-0.27739871011186124,0.2569459309006341,0.2150950546899166,0.48165610585635116,0.5896019465018989,0.32896790605175497,-0.5722912275984406,0.39987818556898114
,0.007552248104315386,-0.22770431078705472,0.14748779197963663,0.5630127259117964,1.479038982015996,-0.15999891229334867,-0.15623340623334733,0.7391664092918687,0.2740861810928754,-0.00965402265522724,0.12067332751617822,0.20370048160266493,0.15994063424700153,0.6161483127951046
,-0.2619023416902542,-11.661635355444563,-0.009449911851054829,0.6340389539973521,0.9914625761069636,-0.18861478275387988,0.10594075516944872,0.7249317735958074,0.4044455459900382,0.16349080829159035,0.375128777409788,0.05629583643374738,-0.8140125224017877,0.5522686311132334
,0.11115287483916034,-19.239558167126102,0.32545949776992533,0.3458084950089409,0.7925396456682932,-0.19927468851305266,0.022858341926781968,-0.004588279303658869,0.3685264111522503,0.6810902033342149,0.555211168481673,0.10634351147791837,0.9539526890659611,0.47018862423885743
,0.08417424633772286,-13.02568594521334,0.28794816273176116,0.010771666373876517,0.9518418501854942,-0.07631024825607516,-0.1755557451183712,-0.41816166329657184,-0.045036369063976886,0.5286068902666738,0.6630958630897219,0.08114869265688743,1.7308315879503757,0.4015559588942919
,0.33524505290071277,-21.146680943416623,0.036802054828006324,0.089890814047482,0.6456863805587623,0.16570306702249307,-0.2622698977884964,0.12560159241808197,-0.3179018449511246,0.388419122449997,0.5221223600876069,0.3010120245280905,0.7395967805802521,0.23006580278492372
,0.5564841558509396,-4.957993935512246,0.19367919511914516,-0.2488492031396337,0.59813163358676,0.055657971433099834,-0.24547501844038994,0.23956226396186447,-0.33429668910670585,-0.18962663456012116,1.2352408978749045,0.09797543783947814,-0.8435065269542262,0.23933497894195008
,0.043627145726867905,7.959973106770951,0.24082455154027024,-0.22807472962655984,0.4124866053909437,0.11346387961606627,0.037797232132028444,0.28862942109980305,-0.15300385153215015,-0.2502454935809874,0.8713522862865398,0.13686129804463318,-2.015981159975165,0.4794080974449782
,0.30488618899343606,-8.578917575359553,0.12968362049330595,0.6116449842947356,0.5279874754701271,-0.14389668753887822,-0.05591248092685051,1.2337990230286713,0.12620767760920842,0.4223010254247436,0.07822653980329064,0.16969660006600315,-1.4520305228105497,0.3596087721106376
,0.4976722959067683,-26.79498359987944,0.05108208966472117,0.7749704849897429,1.1129781498794782,-0.05222356661581092,-0.26275125741039246,1.2045900939258296,0.10053140463230677,0.3115233545527075,0.2164832514573787,0.11627413611899597,0.049868355138679245,-0.22541491235966976
,0.7453287243752516,-10.013490869020771,-0.023067502417758113,0.7837938162012241,0.9093782209326632,0.2505631869447135,-0.022941402370733506,0.9701230881505898,-0.030747233690877396,0.21950094781790486,1.2682912396657562,0.11586717703811732,0.18391079518588485,-0.15836015339204068
,0.23388907374191498,-20.7832882276023,-0.05327261321539273,0.48320896125380275,0.9475520619074936,0.4481340325858724,-0.26127128113157966,0.6544361347395284,0.04941351024136826,-0.16719724800591307,0.9942380550344057,0.16207826207443574,0.04673602792919446,0.1766233537053766
,0.5718158649754287,-19.37767909836124,0.18651153293667957,0.16990537202935602,0.3696585270555703,0.46724586245439487,0.09335105263410044,0.44083284549323287,-0.19177236934249167,-0.6530428153159811,0.0688925757329348,0.12944740709121136,-0.10148920111652096,0.38597218463814914
,-0.0035035650457610453,-5.8859093150026505,0.14464267127085775,0.23986040306288808,0.5303213511976168,0.3037409419655264,-0.14041703629685032,-0.08158391217212807,-0.3865816808144551,0.0883353107676029,-0.4921370606053258,-0.11307426688898593,1.6782826762065786,0.14204435971627705
,0.2693182860148979,-9.828979949192261,0.3019503303796005,-0.07281425665963585,0.9032761975747049,0.06537109392772955,-0.07298841120376111,0.22451448474258612,0.07700715992638277,0.565132540018854,0.015611182151498168,-0.1603023037510415,0.41278874296085616,0.30872858991252494
,0.009471810017576235,-4.329885404150936,0.41370784067381033,-0.15684323631309982,0.6864759545810006,-0.2907371669416112,0.04524270356701725,-0.21494890526782698,0.23110989387753525,0.07163141057511904,-0.07427793837769141,0.013024901843922307,-1.5172540456180579,0.4138177439262933
,-0.5837576947716118,5.680387003195705,-0.05562016917600884,-0.16160409177064786,0.27670727963742836,0.0913529739102687,0.08009477386473088,0.07601342685338536,-0.08896947649775726,-0.19050203845658764,0.23524092502895289,0.11792411776565365,-0.1955024279200202,-0.002522145414942559
,-0.4486352748469568,8.282742079093001,0.12151277085948178,0.12074425184505432,1.3861432059913714,-0.01581453402963194,-0.113230211108879,0.2761820810113797,0.20747260995118616,-0.024578646434972255,0.3334740536843746,0.07165626644117411,-0.2126470108691794,0.17459797882314695
,0.7570756489552598,14.99776067264094,0.3898364043091976,0.13154793498228104,0.5259200512592876,0.6632635923107848,-0.07185887686042369,-0.03481226807895694,0.162065624204295,0.2904429434225279,-0.0936139345036102,0.09704253293968802,-0.6591462398975098,0.41241223194302407
,0.4992979297144088,1.2825737488497446,0.3099798631368993,0.1616920403608072,0.6648690744702278,0.7447413586397956,-0.07643434421467424,-0.30805289210323905,0.10996675584018897,0.29454695910213574,0.7564536375549392,-0.0910204164530713,0.007821067476567304,0.27401389975666707
,0.3210441753783284,2.8478265696436855,0.21117657077119562,0.08666393222713109,1.2194160105277667,0.4664197701363202,-0.43894493605118085,-0.18884402460505803,-0.008866399992633148,0.24299385805338192,0.7344401823747267,0.23117097529259034,0.26101943193667815,0.03979134479333675
,1.0310890185054629,-3.852878669078936,0.33845353825969277,0.14955481004141127,1.4541585607670966,-0.2975467260401901,-0.020602985742361395,0.37880358017633475,0.28908307902735775,-0.3436337128145655,-0.127829569673443,0.14520400580694132,0.19546548759330556,-0.35221719900854837
,0.46341770563510565,1.0047415246780798,0.41223873730394794,-0.009433770114096749,0.6173822047506744,-0.39669259354483877,0.3931852934471365,0.6940303402777614,0.3563349388624618,-0.3989464908897235,-0.21869949715221884,-0.09114489906259905,0.0748087383082052,-0.03288511306534361
,0.5259108813153934,4.181191346506156,0.1995703762550882,-0.1613100641337678,0.1172582720601849,-0.19381600411716166,0.05355780406394696,-0.37734293056805107,-0.7265166617751809,-0.35836710620259693,-0.3115389986531326,-0.3239671755267261,-2.1869513788270454,0.37503503590749815
,0.23611112171397597,18.572162228738858,0.11303273589092064,-0.015177933021426122,0.45801519208491936,-0.014816819720181453,-0.4559035131088177,-0.35076055018650154,-0.6864751425037229,0.07350648688495202,-0.45834733833775326,-0.34720590986673844,-1.3750799666186555,1.19313905999933
,0.2259339471395917,10.290325476907816,-0.018475206511747725,0.11543609415555772,0.11713554402555534,0.28915780768206945,-0.10336564347478876,0.17455273127739468,0.3855476268771869,0.824137028974518,0.02730290349505923,-0.04375006494859946,0.22272265691665796,0.7662472142455417
,0.3255017157679281,-9.531414357085213,-0.018571500057506747,0.1968083240475608,0.4409330515605744,0.5458504358012396,0.37861212236747493,-0.2545391114410431,0.10656217617776385,0.5133863121438801,0.1619350571296986,0.09014756428231467,0.49964556798364335,0.43338415608397424
,0.5716356080611738,-11.918972287068975,-0.16413422547103795,0.23151330205698287,0.7274949805960945,0.13981797299356405,0.12028769298772758,-0.019607003934782374,0.29653150450992416,0.2626154352005877,0.18311999127981105,-0.24065816498359485,-0.7257302960728471,-0.30059172954959434
,-0.5441826260865353,0.11197669517009479,-0.07689266886195188,0.0397085563302889,0.3092433147208233,-0.33832618410734355,-0.23227712467657635,0.37667850778711165,0.33212189518436436,0.39311144216026184,0.8317920358178199,-0.22446537056187849,-2.453135002356793,-0.3029834533746348
,-1.0174448523615236,-12.17243759432796,0.08737594320561395,-0.35482724617018235,0.4811751760045638,-0.005909141920029122,0.07349428944967877,-0.2349184683296405,-0.09084142510886367,-0.1407755803225118,0.31490191787793637,-0.0033756128258719768,-1.3265485748958254,-0.19956705261036464
,-0.3207337586629572,-26.298251917473767,0.5917757706002615,-0.30944940899895684,0.1082974717452262,-0.2407377012278576,-0.019314280511210688,-0.0046242656050147195,0.016115870530658105,0.19574085820273318,0.9633474552986079,-0.19143822425345725,-0.8919079285589415,-0.03835352343945579
,-0.35043982326960293,-5.13374197512314,0.47201750350582516,-0.15120522069403353,-0.1480116344049094,-0.5962161428123283,-0.335126921311002,0.19443129775710108,-0.26994977134300757,0.4595246443718795,0.42835990117139433,0.027527336624018073,-1.0058829978922335,0.0812927166284833
,-0.6675867581830841,8.007962798899166,0.1895684175450757,-0.1499551576521138,0.19218852901504982,-0.6867940595746863,-0.41910494678956606,-0.05634275460056051,-0.24323567021287454,0.13505468079335672,0.16016475017918796,0.03987338541537048,0.24254028093397983,0.19608360065843022
,-0.3968515757362601,8.043715917039076,0.08354653298611425,0.0836288931755754,0.943027515094439,0.2506297137849691,-0.19225746848944367,-0.378877473400494,-0.4320316321903612,-0.07143564727263274,0.12101644312784271,-0.12289884311239525,0.891436767259933,-0.25302366247922475
,0.2692253188761578,-8.992148539246562,0.24139751192436973,-0.09398848722256274,0.5306372122794061,0.915041472869865,-0.25495413929588023,-0.3967854957170702,-0.5870389389589352,-0.03829076341855919,0.06354014174300263,-0.16702354217529,0.74750504390302,-0.1519451683355788
,-0.17594691528688525,17.04458758624414,0.348163593554145,0.06579721145768683,0.31320412867045,0.015587438485692611,-0.23200564814521343,0.09430879191374768,0.11648140205398784,-0.3235145864429195,-0.5958593925268362,0.0912489448418636,0.9158805481353027,0.0016119501907115694
,0.03306108203207833,19.381059666191874,0.15319769960334734,0.2973945020745768,0.45016052858811095,-0.49025030493593214,-0.6311796496231449,0.15105827227911345,0.23437088376379647,-0.42097938930977186,-0.8521637194009757,0.4057183004788232,1.2547820681693016,0.1968432319329949
,0.3927528357870662,-0.03376313862811871,0.04689389166604376,0.0066865773201403335,0.7534221519784666,-0.38195187107288214,-0.25726876147419586,-0.12428553567781904,0.1421121014295373,-0.38507692298460805,-0.531503161418373,0.2853882013449342,0.40889770423935407,0.2768007898486336
,0.1683710732576871,7.843855271913198,0.1410711998356509,0.06530365862969792,1.1186202452090637,-0.2696043171920878,0.22049146953154697,-0.42026573461562095,-0.424731661105752,-0.27654338688473135,-0.24981465750933968,0.2720669758572838,-2.974665139970744,0.40976258265430826
,0.24496208911046388,-0.5174826216648148,0.050984627898245864,-0.17964970512746176,1.0337925051603458,-0.4022007525686627,-0.41017930617900544,-0.01819798920308889,0.11442410868894272,-0.47299751040545773,0.09016161413115428,-0.11226645732878912,-1.1981203022842366,-0.051554967487995075
,0.0668357055651557,10.797203273244092,0.22630317772375272,-0.3080465654185742,0.21141234130533815,0.18742475862182176,-0.5696068462483177,-0.013227655016811973,0.29664029186329516,-0.3596637760598493,1.0565663120751452,-0.11202337672107415,-0.4372278303661792,-0.24872857862538714
,-0.09517661609679362,7.55627604624659,0.18760694360516306,-0.2913448151524158,0.2284038425800121,0.48940807240847906,0.06044126094580888,0.03682469887602871,-0.0726247571806621,-0.30202024574415814,0.7488337535248536,0.1755670523326687,-1.7265417382565746,0.15012725979463165
,0.4565381512391128,9.213659115030604,0.12935789901899702,-0.2076071698441028,0.3111144218251164,0.11971783925098528,0.4802079136523578,-0.4272327750239501,-0.074191133551284,-0.17432984880134475,0.39831512384627077,0.28259268935207243,-0.35989418025519715,0.03894627832270269
,0.09827653651739579,-5.7382289177992085,0.19393936557896166,0.03111888444709348,0.47203071212125,-0.0632487812922076,0.13636289012927147,-0.30307852259566764,-0.12375496099880526,-0.3542801938154094,0.3386833096667986,0.12502050237322596,-0.579649562841513,0.24504659621994238
,0.1894306479751901,-17.942977468719693,0.24895971611846485,-0.024241729611725864,1.8158095020339189,0.16578706310231042,0.11908048928780851,0.3207477644653069,0.36997191091805626,0.19981410998744584,0.4412487231464532,-0.044683528391046695,-0.25091444508768235,0.2976660720314444
,0.11755026900437718,-2.318738444626251,0.27873331504186555,0.216225337418435,0.6357677002113484,-0.3683668089210117,-0.25197903732702304,0.2691312065460903,0.25984729404935114,0.016969690234739612,0.1784407405742729,0.19029712623123834,-0.04379228445338479,0.13915718458011586
,0.1770538439670671,8.658180064411656,-0.056905693787981056,-0.16069990983206292,-0.004037331036439437,-0.29466632562258127,-0.10419613798614524,0.6525282268595155,0.14927568192010893,-0.22983901116414868,-0.5108505095136683,-0.0010772724790436578,1.0390174630025528,0.6128196842981889
,0.6674760298640239,19.715955368178086,-0.17572850758937328,-0.4551843590559241,0.13863619416395134,-0.20599578316769515,0.11745024897413019,1.078581597225549,-0.05243211745913605,-0.2052504909748295,-0.5669235966736633,-0.12212314811432443,-0.1529870573811847,0.4466012066228313
,0.26144534603337005,14.961801915204415,0.12177169968642378,-0.24454919964275684,-0.2793962723062376,-0.2392110947309155,0.41637758226642496,0.24514919944975175,-0.19191251475185286,-0.20597266991339885,0.012666586411491576,-0.02852362944045446,0.5280436568031143,0.3676125040914495
,0.515814792934442,-1.3979299474279325,0.23407018871862437,-0.1055528854131347,-0.15210458305325997,-0.567608406895673,-0.06545087036267891,-0.06298471280356274,0.10956907175625888,-0.27068788567914176,0.5197980914334743,-0.09948630081905378,1.6817753151908892,0.5354935145309715
,0.20931904578919566,-0.8244080107384231,0.2469589095666145,-0.036697697486684965,0.00734703761131149,-0.5783969329568738,-0.4455323803514412,-0.315788470872426,-0.16094535759457493,0.08335968540741587,0.42364239391271846,-0.08695959495276705,-0.19093326880228323,0.5793272810995058
,-0.3381925140229927,-18.021316967464898,0.03920325507776595,-0.22438197043058308,0.496730068605018,-0.03099453453264847,-0.5173422099294963,-0.4097624536171043,-0.2519550318048436,0.17813035650727432,0.522389766619164,-0.04521174246597276,-1.7660943742339852,0.4803555872227637
,0.0543606589081558,-7.954455376148481,0.09905714503537587,-0.11042985304965751,0.95434482901024,0.4377080497248057,-0.11082641421949697,-0.26950900618620705,-0.4194454235864137,0.3530498380376569,0.8235128085831745,0.02274731186934527,-2.1288447783179136,0.37250511504940775
,0.15770057189475917,-0.3613564197881829,0.016040099580915693,0.24457485605221355,1.2739232671334493,-0.022849151859756788,0.17038117361099545,-0.1640100484434159,-0.40015219381699335,0.11011566758531321,0.36591620851398377,0.008189423920460372,-1.6223380150409006,0.874532950124869
,-0.281789305033439,3.768301979051027,0.052822030226660925,0.23110352795883157,0.8524248037917159,0.4053676488836296,0.11092404958920274,0.2356068256648814,-0.1788036199723583,-0.14302905829909873,0.9320679492107427,0.13523174447330608,-0.3710717672196261,0.32072504143322655
,-0.25153730452302947,15.313682119069929,0.44493302316044947,0.21642638387917382,0.5849208248353166,0.5156228609374989,-0.06354542591692089,0.11527819503689721,-0.29408042166421694,-0.40143571144395057,0.8506759044099154,0.12983541900501686,0.8513298374068918,0.27411948356766813
,0.5646765373740149,17.98389936304516,0.6974467710111257,-0.024554478647343312,0.41256773414847947,0.48441335460241625,0.32561754133437687,0.012835807467898192,-0.49648267688187847,-0.45767960052417017,0.05421455750429464,0.27227812704886745,0.3612969852219307,0.8413840345444558
,0.32148292753246005,-3.696604503085039,-0.008604902680129364,-0.025642523287281546,0.5868034578468361,0.3242959557044543,0.18722512030142832,-0.14284607808772554,-0.47777690501768455,-0.06635194824462155,0.09350049144033837,0.05557506449305785,-0.37656100656089314,0.9564448590216077
,-0.3142019293462524,-11.309144703738147,-0.2685702953366241,-0.3356136518623908,0.6991306137490518,0.3146991661614247,-0.08520135127366424,-0.5036603446863016,-0.5420037156775493,0.25685538197661406,0.9369871701745734,0.031671721603340246,-0.3858478068345884,0.44853400831782675
,-0.35618206774406447,4.696431087786414,-0.15620488565247595,-0.37891036392186855,0.34831440585634366,0.21320854563762875,-0.4232525922654388,-0.3964536699215123,-0.16013973925466177,0.5598837425066864,0.8811739682930522,0.3926091386961615,-1.306062709418264,0.32345603479989304
,0.31742863237141306,4.23887015436835,0.14080227501956474,0.31769024879092655,0.5472061997366586,-0.22241548135825132,-0.02937407406833793,0.37692215569492216,0.3525328703683464,0.6058954800001156,0.5128835330867094,0.24939526959546823,-2.0014429612260014,0.697618802911503
,0.48104215196021854,-1.3096602225881937,0.33582239136677516,0.333206445401727,0.20151146076631904,-0.27467448465635697,-0.06862808328753689,0.3815250207473304,-0.33774227948200947,0.4336710099835302,0.9078588164938955,0.12671734896375209,-1.3377634669816747,0.8378515494881433
,0.2803221043020059,-9.453459802581634,0.08229604504751406,-0.3945660590663066,0.457769079907499,0.22426437019692544,0.3253267814475643,0.8420362950270456,-0.1341425152020521,0.20836406707446817,1.3320602760727795,0.4786974783824022,-1.2807361686411844,0.10550224913223465
,-0.23381822155788765,-32.25355232225817,-0.2979962359575188,-0.49851897838913745,0.7908208098038981,0.14771081748334763,0.3124689478098721,0.6329135162714659,-0.40234402484806264,0.026665264573455097,1.0203658732529293,0.6083135498598209,0.0965581581768904,-0.031167223138198474
,-0.1277923772507892,-28.637347225314112,-0.23870882992436956,-0.04163864289517963,0.24410799579691778,-0.177232733818915,0.06118123215590594,-0.09892284954448005,-0.2130076288046454,0.2862795404657127,0.4871908893605759,0.43817302463879276,-0.4774929619765721,-0.013701059389376158
,0.6740596134599154,-20.967462664897095,0.09600402581919014,0.011560888767146928,-0.0654650051119604,-0.18745712310511226,-0.20686976146584063,-0.031052414013225563,0.16703080426278585,0.08215368865920597,0.4011651799059305,0.34261347371783035,-1.0305308994971254,0.049968087407398
,0.548321055050901,-10.438029979394763,0.17890940301386754,-0.0022021751381637983,0.23109559228166227,-0.052573512690499744,-0.1283950142746217,0.12553116895627756,-0.03460230626348413,-0.2335507909241599,0.10809871144985218,0.1443963957113566,-0.40202576060090994,0.7636547715492908
,0.9969115379471777,-1.4710184690783996,-0.03668026521274567,0.46748242193173284,0.25248761678177517,-0.2816536897591256,0.6960671655539841,-0.15582855594103237,-0.0657843468124699,-0.10753995598058473,-0.40030678577149165,0.05756538785550517,-0.890168802865165,0.4070621382792294
,0.28642449335625286,11.56635199031715,0.2556573065235736,0.19231834036517576,0.4377367581270101,-0.556392649741182,-0.3150204047114787,0.0003325059201214903,0.26095741306801074,0.7077220315425009,-0.2576365867384053,0.0989207990551123,2.3485035774427834,-0.18820835772166739
,0.10099201880589366,4.864942672278998,0.30704913636922215,0.2988292486673966,0.2508806693666783,-0.31187966026371783,-0.4685576842764157,0.07286835852566051,0.6557990183869202,0.2572989482782491,1.0398602985939576,0.1163667090529299,0.6688839605878499,-0.2586079215012143
,0.43463759569156374,-7.275673288734746,0.25662013361978603,0.40870857204594746,0.5006663320790072,-0.13446283890754399,0.15197623633711094,0.45109191285013445,0.02773811984663002,0.059459797510292275,0.7139693833732146,-0.018136495359005068,-0.7156856342069203,-0.016503026768704753
,0.4833898854370577,5.602048326262571,0.13206911378865355,0.06518263982412369,0.5075085681385652,-0.15909256396796873,-0.25010459424485476,0.14172940505669152,-0.2936472765790426,0.32573195857415027,0.2686329652063875,-0.17305167379551184,-0.050528930374633185,-0.0029875677343219153
,-0.11380130657518531,0.2615219483112423,-0.04577324354067895,-0.00785823234269317,0.9738745582344023,-0.0364736113894738,-0.09300995488141216,0.1667423814908684,-0.19614841551926573,-0.010184537868147566,-0.03896091441202035,0.11618446619477932,-0.34610301008520666,-0.06600104703622929
,-0.8489184522951376,-25.844802122065268,-0.12240396970458198,0.39499446932379656,0.8255442677695431,0.033918412561184004,0.8470808414379017,-0.2067776299263367,-0.21251399162946974,0.28010177790211527,0.5010398597475868,0.29074290125447155,-0.23157415408055892,-0.1219992842716131
,-0.8228087779151476,-18.45799124717537,-0.2365116253755983,0.7776147637280878,0.27018145151588135,0.1724284037089287,0.20749119738224714,-0.008873938523906342,-0.13992898075489707,0.5733859109139562,0.50128860097938,0.05013437148187251,0.11227755648648141,0.04489720593724658
,-0.511574895709079,-13.152167020055057,0.09938668798509159,0.49836919928033785,0.3338017600669617,-0.21787045197865176,0.21583802190362397,-0.4577033770321593,-0.18459716418223965,0.5991462996908485,-0.09907400654816073,0.24155711973428418,-0.30800040682687474,0.07011297771737497
,0.203034457057023,-21.44925283841819,-0.10752778662977878,0.1181143230360593,-0.05654760176959055,-0.26204936479803653,0.07601658079524432,0.025905533654424762,-0.10502388962563003,0.3220477932794415,0.4595530198286047,0.15649157681867737,-0.7949921569416586,0.09825151808196579
,0.5466147825328797,-37.89545276577309,-0.09254573367047723,0.12018530627340197,-0.0556052967226405,0.22276376192583983,0.30809008814677324,-0.2852902463011848,-0.16800395447057906,0.14581762443918703,0.8404609186850842,0.5195676739865198,-4.553961861285799,0.6439255746218082
,-0.038782232222792326,-37.03851440774594,-0.06346892178280415,0.38862449813863265,0.3771161940462503,0.3382402804136713,0.03693343598697569,0.07830122335227496,-0.16568034009508312,0.08777650844777517,-0.23446294478258056,0.8847698207447239,-3.7924530213416374,0.5276766573776954
,0.07744068632791097,-29.95851919076679,-0.18306028584514525,0.23996674529879616,0.521136844561178,0.1857751496774332,-0.1226319889003909,-0.06464172806491386,-0.2707308216489662,-0.10930203856399931,-0.7767675057388801,0.22200788502608002,-4.080502382265652,0.5241632476335372
,-0.0920812228257736,-14.921234292614505,0.13122913678392822,0.21774982540826365,0.22579380994998155,0.364455220190376,-0.20558089949042233,-0.09428173571101955,-0.45280669106672927,-0.029269541213034968,-0.9418282491405948,-0.001562575341712333,-3.379910632763165,0.2730023799692492
,0.010306708400225979,0.0821710394702853,0.047144445156945713,-0.15206231808803627,-0.08628239885242073,0.4123478377072108,0.18223338502428618,0.3506654752681967,-0.7967484374787018,0.14908562971603614,-0.5330086264529187,0.04503241857572148,-1.4076115406426142,-0.10804633819785522
,0.10621963933488494,6.964543822732567,0.20584735533021864,0.3291597079451583,0.45927060853737817,0.14061651962593216,0.07791445650025422,0.049163227376351794,-0.7363221208506018,0.05633446456958248,0.253728194840127,0.050888753003742924,1.1405917722178063,-0.17852933191652234
,-0.3217029956363914,-8.326401126069657,0.2209644561674587,-0.2245478192882007,0.3228539192386119,0.08486339189797883,0.06517949827209837,-0.029042712651006428,-0.46048442793277616,0.6195105822845031,0.3585004325480154,0.29829107699605983,1.5239161855939567,0.1480748409801558
,-0.16044480820637536,-38.542692401151626,-0.1639704222451679,-0.07429679984627319,0.0588973658357308,-0.5167018528121495,-0.4000598335567413,0.220707063454454,-0.10357003388349285,0.7063572517700842,0.46890134922105997,-0.05040500556834057,-0.08891637892496296,0.32608383159011683
,-0.50351081060783,-4.600200701009816,-0.572626397607254,0.4833124808788976,0.15861557358302192,-0.8138959782342507,-0.20815841584452305,0.3633252166158288,0.42398040175136587,0.8887105578796894,0.044205331789089225,-1.4131644739283462,-1.053870486976085,0.19426707033380883
,0.08173519926119407,-8.579454224133327,-0.6430220697226182,0.7145064738672128,0.39182800691453784,-0.23068074438085198,0.4136592873221449,0.35937624860250234,0.403747479558726,0.5032085926543998,0.43902362310284654,-1.5989849032377057,-1.8136987686252566,0.6116447408040263
,0.8919310303647816,-7.665262165858832,-0.19235927026684096,0.06811481967089142,0.6303721597867109,0.9338717400831505,0.6390639958965304,0.2332004546352233,0.4214132896581753,-0.027181016875781467,0.28311427651741855,-0.766146071988096,-0.1342408525950386,0.8768286806716395
,0.19604720032920933,-13.147024530225114,-0.24474893750110974,0.17969140830498856,1.8256747654275376,0.5858355797075393,-0.002417676496812984,0.39163703707810227,0.8300597046094398,0.4043111650351192,0.36875206810008054,-0.3206109112723765,0.34482132718178343,0.7864204627141066
,0.17799963692187099,-1.929271309199196,0.0556551434321046,-0.2306727781459665,1.1734384355847443,0.49041664162713994,-0.16043417232799345,0.28743817068332145,0.706308601285697,0.49712779841278376,-0.006723485556880765,-0.2995374065159666,-1.0663917342619884,0.6051520187563424
,0.1666928309185395,-10.555897404084464,0.12848456983511386,-0.6355448301034818,0.39621888364540797,0.7294301513866918,-0.01892675518006918,0.34341970539169275,-0.03797687569236839,0.20777348224648237,0.04168659772269931,-0.126040852554743,-1.9595164149669495,0.8268508021345512
,-0.03429270489810084,-18.92647959590615,0.30756056003073473,0.09579658884230456,0.8125686337349846,0.36698888032799265,-0.05207828051039039,0.21599503059715244,-0.32302677231851623,-0.43278364750171633,0.1373663984280874,-0.07473498217341834,-0.21420208314479616,0.8310581820171877
,0.014473136363538234,3.6394466986187233,0.20405537920089517,0.10666737744813178,0.8414223501739141,0.32257305282384025,0.035937544953551365,0.37459439062251104,0.2266130844157486,-0.40827962767473536,-0.1547948297061672,0.008296304855377447,1.0206802584120194,0.6441923214201872
,0.11227623862921277,14.325708402320803,0.10377089067862055,0.009941350767010476,0.14371604302625957,0.213901922958284,0.19919811414910396,0.2031122438730183,0.1152738247270307,-0.023183396473715638,-0.40254550158412944,0.121891043992672,0.2249632420882562,0.3529020280523616
,-1.3261411251264958,26.94297847193706,-0.18263042717042666,-0.5629326051185972,0.43911696124972605,0.456228041153324,-0.18355668330301148,-0.7056249896840604,-0.08806389380520363,-0.09928662960645739,-0.00021151656155102752,-0.12327517589395795,-0.6995053865844183,-0.6823036125778374
D,-1.473116550270148,39.67713829747448,-0.08347344839844127,-0.6439391380819492,0.3471387004722307,0.30345296428028296,-0.33092294336134614,-0.7512711309142192,-0.37369010312005924,0.5063647309562069,0.3903622064011735,-0.047191146026003605,-0.8150066881361883,-0.7984433405747172
,0.03965082661842617,17.522707702894554,0.053035818993726926,-0.1007642513365163,0.5431872621786356,0.30195866592369697,0.1958197798470716,0.015295350652885117,-0.11045037735921942,0.15988157282232593,0.11855692825732171,0.14476151443605928,-1.6319572569193028,0.08371165760851447
,0.40425563685838745,-0.9832576872266736,-0.1436731817533883,-0.24023194807676712,1.0697548578899825,0.5139287862094143,0.5401510963925464,-0.13163170123187692,-0.026486112891076614,-0.07938605027434341,-0.06470957520449154,0.044616130617236356,-0.7941311075459907,0.7726676692918484
,0.3913647314483291,-4.012612318896814,0.014638041909800998,-0.23744005943854962,0.8015014170539908,-0.14221647158982112,0.014846107067817828,0.13113587918656153,0.25444779455017397,0.31376719051753277,0.3699472771505266,0.1980380829498605,-0.2759402595795313,0.9107609152601589
,0.1179979151341757,0.4370339558530628,0.38676806883387654,-0.36118248050232044,0.27694264567402077,-0.6366796397992959,-0.20577915114656614,-0.06614675563435228,-0.36074670850470125,0.08953225297805507,0.20271595991982036,0.16209283963978768,0.04887219931326203,0.7107702878741705
,-0.2865437656794517,-8.463054407283085,0.12332385130612954,-0.17067866274423277,0.396478375927678,-0.3095766802635861,0.07690980484938424,0.25749500639211154,-0.21350729801434354,0.25394588323295475,-0.1398999509734116,-0.17929748238349566,0.9892939133751782,0.14663153743424331
,-0.5884311722067493,-17.808551368647972,-0.12353726146580915,-0.081086553026062,0.49240471874291253,-0.2318933196204768,0.14103122880912633,-0.006485396994310805,-0.08977124412817836,-0.04125562141377977,-0.30508174997338167,-0.34671156283021975,1.8320441726017291,0.10728034390874622
,-0.1415516460196015,5.82655938659266,-0.2228901612699138,0.16579433324027235,0.015069065992331872,-0.04269771694601464,-0.3869646440128238,-0.17807827158911893,-0.1960989259523558,0.006517477547821381,0.6297369030226821,-0.1204942217616644,0.44139445733593097,-0.05681549220467204
,0.6519850183190047,15.870454111151844,-0.0569088079702482,-0.029438807006757824,0.4393943627296266,-0.1787586467296957,-0.4292618481343043,-0.0025120199799827637,0.23001441666412284,-0.038148194288796546,0.9672380060330938,-0.12338419349611315,-1.0780335328446313,-0.0023567645758962477
,0.4229961001482255,-1.752583514044614,0.1273797103521552,-0.05525469508930521,0.2328092806114655,0.036842930176784416,0.43335270048819524,0.032052009985360945,0.1811248017171999,-0.2515499110235483,0.49583751566939366,-0.013439846698655115,0.22017304299110757,0.4061435655189484
,0.43047728908848065,-8.013511547480087,-0.00790436354605566,-0.1651018938328826,0.30084382465750004,-0.011100584849322796,0.6948542626130088,0.306244078185963,-0.039248394716681505,-0.034016877811000386,0.7358074644517331,-0.43835139007266355,0.7355359717530672,0.8507864907460131
,1.010370266991121,-18.97431339110441,0.15108759280255546,-0.5727608536450095,0.25186108510714816,-0.0559938964893763,0.032119770078484565,0.0880035318135779,-0.13491856080920875,-0.03922679708402193,0.47425382930372706,-0.8724945986302268,0.9458016396175066,0.4781720337027911
,0.0022153936234521484,-23.255120133233376,-0.26364922465556945,-0.27078387615209476,0.4640528398037238,0.375676412703015,-0.1766804818804446,0.002722825911780553,-0.4332777294904573,-0.04766190337458724,0.10452378518437025,-0.7681461946210952,-2.4935098034461127,-0.049459598767057314
,-0.11107062198349779,-15.904107677241058,-0.29275049434008865,-0.12065698156144447,1.25930481332112,0.3286030439178996,-0.5329935993935695,0.05208018878396844,-0.32000755569024864,-0.01408263005942235,-0.07432457296872293,-0.5286099791099167,-4.690500585128214,0.026868977621471876
,0.6389347934065611,-23.998556349279013,-0.061960308741783494,-0.037270354626991964,1.1237490452980574,0.19930639619889132,-0.4597327214767562,-0.3533209881763588,-0.4289372349383029,-0.13825258657373662,0.16325913851727625,-0.14090234184293893,-3.040405983172568,-0.014620111536128449
,1.0679505666476847,-38.669303066219015,0.15842399254435433,0.16186619096489216,1.0804916277492367,-0.3194292715750674,-0.3180425301568389,0.05931128353684178,-0.23961831043680182,0.18843124827644123,0.7759285057139205,0.19482984388695895,-3.896893679812619,-0.27094747459406493
,1.5562589358521253,-39.52687413583241,0.028255614944978278,-0.024424863866492168,0.5787755261186995,-0.05375461021879207,0.27576374379441604,1.0199782859411957,0.09545467154323048,0.4922536650468087,0.5862693826534595,0.013732705520593042,-5.061464666851323,0.45621358899482706
,0.25398146009388095,1.389548711013196,0.003959345722764715,-0.1884370774244371,0.6018609329588602,-0.603446475293145,0.12193487443041667,1.8605050923528828,-0.09126336275665065,0.24271459234613188,0.5964463026201082,-0.3079172544739272,0.11674134018568155,0.23154430995014935
,-0.34733062926652386,24.626430976035216,-0.015033570754084298,-0.6720834644339915,0.4199155244948007,-0.3969012428572707,-0.4234755810316197,0.2715948272550145,-0.28146758490068857,0.12618587703657833,0.45449067124224507,-0.2920274484230704,2.4404535680796546,0.05535324953226233
,-0.5545001469782287,14.424000113979572,0.009418455846784642,-0.4397640408687671,-0.018569348291978715,0.12036508388076139,-0.5987984219573289,-0.3379171089671023,-0.3927225947249337,0.1704739255367246,0.6313790748429884,-0.22071712140457195,1.1104634764705674,-0.30042208246899293
,-0.24958570851047593,23.8310572664323,-0.16307304355952518,-0.32467105224245957,-0.10715564628117463,0.4023040774628158,-0.5352326385130872,0.423320427229888,0.003927961910061401,-0.25887614208522025,-0.3251532296550876,-0.22461609810567032,1.915654111667915,-0.08003927780364034
,-0.1006193179045503,26.77004805854182,-0.5186045852588365,-0.30965664147026545,0.1495249743744526,0.32988881477392895,-0.11620400759348744,0.9694125063270246,-0.06387824982304635,-0.059393782524634044,-0.7981258327835825,-0.5212990550689942,1.2324964301525017,-0.4316218154127602
,0.0925601156073214,13.621104581010202,-0.39458381296516565,-0.22980577268835162,0.3503613995721582,0.012132715107813458,0.04329531094579332,0.5204911221845959,0.2000013719128233,-0.10748465489306436,-0.08096780636933051,-0.3596774970746731,0.6161519064310356,-0.3008505799315869
,0.40889840369324404,11.824059537125077,-0.31296449209512706,-0.18144058777121697,0.30506279803416947,0.031076950411011713,0.26566660095847205,0.12018810160517739,0.09578902993936542,0.06645005264324826,0.3400012953779821,-0.1046585198612025,1.000124222328389,-0.08445108135080177
,0.09497450014828764,37.73241311684219,-0.1428139380229305,-0.489064717489513,0.658255304328431,-0.00032016915768109163,0.1395297721379253,0.33965064758532043,0.3275714279505447,0.2148668447179859,0.14653881155874182,-0.18404378133293703,0.925513680259225,-0.27540179939824555
,0.20036553226955472,43.906141901149354,-0.15127784374143177,-0.8276484221318094,-0.25491148351971593,-0.8233654989566228,-0.3643505251250052,0.243152118632361,0.23899648321007452,-0.13684967851471988,-0.7489504515311455,-0.2715351088562046,0.15988052272096648,-0.06728691689852424
,-0.4357121851446254,48.48160420042641,-0.15864238804709463,-1.0184167549267837,-0.38755018588875223,-0.5813730683867278,-0.42477022716484375,-0.565061225145629,-0.12945409107558675,-0.17180180613682638,0.014046905737438891,-0.04874539090048543,0.7891524555457874,-0.1410070354892721
,-0.5011155384612734,39.43148719711588,-0.2276823282566116,-0.48899070200729533,-0.25388767552539165,-0.4100075191921302,-0.6256055807826099,-0.1450180498540406,-0.15095566948889996,-0.16970217238805255,0.07457705583651938,-0.237596025138048,0.23078734811453008,-0.2772760228775014
,-0.48881972155807635,18.130280497485018,-0.3795300439948927,0.061885283770741234,-0.12870132421078131,-0.320350331256422,-0.3194923468738936,-0.3851531667930288,-0.2922361246714166,-0.17406388807557538,-0.2747096803449023,-0.540103795532572,0.6667079435798255,-0.4643867153090103
,-0.14853899903625392,30.411682910383945,-0.33446547784071307,-0.3578445728570497,1.103540426431597,0.3567372167670992,0.29768993464312893,-0.1865304543036285,-0.5765822601196274,0.3916424163882899,-0.6759623487586999,-0.2632600854938114,2.805979001257188,-0.0732091652936457
,0.35345625184587703,34.490372084320626,-0.2180257747715438,-0.09283692200245049,0.8799171856958158,0.3132814591476549,0.17765894316297695,0.2541985187657398,-0.40604182232631525,-0.23516956898259142,-0.1282534329871715,-0.22768381705396287,1.6339259608084034,0.04318081075491051
,-0.06235105998217946,24.835584274953273,0.044102994059445115,0.14132117998307114,0.03062077390743885,0.19658987392996796,-0.0462557043078912,0.08756011121042225,-0.4877808680471111,-0.5146043018754793,0.710231687943139,-0.3395723304264518,0.6007136150985232,0.09610380666680529
,-0.3415021051418297,12.6418837584593,0.39506645284259506,-0.007711996767331074,0.038340072316950906,0.22517077904026989,-0.2611757535446615,0.5320612165396685,-0.22224440614373536,-0.03570043420728961,1.7096635009098833,-0.16608526317666553,1.093592131327408,-0.15031448833583066
,-0.23396410637826268,13.574894021568895,0.24387107185848464,0.1903705794224114,1.1657144913649713,0.36651563314291874,-0.3424470608424362,0.45011825449734366,-0.16149250754619598,0.3026192097029121,0.8178430213354823,0.1448907424487893,1.1946527518734629,-0.4431034224073431
,-0.5568656714822865,10.532857187221468,-0.09469356041787876,0.08766027908949967,0.09899931686868378,0.45479603802774793,-0.16365086550292335,0.20201715282817423,-0.42681298327044925,0.35553134988318735,0.4425025711534057,0.03107486614783259,2.0960025060955205,0.05987416540727512
,-0.4889943380126479,12.556322484363236,-0.10419312187447166,-0.196383158184708,-0.32976361235227686,0.7123246681824027,-0.38451099224835855,-0.35843287655797124,-0.45030294177939373,-0.14214926735935213,0.3068221016920097,-0.019426653737871388,1.9242733964036298,0.5157003860305701
,-0.5593575855562398,-6.974544752574752,-0.22132104283112033,0.05508433071283761,-0.13358659366723824,0.983691267822163,-0.219861901308099,-0.522091286374055,-0.20409661755946856,-0.3410448177392904,0.19444178304492218,-0.16299745446524305,1.8722743904647365,-0.08292767363846362
,-0.692689043325888,9.67572051849153,-0.0680909785130539,-0.30239929866084947,0.2561866945099486,0.10860413788497542,0.3043633021538863,-0.12900576328610575,-0.20856380035127065,-0.23263483700159582,0.363968335024867,-0.061618865861942804,2.403200903714161,-0.006836761596926438
,-0.4856251789659874,15.562599068176358,0.009013167914070868,-0.46904177533190916,-0.13681965279148461,0.268722041906986,0.507807223149021,0.3086966402367647,-0.2607942892217722,-0.19963395176670817,0.49624012740063456,-0.0860532249574715,1.9631192115971163,0.4216430807349543
,0.21189556459247602,20.129951865904825,-0.12916282953322225,-0.19457420056921138,0.16615884628983216,0.6638885968170729,0.4505231939463865,-0.02227152014936445,-0.111631115426925,0.02527224528918907,0.25737859472494956,0.22310978977163526,0.6194327134002843,0.006899891215262458
,-0.09203084394877252,19.915900725316295,0.0874168291849036,0.04371956080711795,0.8586482097696689,0.47840472450968086,-0.03334056998710845,-0.1065218596735973,0.014575986842080597,0.31560611998523647,0.3753399348145741,0.2217943792147486,-1.2502989225183572,-0.09364002794430469
,-0.055243295387244006,21.65832706653853,0.43918754284211925,0.253619069431902,0.9906323047923393,-0.13661856114576124,-0.43064296273316466,-0.20752926899801705,0.06209477042010389,0.15192772103812274,0.15507688884652823,0.06600917622064724,-1.7619404400999716,0.37030163068219313
,0.4072573411776706,11.598238222803179,0.42275427346163424,-0.015555029962643477,0.12100446739098263,-0.38302760912760586,-0.27165091805738134,-0.022619415578980482,0.5966072597354806,-0.3174541498186949,0.07057872746765759,0.07207099982347252,-0.4516858715904415,0.014872313581671227
,0.06981953365418685,18.427498551050054,-0.1538489308233737,-0.06503423309408764,-0.18354228836787834,-0.051388965002432216,-0.01209055229542643,-0.15404797382888524,0.5520851630943969,0.09970857813634774,-0.08383579411437549,0.11228187691604795,-2.0586385015451847,0.2068587383258764
,0.0463328343894376,3.458574473634704,0.06165120062970632,-0.33747812716214753,0.10898653541341795,-0.019708495406914456,-0.04606063850388003,0.26877230334964275,0.3874258493970576,0.48537800621388993,-0.20473653563349747,0.20622570983113808,-0.44263730506644416,0.21360016115273686
,-0.22156892696085634,-18.07184256822651,0.40517130115584454,-0.38125949089611383,0.2679144639733083,-0.3637878060410327,-0.2330013412978351,0.7894538338937217,0.41729341996829966,0.4828521973317769,0.23483116617577704,-0.1901521418748914,0.1691222410415948,-0.01216927934613124
,-0.015149451694311844,-20.313008391861562,0.3943162233316068,0.04446647518272098,0.8894640895482785,0.17383381836490785,-0.13888578541597332,0.6553904437103082,0.0021845614604615094,0.6861168808649648,0.41919233427947733,-0.2642526197367561,0.7664385429538205,0.7371328811098061
,-0.2709965258455911,-2.124283745666891,0.5692267207689227,0.5191451184056434,0.5009236365740068,0.39092864422113077,-0.47406969532402565,0.5519744238162323,-0.043823285119703265,0.9415783889071713,0.4103227228166067,0.07378881961502026,0.7941961570251288,0.5808110652141907
,-0.35446405328485764,5.6602702322433425,0.04634506516162012,0.6382549188258164,-0.3103339621167424,0.06873469649479755,-0.3356103867583325,-0.07257402506024044,-0.14528368905450553,0.7448905603733087,-0.14081140664455447,0.19246078935748107,-2.508602341443463,0.17187143538581204
,-0.5980362521182752,-0.9503473231852875,0.16559379826431417,0.6612043664176014,0.2697904091805447,-0.34584277540189845,-0.14247369434289878,0.5294792524916525,0.07632834802245912,0.476073452285338,-0.21467158515484136,0.11841472222801024,-2.1612690294507297,0.04186219831259569
,-0.09761886578044929,-0.10614779551008525,0.2841310899441686,0.5187093991517883,0.7575472121010683,-0.5843681545567188,-0.05017947668176814,-0.3714843994512876,0.049019167951833774,0.37049394810344827,0.4503640958438996,0.3113528652123662,-1.275303914419759,0.2007957739420278
,-0.3444656559895646,12.603588894641387,0.015201275157685108,0.10661748735294098,1.4642201256436744,-0.4528130480408783,-0.14521640469487512,-0.833806634470543,-0.37738359798108195,0.6162499061949501,0.1958719166302414,0.3322428550599116,-1.2206013122598907,-0.16813778254420422
,-0.4252548875160939,-2.385474524875292,0.01914373997144118,-0.24590153809343476,1.0851675166172075,-0.07717436180563558,-0.3052289271418185,-0.4289218117395115,-0.33319162710665656,0.2681209230002304,0.5858473435826268,0.3270290413726204,-0.19541086376587727,0.3584111916268866
,-0.348617528031724,-4.544165827617993,0.032525457644002685,-0.11098248841488897,0.8676227533824444,0.3000776123518053,-0.2560118565967195,-0.1329866364518231,-0.05094428935013103,0.35591722621732125,1.1808062712081138,0.4164725384772444,0.25110078934796604,0.7541065819654452
,-0.09569987109597325,-4.646864668743981,0.0400204565768843,0.439665387592519,0.9956739761590007,-0.0005127599050001787,-0.06535004854608047,-0.0720871810197877,0.16425673154447418,0.134100374625771,0.5585506810723468,0.2919259808405907,0.3338343063272606,0.3691652174451523
,0.4243645791270786,-9.45365943187329,0.18500148282795045,-0.025452799559921323,0.007145956450184669,-0.21486397778322494,-0.009219769067546726,-0.35918748903748,-0.2490935256246193,-0.17978220640746387,-0.1726446288883234,0.11085734434790154,-1.381905328421172,0.2534618283553544
,0.489686568751565,-10.653793614202378,0.09447859621521387,-0.4420884746233391,-0.5473485942184483,-0.31410614881032184,-0.0631265771684694,-0.5248710402829968,-0.6724019752635613,-0.33766740611500085,-0.09584611759491529,-0.1378173478960098,-0.519883682293683,-0.0077344626415157495
,0.09181325182093869,-3.1534946808433024,-0.11052241981612057,0.23803481830890463,0.4313882229510935,0.24400549034387975,-0.19828829970241782,-0.3834659455575024,-0.21336756704511106,-0.4549812828959723,0.30635334566787065,-0.11834715003102307,0.07760974664069036,0.16679342328968372
,0.07126998763438534,-0.22546605692821442,-0.09825275441781678,0.2065789663166978,0.8662072100065025,0.4954358447634006,-0.0827389382405633,0.31984627968254487,0.2688339881018919,0.008815155462509385,0.562118605649514,-0.023944592792323496,0.08737906094823822,0.28674178634023206
,-0.260074593358155,-17.036388627283415,0.34850901074659124,-0.11993924458826585,0.29562437379999373,-0.1761120589132963,-0.11508141120552956,-0.395592534746559,0.2303072751420713,0.49257298230938107,0.767057238967609,0.3049223420414057,-0.7181286433013162,0.320519257795328
,0.1583518565138131,-8.929977790028715,0.5738599444792685,-0.0676196123802328,-0.30863264747096525,0.13714525888608492,0.2410825772966469,-0.43673654978117843,0.5229271216382916,-0.15876639019858338,0.6799666911461727,0.1678812167899974,-1.0367616398984398,1.07804864363934
,0.46834049624207,-1.8829140124326127,0.16744424416404602,-0.12119303111936647,0.27668069472060236,0.6541702860294056,0.3418179744340146,0.2593482903449816,0.3615566546842037,-0.2546995713350736,0.45467714637826717,0.16366031341419576,0.05510785205969627,0.8721573434624232
,0.3478692468402232,-8.68903479080224,0.0838560186977442,0.4001839937089918,0.5921741399704451,1.0329552384847436,0.4343237858102143,0.339315043282493,-0.1331274410066004,0.29974188006481683,0.679723604451403,0.2725603155061647,-0.9197286154652171,0.4311018155172432
,0.8271768525733485,-11.762376953623626,0.0695049200236035,0.48407376646431377,0.07860017958155953,0.47275591119776506,0.2663398353386485,0.8626561282780552,0.12556368356003947,0.6271400757727358,0.3432897507919568,0.043365585623893886,-1.1152921626951593,0.6827510492093785
,0.4440216598722784,-4.262918270756976,0.05507361597870564,0.38377568432294457,0.7670067928660265,0.0441778177286901,-0.014925184366363826,-0.05428668924818624,0.18779497809365595,-0.03064980946714031,0.47076115327476187,-0.14246362314239622,-1.2929565986024536,0.7644419257705029
,-0.05569017443505169,-6.9020985993245825,0.2686862639046494,0.38145026318728914,0.4277927930388779,-0.07907654427962336,-0.4364393886646121,-0.3270861715375106,-0.17536488906163888,0.014084889486330984,0.6589358262348792,-0.273817658372591,-0.38103765515475263,0.5705079980944308
,0.30370373338825163,-26.734195165451382,0.2381239124763859,0.14814913584415035,0.903683002857338,0.05707457331619067,-0.5754055585718404,-0.5145910162283841,-0.21654778558375598,0.10250826521993955,1.038437409749287,0.1763591946740286,0.5305353292233319,0.5475003415952983
,0.2752112706832631,-7.97401005891701,0.45301765520909615,0.16647196422269037,1.029579013113195,0.1129483811843103,-0.5161600409186349,0.021944582509238843,0.07006822934210764,0.3524682269011386,0.687205145273233,0.4108938045007021,0.9417661461575367,0.560900217125116
,0.3560490015233199,-4.6820690931875815,0.16277428704965793,0.27163705419701195,1.3617934169676904,0.008340703605138597,0.07274295891334172,1.3281587947876776,0.20350541449822157,0.8358959027564554,0.09723365948340719,0.21459426254855843,-1.5375994461566769,0.6482035850189729
,0.44857175834349383,-9.352594729827064,-0.3567660685119143,0.058419816188489924,1.6510158388181748,0.05068388089571801,0.3550251907161042,0.29808257658285653,-0.06267954023412073,0.4040314976752028,0.7434287136297495,-0.021666026856139744,-1.039402124249594,0.6839108394411113
,0.46661192410844743,-10.365718023551691,-0.3591676133477865,0.26979579796281256,0.7271170782549231,-0.24677714116455246,0.05646887056406096,-0.23629110053568703,-0.059172065328849235,0.41627231265593895,-0.13753193301446082,-0.05107679319817995,0.3860557806604482,0.6310058730549237
,0.5192395656802044,15.532655173162187,-0.06442444631037161,-0.15676788862429325,0.009567744766506282,-0.1810027401101376,-0.25544335095432813,-0.19167147900162448,-0.31308151141486934,-0.284491166434915,-0.032643926600167905,0.2640277017282818,1.189956917003849,0.7254215615642834
,0.8310259285449151,16.48717082803502,-0.0029355825999007818,-0.051936107900171266,0.2951908262387945,0.13252233425172003,-0.01490135962062644,-0.19498846748351806,-0.17137498672979978,-0.39112894271286136,0.06571238675317696,0.28144585395671556,0.7770620208448502,0.8308386880818174
,0.6053339544878631,22.08124284134481,0.1818838520457106,0.17889937534251116,0.30227498270483144,0.36018066565265533,0.00018445344971933383,-0.32196628875387434,-0.15342686567610508,0.6364797671379901,0.742578790782196,0.28705019476687116,-1.3259059142250351,0.21397363799650612
,0.4720590915276557,18.47583072254002,0.13517105957138978,0.3150041967811873,0.1634181233974831,0.6874450796131122,-0.25275160866412577,-0.3873995637001838,-0.3151849270188099,0.489316975936926,0.1716282052313435,0.16346556226202283,-3.588294450728958,0.39591062424576906
,0.310695159155128,-4.645554775692205,0.04090608375448876,-0.18973772314862086,1.1938800705083814,1.1710005933118217,0.31448376705835124,0.5941489731706101,-0.1469745109048873,0.3374016937811683,-0.22158504780966942,0.25782152562003435,-0.5681636540948779,0.519828829240166
,0.026735804652475992,-2.172958432691952,0.04167739784134237,-0.4787396185908414,0.2714943449299467,1.4302923075534058,0.39900352318286003,0.9766719393057852,-0.09120873139992992,0.16094528565799596,0.11187734390362446,-0.06911779496661982,0.8469805897604603,0.11263415934194582
,0.3567256998589104,-11.859279091369396,0.1287302734338146,0.20335401219990965,0.1895242422050932,0.4914371489506897,0.3800070631210162,1.0866272671867507,0.18680896763837604,0.15645946265347868,0.8245636408450198,-0.31739324167272714,1.1393110442765342,0.007432094955454605
,0.08342768419694556,-17.249964209701986,0.1432920711294053,0.9145301872643455,0.6419575971618515,-0.2829751163054594,-0.16007574237209843,0.8938228825023612,0.46495384128589723,0.24765854303419255,0.38156945839387996,-0.04948383609675211,0.6382437226314732,0.4292831043120663
,0.12471916976635529,-19.260011514732053,0.2443315218337008,0.355059952804921,-0.004329282114645654,-0.6350546572296971,-0.3814521064755263,0.38775639104231147,0.26515997815635295,0.1099077830309663,0.6259685706677273,0.16598963099755515,0.16553933225063552,0.18261743755200224
,0.4674315945997694,-10.27809247907459,0.20291356914899275,0.23444917040670363,0.22472451157965886,-0.634500503090626,-0.25887528023292683,0.3219093447220225,0.11093659305824907,0.12608856584187034,0.8504937055244514,-0.08851597876920464,0.13526326397270705,0.6711639173028605
,-0.0966288944508307,6.7478813744964805,0.09452384756511358,0.2088930017747166,-0.2623718705731986,0.08392784720809053,0.04330319153535575,-0.289132787920456,-0.16449518283264997,-0.025454604454670435,0.12703077710101107,-0.22446144814757893,-0.39825861231025234,0.7596822063536659
,0.3337670577629544,13.219855483431747,-0.17583151866466068,-0.2541869238895284,-0.26968912712287113,0.41258650439407774,0.01661220790709807,-0.13617820730730476,0.04829214131713745,-0.1221421678840009,-0.011339308060756607,-0.17908720840777717,0.22178823752105845,0.13879109289143063
,0.9604971916946526,-3.5435528965437575,-0.17344867834992492,-0.22884180164968473,-0.06151788577332654,-0.07571057359734933,-0.4263701060670446,0.6296126437479393,0.1394128259085078,-0.12345682253643672,0.01993231408288498,0.17530094977451519,0.9634956456283827,0.20597185688712447
,0.49935208651716406,-15.588384961266074,0.06641123179888185,0.004778718364408318,0.002714531408712685,0.2872057405498771,-0.15722165370689709,0.021072253311452408,-0.2474906498392207,0.09345948613554786,-0.28483982944118824,-0.007924099191624982,0.7637053928130769,0.23810074251753136
,0.714262363496924,2.537888828649961,0.07645114340201571,0.320545190844707,0.27949596760077483,0.771208171752265,0.5293566678331779,-0.3600762059150053,-0.2914419745471887,0.6077668594751923,0.31023613373169706,0.0006348373751134823,-0.024220361512925198,-0.02812531174536231
,0.197063721709721,-9.323387863375308,0.20523095273734557,-0.19484756998078448,0.3531971765503493,0.03469307713324246,-0.15370061697832663,0.009298530389068135,0.40639911496163283,0.13751217964088636,0.01047270607418944,0.1856991463782111,0.6346951212017246,0.0019107956628356773
,0.31099226054844464,-2.946757585596993,0.1584982226174961,-0.4622383181820488,0.6113895166913227,0.020733106832791795,-0.5578554372626497,-0.15227063159323265,0.5554395549156868,-0.15824083572877207,0.5227952016642089,0.2978067728886434,-0.5894858615279912,0.018953385992613467
,0.2388837501061414,6.879310077362008,0.19906384667824734,-0.22525169749935472,-0.4821193097457834,0.14516847757110468,-0.23394815339817931,0.2865801682225636,0.36642658322863986,-0.09998959523229504,0.6859304733505517,0.01968348474236239,-0.8351608887447107,0.34124531294790594
,-0.1924038244035291,1.1055339873109786,0.42993994585304623,-0.21226030339887159,-0.22343746487291052,0.036447602479637936,0.351415829237118,0.0503630582652735,0.22346080890290923,0.3334363434512024,0.4399797787221383,0.11520406063487312,-1.008675963075753,0.5414908045793719
,0.12081476820760302,5.9427379071209785,0.3556279783847577,-0.1352753648893589,1.3177926519068421,0.37945393688184825,0.7889202445390819,-0.3187086001421481,-0.019728177352163444,0.5840202798832236,0.6289631211583231,-0.02525867743186917,0.7764187193214368,0.5776129732955725
,0.47614161486505,18.264215137511137,0.2903933095247019,0.2699869322590962,1.0234713120998873,-0.04904492332686729,0.06325579928037958,0.6345153955695211,-0.10374575961504287,0.9796372219213599,0.4656015130560687,0.029309405202727942,1.2767616647725417,0.14080214120007528
,0.1569400155940719,14.668232951133541,0.2064805670942629,0.6155476872584172,0.21513602722262873,-0.10430638806512252,0.2041116318888519,0.2843296409192961,-0.1604157768031469,0.4794790739299524,0.006561552521679753,0.25662252192335133,-0.3548158314792418,0.24403867914194485
,0.18148526886576563,21.230913423224997,0.07416073202194452,0.2615187220378612,-0.22662821960445004,-0.4110930348494843,0.22727125964705092,-0.26133084120483346,0.13527261241839664,0.18905365565707755,0.36300519102427187,-0.01724514317216819,0.6516501396711302,0.7019716518601564
,0.2747544949996648,-0.9293726728127135,0.05832897570394892,0.07167444292298122,0.2947712781352388,-0.4455457555888267,-0.19977472366873597,-0.21091735843299106,-0.1669009035093147,0.13854537138999512,0.6780298382717292,-0.09835685150648794,-0.6633725557763684,0.4919971661180741
,0.08099707116359803,5.503058109033999,-0.019209855011970377,-0.03613420574329327,0.8416203494976063,-0.3141473107703633,-0.14154573218355274,-0.016108291443512446,-0.3098362561116573,-0.1162409814690977,0.514196786670724,0.44589148773455384,-0.08053196811594383,0.6128760975326959
,0.3459140054517526,16.326984262655856,-0.06393476274679025,-0.1572198067059967,0.8429958912305482,0.42254896514289675,0.37177279402073077,-0.05201303370446097,-0.016607143716628452,0.24191785370093213,0.4817128128440433,0.362207894194764,-0.7593016487083487,0.4203554284828922
,1.0765562645840512,13.761209196529736,0.0492109748654884,0.06148395825820211,0.9408032080261235,0.27086397228283904,0.7132016792503013,-0.48136856337433376,0.07757551851676467,-0.2190603604333613,0.38077180287451307,-0.016635671383856968,-0.8381762973097464,0.6581232778513981
,0.7215966137776737,-1.5273748182703129,0.12072007620753757,0.17347657856391374,1.228701058569087,0.23572589578783082,0.08312553277729574,0.16450293096246218,0.4456656797143977,-0.43790429143516013,-0.14515372494344625,0.028586715269381262,1.731217157440008,0.866257891998553
,0.5528966055021186,-3.3256419189007156,0.2342659927391633,0.10152076066797336,0.7524901539376058,0.43370800384063907,-0.040727229409567946,0.714727310998698,-0.040671432200073805,-0.22012798032525696,0.9079178779025945,0.1791422528600796,1.4611355395268588,0.8269552536786239
,0.45770020929678307,-5.651554616706065,0.49052849673311844,0.33052568223069784,0.9616194409897517,0.1678293307210815,0.11308344410442445,0.9322424416936577,-0.054155213074930056,0.030579862355688617,1.1863363897813914,0.2840069427956288,-0.24011985638837796,-0.06563869611485475
,0.14603133677690627,-0.22142886539996537,0.13546399450612676,-0.03270659939436724,0.9429987756244179,-0.06588185108131028,-0.19471032059649546,-0.08925236821224765,0.07271955314760958,0.1082374276037513,0.8848865542669647,-0.12598608817237064,-0.9555568818077109,-0.4908143918881766
,0.1690231713756839,13.239525389475691,-0.006127082320088649,0.3830428205057513,0.4900225551943051,-0.2149217824292882,-0.05460456224231748,-0.04253759108917247,-0.19798523580686253,0.08809663574596688,0.15045830074076288,-0.1553578034097588,-0.2831722199826778,-0.0876421922350521
,0.362329242801055,-2.468787587898149,0.03038607127680832,0.5347369808127882,0.37543157299939134,-0.013525239923492383,0.11288352076826491,1.0566978499880995,-0.22586233036765288,-0.08990071072763457,-0.3588967764800135,0.14252178741235105,0.9090334089835199,0.5146294927556486
,-0.15625820051972988,-8.78566560864555,0.13681319443314796,0.2575225584301904,0.3701972054603261,0.018140829410318044,0.07087444978970531,0.1087792742655287,0.02105981459458903,0.1619050477848626,-0.3015644549605012,0.16744943645656768,0.9113914602800662,0.5604702943290684
,-0.16105452309147966,-0.7595781338001271,0.07290843335944897,0.3516063679609749,0.9098040319239691,-0.18572719026569,-0.16733524554856893,-0.06487485067111272,-0.2883259473004708,0.2607634963595003,0.337297035113153,0.1482343548360158,-0.6789192814112643,0.12934155803077915
,0.23302116240879697,6.6594652018301685,0.27669923001909946,0.13141200633192857,0.8517712437021121,-0.2541239030319088,-0.21096907242469348,0.45449766700712685,-0.36483591173395435,0.26432280268129743,0.6900051873725496,0.38298528288032796,0.6668619546362078,0.19924256547451538
,0.34928160818406045,19.414951284969483,0.04986236341084943,0.26450303187116747,0.7067411891174568,-0.17723228632693658,-0.26771534932561464,-0.01877955386551417,0.17095430888732557,0.8650294883151486,0.018866889196654975,0.2112509494298018,0.2528566435399594,0.314726777375201
D1,0.1384636951959658,5.971708274370745,0.026615933435205737,0.3056768770868113,0.22078220530149792,0.310862062675184,-0.1347405173842716,0.10251619665349354,0.3699171116032609,0.32976772055348696,-0.12226795099563383,0.09560618163654445,-0.32502850554000373,0.47677700657210165
,0.1750524226329431,-8.954739374903621,0.18926264983753766,-0.11139044030001119,0.1373208796142721,-0.1111865197577305,-0.45716468296422574,0.09435393688874405,-0.027642404137298522,-0.2953600182155778,-0.10002432596238653,-0.18583595463440342,-0.8988176242662452,0.5762350982437952
,0.639930908319316,4.645984262254968,0.6559403405693237,-0.27547664031944463,-0.6083871307955303,-0.3638424130580377,-0.5158101261612128,1.024813681033344,-0.08502999849679514,-0.00814708230439512,-0.5320272675317153,-0.10184817232207186,1.5343585780458056,0.7394391783574016
,0.34942843904535936,9.52435363221859,0.17660690994398306,0.2229404227150515,0.23613663903921092,-0.1580644012512528,-0.14179427362398508,0.5626661552475358,-0.1340553486605346,0.5781631284214195,-0.22677942592196937,0.1526431493858922,1.8110458228059878,0.7943613152583224
,0.48667805149225246,4.987603638352798,0.006018609954414895,-0.0012491584399103067,0.1799872825990532,-0.019121522812114294,-0.1045760000717554,0.8211394958412941,-0.004599208561427201,0.7378560235948236,0.1235946160295514,0.08928231022396892,0.9861381909070014,0.2523564402025743
,0.35376537292816146,4.072360674880378,0.1140707134222062,-0.26704784437560486,0.025863304769118613,-0.6449911446547059,0.19406350378104437,1.7818636921564004,0.18903819158481602,0.3726587477444329,0.05606413892469628,-0.0637879424541883,-1.5340523611991534,0.03491088294915339
,0.16820290996934265,1.2660763776294481,0.19719036627710057,-0.06713359424354057,-0.10104274778333311,-0.8027692733501575,0.41643046769978137,0.8602442196010439,-0.2331612951893432,-0.4779176174095304,0.17583241759071958,-0.012764554116746901,-0.8784133632476894,-0.13319938799732992
,0.2338061128669309,-2.2492817229665283,0.26864409786311094,0.05766110289862392,0.43067119662456943,-0.3235415214517635,0.5208741698876086,0.43652922171025504,-0.19799087065392224,-0.39960881238282814,0.4437262653063449,0.09562724122406113,1.1726959447495964,0.07553928609046101
,-0.1287079776121964,-2.33632710441502,0.21140015077067875,-0.00305062439932221,1.004863594301861,0.04993519402739529,0.2879454056888419,-0.028857314464675054,-0.10040874095755321,-0.4801007449486366,-0.0676508524897806,0.036747614171886205,1.1512582149270694,0.4528725093043258
,0.23254991668344674,-16.437631316293896,0.37229945766433004,-0.01387332354599709,0.33447950996354014,-0.060089007956643584,-0.03671419849124812,-0.08211434607544124,-0.18731182326087442,-0.3189518493602052,0.28444186638133384,0.09101868851723031,1.945750549292981,0.20237650852401826
,0.3322381310484384,8.247295383476628,0.07253168908157179,0.5343187652131424,-0.0364394828694219,0.5491499419761536,-0.3081934375405867,-0.2152173589917655,0.1380825790294984,-0.09362086116249581,-0.38577870036458894,0.3136165393548422,1.4023599765679835,0.16109422115237543
,-0.08987061901955165,1.6932537545552884,0.01204713650609809,0.2653740567686877,-0.2836868238497114,-0.6284008192675372,-0.4828723216131572,-0.5099063869332779,0.1721781045291982,-0.6069607691622299,-0.530364926111484,0.22749439360001578,-1.7893494797583573,0.2713991768543613
,-0.28480742437543827,13.971160767030613,-0.1089708862110601,-0.19944258436620618,-0.1562625176249593,-0.759640643436888,-0.10684241563742386,0.17662210191678784,0.044106343622927924,-0.5845418404116306,-0.29772179206591604,0.08735071733959199,-2.1254227917498367,0.8722605010565356
,0.8910179772471811,13.42826473584255,0.09797523847525448,-0.08215893106353875,-0.1617880764337926,0.032793997962503915,0.7213149286424121,-0.2154904844486143,0.3885716604424021,-0.28876005096152396,0.14430454155489214,0.17648199758694721,-0.014898214689654996,1.4249478716433435
,1.1801825443400782,-1.4338080630482946,0.07422100994821779,-0.13504124316328173,0.4316857028843195,0.06883929189138004,0.2194221083755883,-0.23054855711372532,-0.278894627268938,0.317902774520557,0.14633970077196742,0.0687707470668042,0.8535879438040779,1.118789203260308
,0.5332969514940291,5.627864699268491,0.1256458199191449,0.16617832611154326,0.7809058341303382,0.5824121256351984,-0.23482446296193282,0.198843918600823,-0.02818034210705107,0.4635144094465551,0.3477442466953836,0.18161664015557918,-0.8449100763875226,0.837644139472993
,0.08820762712692644,8.163690128402257,0.11964275081115162,0.19628981360046852,0.49893009430423413,0.8505794584377119,-0.4402221417845711,-0.016685734897140814,0.08129568312325568,-0.06557937560317677,-0.16936961201094522,-0.10786799258074765,-1.634723191494897,0.6302696407580965
,0.2553894538809057,19.36838699767941,0.29918431134213136,-0.13601199786757953,0.7561983302191424,0.7550916166108933,-0.09553658598215027,-0.19284589735321453,-0.24946046586467557,-0.1467918434416202,-0.48479056276478716,-0.11200713778357808,-0.645612198735657,0.7086569648680516
,0.5725242438441446,11.000024122385794,0.13313346652329092,-0.16623967993829614,0.41189639575964715,0.297689781460066,-0.24255450536411846,-0.02294190289496515,-0.0009372332548334894,-0.3018766435653328,-0.6098051218116247,0.19745546060164051,0.32103052338158283,0.5747342595503259
,0.2616768921883886,5.422281495237257,0.13386988100933786,0.06783857417430728,0.1589565385171212,-0.13744766377955803,-0.37711352349734373,-0.33441836317846685,0.2731676217057228,-0.5357859314899691,0.013765071976174109,0.0423156823221668,0.5936020057206751,0.2505899697041282
,-0.2203357083852588,-5.3016276402763465,0.5051921634870377,-0.3778277807131924,0.7151705572282901,0.32285131930553285,-0.39118999116365977,-0.6392519382476665,-0.22114783117969014,-0.03936064089437807,0.9564529889863548,-0.2723731641509794,-1.4573741617045104,0.41279499273307885
,0.4143702046788211,3.8519015818501527,0.5223840440301968,-0.21898563622442474,0.26554943026914973,0.38277161887677,-0.16621926977157458,-0.07619672236553526,-0.1482367193556767,0.14815681489402413,0.11754264870230641,-0.24555162783713613,0.8002231045508501,0.578222692823465
,0.8232155259441573,7.658136394607614,0.3533272234324065,0.42731348590611906,-0.06943589630753552,-0.01463001681344885,0.03611207038986508,1.1508860808272467,-0.25522055320644604,0.38317874630955323,-0.00935131933674988,-0.18866211902583518,1.3357172861725524,0.5962757661931858
,0.7741171407270195,-19.8876597500306,0.28863807170046574,0.19251586696838666,-0.2392374042095318,-0.48932738402977155,-0.6474280723532045,1.2482293591056202,0.1884170750016831,-0.05260655356802384,0.7797893376354014,-0.3762327417236055,0.0727242259042593,0.14368733609490653
,0.4312520997067914,-33.45216241459316,0.44910294641399356,-0.19911084107847984,0.16935036985162702,-0.9724710093961245,-0.8542335942497976,1.8146201672292865,0.1207392475363861,-0.31403268547946855,0.686521696368953,-0.2490812768217502,1.553562376665894,0.11684958967630439
,0.44711835955041374,-12.705408255441386,0.12040511526375088,-0.03174726580544793,0.5217055095229061,-0.37001832935760026,-0.06499054366706582,1.1303487479525003,0.2233346532574223,0.11286407706531681,0.8572088082505157,0.18572276013485944,1.892413647823704,0.3441204700495709
,0.2126311508305848,-8.222995864463595,0.008770379827134484,0.019914704382272087,1.0324842031161001,0.24785748669779323,0.10036215991660923,0.32330088559574965,0.5325666558959211,0.017408681430627425,0.24561568482182058,0.07544715051296318,2.2597464152073234,0.3591842662113534
,0.2104767671405347,-1.6322290499007375,0.14424024424463947,-0.22898696302634508,1.1906742801115806,0.07648546633811475,-0.09086794681770545,0.3685130071785279,0.6996431315599335,0.02629055457173605,0.2581567287736726,-0.05876678706934857,-0.14428387299764608,0.7371335445835869
,0.7983172294317812,-0.38581146219026363,-0.014389659423480016,0.05819100502910171,0.5627403162587303,-0.3262393762465222,-0.4454921568812584,0.4380939899415056,0.27879941461698143,0.5292290773374927,0.12528984019255765,0.14095364465750426,0.3671257902994174,0.45996564082295954
