event,eeg.af3,eeg.f7,eeg.f3,eeg.fc5,eeg.t7,eeg.p7,eeg.o1,eeg.o2,eeg.p8,eeg.t8,eeg.fc6,eeg.f4,eeg.f8,eeg.af4
,1.2786944045543251,1.5259419053077503,0.26062323112621444,-3.8384424567578974,2.192290933505296,0.548473454201853,1.002527359437878,1.630052007539083,0.5009940392760626,-0.05975840549480418,1.5242297940618594,0.08465015558329621,0.9609693824226833,0.45232224032894064
,1.5382532453622833,-0.7176772216983581,0.4640834982494064,-6.047704055732285,2.390486780678586,0.8613231388175855,0.04200034460008328,0.332205715800871,-0.36681445105075605,-0.11741975669769887,0.7286035818319729,0.009467785806405941,-0.09425284309818997,0.1848605701848918
,1.167017726163906,-3.433765814013361,-0.09709733015156734,-7.722894242167055,2.8308684294447013,1.5314762286133081,1.2723102344779045,-0.07820357168107851,0.22295542798829063,-0.40434607850333953,1.147404973297826,0.08781983650677463,0.28683804845575034,0.05939201566820615
,1.1719008026261912,-4.296287864149023,-0.0434356958667802,-8.279934627586941,0.22780905045825098,-1.005186468398289,-0.9719277344696459,0.13518185748430825,0.8019794350897798,-0.48749408171876785,0.41665403422167113,-0.00011825963622685798,0.7397760791560914,-0.11756903470345235
,1.4947032068373511,-1.9509343376932187,-0.12981414498746627,-6.414392866350225,0.3273698096080818,-2.1742502427299755,-0.5617122541356466,0.8433511402283134,-0.02572717972040103,-0.5305854643685124,1.0006468591722213,-0.09161633440028603,-0.0541198821593613,-0.5724038696452469
,1.0996151323650878,-2.226349618377839,0.2718064510382592,-3.4410003003536116,2.1069290277046155,-2.389574037801318,1.6753262776272464,1.6188791518210446,0.25374903096752555,-0.5419576217585094,0.8488236489891035,-0.2792598685204566,0.2503146204668109,-1.0845455472564822
,1.4558323845032095,-0.7777142255257721,-0.6809952749640039,-0.623347269844822,-0.5073258993846619,-1.4140811637851585,-0.12610039386312366,0.9375288032620068,1.322644955087681,-0.5885848455685908,0.11033657564055305,0.0717824024579502,0.03890176384200237,-0.30595079552486826
,0.2423835021778814,0.5618895659591375,-1.0672493100017157,-0.44828232329003487,0.8916353882452152,-1.3912006905730776,0.7984098756149095,0.4894183604739383,-0.32872476158697034,0.24539530551119776,0.10529675971796254,0.04669742772099606,-0.39689526861640523,-0.07692047098208957
,0.5274178659439069,0.9613524718001131,-0.08017491013792953,-1.8529637367673335,3.2109376279155843,-1.0145668485095367,0.08357341506645868,0.14758390367511215,-0.9279505788177607,0.10155745487490034,0.8476724758827675,-0.2740242675222768,-0.025077473420103965,-0.18966103446571855
,0.9946829864077394,0.9833692568891369,0.17133119783264344,-2.5285393624087384,5.12901391171619,-0.47186399040800386,-0.7870905537863249,-0.42304581991006734,-1.2083570535385928,-0.5370046602461547,0.8067053695167898,-0.3255347588594322,-0.1456804209763726,-1.2449001200345253
,0.5292258519476501,0.1438862357064669,0.19872081954797866,-2.4154605666065683,3.3704775678746666,-1.4419741634204695,0.015107762947189678,-0.08664803640541527,-0.35171598363226403,-0.18171940159084832,0.49963628288756357,0.005212721450037296,0.526822851927169,-2.483553699463409
,-0.05686749228520894,2.394870067710148,0.06474071568857857,-2.9524372537780663,2.7499708164768015,-3.653644051142967,0.4246593810779067,-0.2266449944644392,-0.049160943002204735,0.17386708781593524,1.0474888746874964,0.47698456928790695,0.220223700505878,-2.097564030862116
,0.5122437045369513,1.6888983894248024,-0.0979382041989926,-2.5423141426257265,1.900941538949692,-3.137251635965102,0.7380841139146588,0.9627529060300556,0.33816321869889787,0.27836060596899725,0.9368765906408955,0.04814288432846898,-0.22988603463424295,-0.5613270161699435
,2.0570838764817996,1.2438308655863122,0.18312390567937525,-3.924053533470135,-0.7156748199198742,0.1720486751891148,0.48446863678695057,0.42079786001901237,0.03622653401103768,0.4312635113075644,0.43134670924662266,0.23784729793779238,-0.41764912270167726,-0.5152298319000899
,0.8843527219286968,0.008824139992602767,0.35184950914994245,-2.476587615870741,0.20985776006234128,-0.3851055008287393,-0.6660817281188547,0.6338087702730533,0.4298667067656608,0.6371595849149017,0.26582955061630237,0.07296829928349431,0.05416156870103938,-2.3330184339620965
,-0.5682835222746176,2.4402180440548062,-0.5920663308008809,0.7587847597956188,2.917938884173104,-2.1933778966347606,-1.1370863283190138,0.6022104983762455,-0.48397816998359494,0.5205540065218387,-0.29174434903699603,-0.3447729424048093,0.09436180426070337,-2.4042634445386297
,-0.33254999586707024,2.8633525315551056,-0.4636941864220637,0.19438097729020193,1.390987378084255,-3.097713775273867,-1.265370861642123,0.4306926359398802,-0.42307399765657633,0.5921694113524232,0.6571640178326009,-0.6178052815982463,0.6719753525497144,-0.9802047810911181
,0.8310704894127658,0.9002342619836842,-0.052637082367045146,-1.5698861807754028,1.8163578347402833,-2.755219147722091,0.528436357009911,0.19800009985665074,0.4242972144888972,0.6804868379999129,0.7542689052421349,-0.2643125245676718,1.1661417186063592,-0.06422472463372204
,1.0359227456136864,-1.0647815582410176,-0.09543167063540506,-2.458997532164257,2.07859517132544,-3.1640792602664094,2.420897563487827,0.11351076351633667,0.2526543083517356,0.13270349332779433,0.8457532099241167,0.5298135073577398,1.4207767681396843,0.4635736247617379
,1.3341518897172893,-0.13832206877105446,-0.3452611025250305,-2.682873539930013,2.2606753427771946,-3.015710143033551,0.868327238792329,0.4116759316505232,-0.7363966304336224,0.32227054244859105,0.18856308356221102,0.7286513340516864,-0.4741499661531408,-0.21382730422942783
,1.034485354499702,0.897560967465746,-0.024802957838392373,-2.613592933500029,0.7159687079059579,-3.3855283264051144,1.2268063495908454,0.9850905343080453,0.04786147753884325,0.43974291864398196,0.3156711573379005,-0.12750842811479615,-1.0251628450932238,-0.45723929088757836
,-0.08480985757339685,1.3002084929815874,0.16742807482338268,-2.2481460612472643,0.2100151963768447,-2.8045622741976586,1.047604680681332,-0.2376325645322083,0.07153004882936961,0.4217984064692148,0.6821690813352848,-0.4540967804187081,0.3209732185347481,-0.8201261163431769
,-0.17365401756822424,0.9830389966829266,-0.44482510825980304,-1.8838240063918819,-0.5558166281535994,-1.558930220028018,-1.630859206793761,-0.8778982428184969,-0.6698305728519648,0.3240723128247687,0.17754966518679596,-0.7591834743734724,0.1681397585322172,-0.3937054464143731
,0.0473939286708002,1.4183159294167451,-1.784712952409915,-2.033432615751556,1.4786130480750008,-1.587113304040801,-1.8728287219740725,-0.8204924685926955,-0.9588933519006229,0.1283303024189366,-0.061646887287783496,-1.0478214045571586,-0.2683807943584856,-0.4436869156810389
,0.27510309921930015,-1.1952966759788164,-1.474968790211196,0.12535626311210285,3.151219964945022,-1.566186158259426,-0.767982697336796,-0.1165301788159977,0.5028119204798697,0.1301166247181079,0.5431411433334187,0.267963703501533,-0.2741668807086234,0.09041643232612187
,0.6648359362582213,0.12124812735614843,0.13098371753344906,-0.9086666605983726,0.702398263512145,-0.3413969171573796,-0.11203394202889223,-0.4070710255765784,-0.11888843388609821,0.07568818191845163,1.3063512059616589,0.6257061703782555,0.18533379737395916,0.3267710162031985
,-0.1275981939855684,1.5745586141051786,-0.23319597857882685,0.056034524719907455,-1.013631886490879,-1.256092454618173,2.210139693113197,-0.0950419804253722,-0.043213826541188424,-0.2714517017520485,0.555844366219532,-0.14373212375563765,0.21810092494656028,0.13596378022155167
,-0.7774793318655655,1.0789633415965727,-0.5958134835219117,-1.4759181521721993,-0.5811704240300325,-2.7730027840158367,0.6227922462549773,-0.2693124737942253,0.2745813295431578,0.1792722820454446,0.5185640587341622,-0.4142581345636709,-0.4850905278603226,-0.1962535823330379
,-0.14307204929050904,0.1790585843549151,-0.1667003624046347,-3.103668684042567,-0.5711790201498252,-1.0753546223630461,0.613686371410746,-0.12548585829518152,-0.10343808812473933,0.6110850701509412,0.9896407752024394,0.1467608468419899,-1.337473375725236,-0.5131157364434819
,0.12360961829216982,-1.1865906157854793,-0.6648309326128332,-1.4189832714111341,-0.7534338480761412,-2.4099176250977155,1.346023401974878,-0.8827751732862327,-1.1600697943168958,0.4657910324891599,-0.1487587387322021,0.798408547958563,-1.4130783444380344,-0.6420077409811633
,0.396143445167995,0.18334328237444206,-0.45389649473779003,-0.6650781839991953,-0.18580624549822677,-2.083898230637798,0.9827656395466745,-0.8925491579535785,-0.5754990560747332,0.546542051173171,-1.0851438767914638,0.6319617595322643,-0.6244603065328327,0.24196041662512377
,0.14555685244611624,0.5657600856014096,0.130007126123072,0.9874441662195824,-1.506183304782047,-1.364882060362147,0.8112732933997344,-0.4367963502079996,0.25924850961784784,0.7068529606273533,-1.7308454428108506,0.5451051702752001,-1.5345434497328252,0.11976966902234296
,-0.5342008307619406,0.13139096740078207,0.045399836920037365,-0.807803591328881,-0.1964503854702873,-2.3441463220058743,-0.07365015697153804,0.11730165070043169,0.008439187653815816,0.20872736704561173,-1.1122973484307972,-0.061843120948323234,-1.4353654100463151,-0.28745431601813975
,-0.17386324649764673,-0.303374248219453,0.010271464620361248,1.1830616727409644,-0.07943237186198958,-2.906901193198185,1.9083779466295712,-0.28749744488727735,-0.535225594029454,0.5013732483690844,-0.6999752002678656,-0.4361015761090938,-1.4604936766004581,-0.2867000065151359
,-0.24042557876910195,0.2943142477018624,0.07158440050690043,1.8232094117020938,-0.4309180969060469,-2.1450877554816974,1.5096227033106249,0.18355854580896777,0.018891730940853158,0.26510615805642507,-1.4910327301144655,-0.3768750754424809,-1.0564977037250165,-0.00522801146217956
,0.2116203167088292,1.3804408463064073,-0.18353825332522095,2.695213220020343,-1.5679222874897043,-3.0858627787936754,1.1524052064765546,-0.06632559469556426,0.6960156714756733,0.49840565152929456,-1.3978889606100053,-0.7415610427477846,0.2056184065293382,-0.362525726348274
,0.11398589628997653,0.8854355836173086,-1.0026998942978484,3.31841179460913,-1.6537540283655208,-3.1638692797036034,-1.4554614522590514,-0.8840357178556214,-0.5017527432204447,0.22680786715960255,-0.0406811521840143,-1.1713726484741303,-0.2244712162688568,-1.6053697552193342
,0.8902202307825797,0.5667868905693316,-1.022168021292017,1.7566916313748666,-1.9864479705577858,-1.6671295902777794,-2.2511084328048985,-1.1260725116302293,-0.6866409355137522,0.2837709622001797,0.458310218662499,-0.5057849832203406,-0.3981404522398369,-1.8860144776180856
,1.1798135436020634,-0.4015183429228505,-0.1606808004011475,-1.1025370142125512,-2.798812009610483,-1.549557802282092,-0.38431444672692866,-0.22884952320720572,0.15900949944370535,0.4266860401938683,0.4254250349357935,0.4087554168139739,0.1304139159509508,-0.6269155499658595
,0.28803746980932704,0.9512521720024877,0.06366078864683329,-0.02279725945254286,1.1751367053222093,-1.552346898816068,0.09069717849897307,0.27245817679076123,0.6452919262086761,0.035323955858560484,0.019249087032654173,-0.09553540948011116,0.18122904421254474,-0.007915477309816212
,-0.5181186267831174,2.6032930041656512,0.24660605315899584,0.622709427266224,-0.26790337142870907,-2.3828796207784713,0.030110746299650645,-0.36000346247521436,0.15540660938454262,-0.1857189180088358,-0.8702040920452001,-0.4764443282056966,-0.4653785985830692,-0.23134700803020197
,-0.3505824751224271,-0.1347994410807621,-0.10196601781268662,-0.6385309215058896,-0.6232933924332706,-1.9485836999863035,-0.7930624117334817,-0.41049074156769405,-0.06951352824688758,-0.04437714266968592,-0.8855600343805491,-0.5778209117894215,-0.4844518627315356,-1.5271755677835277
,-1.0017670202970825,-0.8379962970162234,-0.30520358939585546,-2.5795463971294956,-2.871021465081699,0.23749508181876489,-0.37659004628282405,0.3856786224445577,-0.21812517909656934,0.7161178438594673,-0.01966739984145546,-0.3369760613974968,0.4088785300754616,-2.607725650727126
,-1.3634193053364814,-1.8988995163232139,-0.27948671494497795,-0.8943553002790737,-2.796510084133405,-0.5227286584464623,-0.9151930116254519,0.08474085020420603,-0.37098381612049647,1.0715344794689632,-0.9904849935237177,0.6635651848721298,-0.7616886205842567,-2.376568334490366
,-1.1869176721120023,-0.3771232467518633,0.22515823286072312,1.0508117006539668,0.24095972562264495,-2.173424158578619,0.42267929834551043,-0.43756761304538455,-0.20068305212633442,0.5435747891272397,-0.537097225266199,0.8854271763933932,-0.32976555463655194,-0.8735385411501801
,-0.4995388194496867,-0.22304103552673935,0.11648986223106493,1.563623133880735,0.22197377080707856,-3.058696933275171,0.7236663841676303,-0.28944428398317434,-0.24530767490495706,-0.6904274475697324,-0.19656452567483687,0.1267403618843902,0.7953061371333177,-0.4703841833550247
,0.01983428603017128,-1.6327243554223823,-0.044514602133381494,0.06869614416976592,2.219723921492743,-2.272612659822049,-0.17677325223005885,0.43226218004202516,0.8533310341385568,-0.5207528295866223,-0.6119614807584236,-0.5543713434330284,0.26177846167274427,-0.7056848145078766
,-0.24403711426692265,-1.9245271393566201,-0.5436093353093578,2.6250069803007583,1.7390559997286952,-1.7763222131396972,1.3003398177238157,1.0016761362588882,0.450000630046032,0.26274270903674873,-0.6214192596331711,0.3729139973794358,0.43984367600250296,-0.8535568627012058
,0.32529826250375865,0.25696265494054465,-0.3729842496358792,1.2998653703790355,1.9948293174541645,-1.3055206779756232,0.6012155891897742,1.0059986481746421,0.11877943782635372,0.10690961240571079,0.2438097364486426,0.3403137605068763,0.18017889330525919,0.002139020013119949
,0.4937018078785387,1.254900724127936,-0.34559014752691997,-1.4213611555217114,0.19880344203218214,-1.400789510920105,-1.1403384165110533,0.1693701084880795,0.3745520656980463,0.5028984267917893,-0.29370591525813405,0.304230694277118,-0.5239938459337735,-0.2981309449766266
,-1.2254092587864116,-0.9832787220851907,-0.48428469351296305,1.269797745181895,-1.6902823194946368,-2.3562022726132574,-2.3206726486495466,-0.6790380432298194,-0.03245695287426476,0.20461898240408308,-0.7335077333032914,-0.603140079913423,0.21632149648858298,-0.9203809580419436
,-0.7541537163230336,0.2038367465332687,-0.1588340811637988,1.6658954858670056,1.1198487671195285,-1.7360883232902318,-2.3712281258610446,-0.7080047832666493,-0.6687297861090683,-0.4191036798189769,-1.6209608922916812,-0.32138872505027805,0.3887406835454488,-1.1077136595347634
,0.6710592322647998,-0.20721219558444134,0.5297356723139972,-1.7832392239526451,0.5951855284695853,-1.2252073643238206,-2.1353653384728224,-1.2503918179538636,-0.861361353250358,-0.08136530286116717,-1.4765302468754298,-0.5294653840494247,-0.8102344516717631,-1.5370248921443468
,0.3310025031845413,-1.6175458862455125,0.4512186937468408,-4.778162949202461,-2.4509937642336808,-4.621598182157914,-1.6561199611385589,-1.0313815227281202,-1.0572905855107755,0.6972289068854094,-0.9922410479074305,-0.7050888703106925,-0.7876152153907403,-1.2400626986706451
,0.3950429398766904,-2.016059185653229,0.2594245645737559,-4.886069103326677,-2.2269167098530467,-4.183971677171296,-0.5631107088914886,-0.08677273368753351,-0.6057661233761176,0.44190920918700405,-0.7211306263305297,-0.4272797397740876,-1.0001501235352155,-0.5736936061562431
,-0.13946920826735823,0.5921044080969765,0.44065365087967484,-3.616897371584721,0.22191222315914844,-2.0152944946993863,-0.5934953778635667,-0.22030166929981976,-1.1046993633195996,0.48865915123195264,-0.47071009378366513,-0.40727241767385514,-0.9572840031583937,-0.3382369668400275
,-0.18913315715694254,1.4008341423430466,0.37096382416170187,0.1398921425493815,-1.168852151933855,-3.2634675928975714,-0.5133269049181275,-0.15294151567361705,-1.217163124793574,-0.2766163327458302,-0.8718363458892993,-0.8307786253181124,-0.3734075456694688,-0.5091210296827341
,-0.5713652410638055,0.6603383960197676,0.37023980134785645,1.1793772861851695,-2.227558202167151,-4.059721936316105,1.4029074631517184,0.4591251599504788,-0.30510513534976436,-0.16213298590235728,-1.3747777609424034,-0.4650193311101641,-0.21452199349034304,-0.3872341197361202
,-1.067371762783472,0.43427325337014966,0.6608640925135231,1.4763382451314615,-2.255029272875902,-5.0143891795794815,-0.5830878804090286,-0.3693961354173089,-1.0728776104736542,0.01935314206852228,-1.1971843329347143,-0.13929930736011822,-0.213826630293442,-0.23362952111225588
,-0.2054727815404812,2.3224785676030435,-0.1275922584860942,0.17343409876445567,-0.012578669661364884,-2.882961567229548,-1.8382072031172398,-1.669734760384981,-1.607661016343979,0.09310178786942738,-0.20819372975339026,-0.24949217667747967,0.007509140525942833,0.1635048866405947
,-0.818767079429905,3.9806553564967717,-0.6508333211875124,-0.030054813306587606,-0.9113181329757785,-1.235779786810426,-0.9804569457662962,-0.7045545967153258,-0.8877401150316887,-0.2670087311254211,-0.25401288045070214,0.21772766160506676,0.19842034054231664,-0.2548165468431506
,-0.32316899890129075,2.336687646261279,-0.4075191690709277,-1.8774772370178037,-1.050066301805219,-2.2629131428453757,1.0723719047727465,0.6319825205782568,-0.2599420387558352,-0.6747001264918504,-1.045976690415483,1.6806435592932711,-0.2576606277694897,-0.6696096773044335
,-1.192722354683859,-1.2297409225212288,-0.30869616350515866,-1.2489674239344257,-1.5038414009107124,-2.9373081515860524,0.31895957460456914,0.912165157169038,0.020356721021603817,0.48820588681357646,-1.0147267992358016,1.230155556367206,-1.3050273204599152,-0.7285820680298075
,-2.02903233645648,-0.4954320840563511,-0.32763843272816634,-0.3869240188595561,-2.1435099274110794,-1.913786010545481,0.43469631384427465,1.381942417155071,0.06729526500652601,0.5479463863123544,0.5037411603621054,0.19828694027097796,-0.1438693813675031,-0.6488926505907089
,-0.6300604935583808,1.4699611048517556,-0.19263331830519942,-1.2633547489113406,-1.4479882390301106,0.36257172803480986,1.1843596045447706,0.9265474684579238,-0.005103470248772866,0.5420015800899194,0.4509594641680215,-0.9968124938142733,-0.27533309473354917,-0.2932420710312759
,-1.4059085892350063,1.4211310437469187,0.037871002789557476,-2.865979399755751,-1.7013151786110672,-0.12676984699939078,0.7298623600782818,0.5698525370387083,0.34037321135869575,0.8562700315557304,0.38336031593661823,-0.8658447856200951,-0.33907196727907274,0.1514973215504763
,-1.39931850523117,-0.5658958176863557,-0.10211883847216763,-4.039471421608964,-1.9191596335517969,0.18622762807203266,0.0919035538471431,0.13514045656410384,0.5545829068757305,0.3207982289979276,0.9024105291418566,-0.0701315256993668,0.3096636825392027,0.07047061108488112
,0.11786276038486906,0.5729804454599511,-0.08251754083462717,-3.3466418435826535,1.3093503450513748,-0.07542390941615833,-0.601398436506149,0.3261179192768678,0.4194170511916465,-0.33770774136730125,1.4349319392610944,-0.6615259795524044,0.8601519140427916,-0.21687107670979888
,-0.8718651600372666,2.2668929190123155,0.09052296619789074,-1.9117992890515876,-0.7426838219859911,-0.06498354426003747,0.6495058087933417,0.41892539609257157,-0.47019476647930736,0.05833975441865784,0.8367131248790343,-0.5758778156702179,-0.1339814217099808,-0.4138353348487958
,-0.22706031871620555,1.5394367440856909,0.3963805136134782,-0.7814971430204556,-1.4569896921135972,0.24882496630923293,-0.12423716616181017,0.19532734136720922,0.4601485575972289,0.1895525205467664,-0.45959311322096075,-0.023844664585222705,0.2166410303312825,-0.3196592004834293
,-0.2730587741850699,0.2354084376441377,0.11617227304784827,0.5412245998716221,0.7104484026238357,-0.6644181817939697,0.10554972167070602,-0.049693973652937685,0.12744750502323876,-0.21373776767817693,-0.5326797706765479,0.05688172881017842,-3.0057272544645732,-0.04141268220907087
,-0.3107736021539145,-0.12289399848109556,-0.47109722116785363,1.1790905726994363,-0.462663632656121,-0.881033144992384,-0.5951404348201746,-1.0340269010563887,-1.1580079239308039,0.05181611321908074,-0.13125479100394322,0.07695007068713909,-3.772308867806284,-0.03166167538523333
,0.9703711725020355,0.08630653950064023,-0.4813729098351328,-0.43463250240068946,-0.28962563340888525,-2.0608183421738366,-0.27254721161004497,-0.28812244559478634,-0.04427698692841596,0.37630120438934633,-0.03715250920468382,0.04096008632932769,-1.5043610275740593,0.1480232147123947
,-0.0850956268222332,1.982853714667389,-0.3935174651352906,-1.345541367647373,1.306500415242185,-0.3081723421527374,-0.4908506719745344,0.06940493144088855,-0.3394329296850552,0.19758022817056567,0.28840303405663187,-0.7793678649364917,0.6591246574483937,-0.06996537952194902
,-0.3650284190064835,2.086340281876323,-0.2982066499051955,-1.6876404324952412,0.6030783908555103,-0.9418798157582807,-1.1556001304377574,-0.4154634576760356,-0.6593187119907756,0.3162310917127141,-0.9023509090773765,-1.2322512128531842,-0.224484515393979,-0.17949589000021787
,-0.058583638827797185,1.5066594471585928,-0.26682484674635615,-1.0537920005616435,-0.39005894343659653,-1.306245334023103,-1.8682573588183213,-0.6489619921751764,0.4121977133906927,0.827728050230861,-0.9404717605187346,-0.17998118081951103,-0.0375262744249055,-0.21746847943790568
,-0.6256137946049233,-0.5574984829072637,-0.38163000296558003,0.7255260612017513,0.5240849853564117,-0.26034196073496935,0.7813710265702903,0.4181276338858221,0.5313175323812277,0.8313595596727262,0.41089766845028075,-0.07117773348721475,0.4088856729145354,-0.0928403945521264
,-0.5842871785891812,-1.9154001916593675,-0.7325854390760449,-0.6353396076568885,5.975597880164437,0.6885674047691733,1.4198919232489318,0.5189506452416937,-0.10254990861220688,0.24356051286702887,0.11150399156915876,-0.1568036874504561,0.2856069475025027,0.1217955072918739
,0.37974000951175585,-2.5239186543632566,-0.1686957081802802,-2.2965137578724972,2.4753098529252946,-0.9147019590737896,-0.5149096458676622,-0.6430292710050688,-1.1069922893175104,-0.3567378536680181,0.23049136292585748,-0.45968797381564774,0.5402413670032774,-0.0855872428030091
,-0.00845130085436393,-0.9224860980701067,0.07580262930806662,-3.671891406264009,-3.233780462928494,-2.1838669999713063,-1.3472814146600427,-0.9855685001357072,-0.9431657874443629,-0.6554668952758944,-0.06299589780990106,-0.032203617926978206,-0.05778616430854426,-0.38902539107377443
,-0.06285765730531635,0.0596621967684916,-0.09545699981680944,-2.5209797000867935,-4.050119049727333,-2.189451302329923,0.12203312966626402,0.4038011866787347,-0.030077184300837594,-0.4284192705905816,0.3802169978282724,0.05588705554333866,0.3647563442713153,-0.18912196685206842
,1.2509629596746081,-0.29885068172197926,0.039839030112579,0.20502982760652333,-3.71740764594058,-2.658871119837808,-0.26759513599184764,0.41489640645407966,-0.6255482685472942,0.19995378035056538,-0.21442680492447214,-0.7304089799578316,-0.03416262494039338,0.039755529389400565
,0.5549232603825385,-1.1262145060751154,0.07230015537503033,0.2737114269189844,-1.931092171334243,-2.5665942656297265,0.24621022775715581,0.09451696236677336,-0.4076328295101916,0.4687790421963421,0.7379486539885366,-0.7532723510265721,-0.4652555764066412,-0.07577990649512589
,0.36744651683129814,-1.1097514893584577,0.11239395602046157,-0.07409537893164934,0.46284387304091373,-1.6654473559057679,1.1145404945784936,0.19625737265104382,0.23330136023807138,0.711593880357504,1.0986900892443197,0.18481451625119316,0.25744078628454814,-0.07595927736282275
,0.6121173925079577,-1.8280637461208653,0.6504703352242482,-1.9084404871197647,-1.1430414841612784,0.6379482601422383,1.701032722551853,0.14513780575508356,0.18391446151943,0.46439147360566274,0.03177482754230244,1.2315208901650363,0.12717375886256793,0.171967323589838
,-0.9178709461169764,0.10059645619085411,0.6364656322166176,-2.5169946259839313,-2.1850067038362893,-1.4751001782198372,-0.04649987408097853,-0.3512633325269147,0.3331862468835785,0.05917474689094777,-0.6595545666636115,0.10505977663734577,-0.16999535871313684,-0.22889690744594027
,-1.355360951893028,1.5280024682447646,0.017741313074074096,-1.1387545236329195,-1.1769415820214608,-1.152248114032698,0.5679761753635443,-0.7671840846234121,-0.16773549793438675,0.2144189554211011,-0.1089146530912472,-0.5414226239814691,0.7012867725241367,-0.8036835360071655
,-0.33762378878896054,-0.12140362783776965,-0.2713371539920068,-0.8238888712996684,-0.20339043964799064,0.2650379446844426,1.8923536636545726,0.001847799371065649,1.4353872556840663,0.1947727832741003,0.9224508039457093,0.24375473736246092,1.0300534545467581,-0.25310855870404886
,0.344490358627057,-0.6115266715120133,0.0014334783379173273,0.6055083519210217,3.029034984582766,2.2505776850423005,1.7162010773817304,0.37634506413272684,1.587347510810307,-0.12201242665470666,2.06160923047464,0.46450807853143466,0.7279700942453582,0.0920281510239785
,1.1438254635379799,-0.7836286111260026,0.2671389241375704,1.219489893883786,1.2860600518560508,3.498194989764257,2.2951360429140837,0.26017123647408663,1.4463564904055377,-0.19133644375569048,0.6011884032155815,-0.014753074226263943,0.13789135622889281,0.3519905705230606
,0.38838411305721837,-0.2341062631610329,0.20930981895970607,-0.9544637548727919,-1.633143471091813,-0.00860352849168443,1.1991192648922784,0.44701667038994974,0.6982590192728995,-0.5405082130666539,-0.05374288696219333,-0.6818096177060814,-0.63915860394161,0.38459562568222533
,0.12646816842844444,-1.7859775907476516,0.17132432176922255,-1.9345032699964313,-2.5607241194449775,0.06300256958087826,0.2596436187371189,0.5650592262477171,1.1390255392613602,-0.9150476493650394,0.5143686948145157,-0.09036838033638549,-0.38357656193226886,0.641631701158057
,1.0417142544192737,-1.5869705868101835,0.27549148168000814,-1.5785531027552653,-0.9500970536114215,2.166982174609989,1.722644197451197,0.9732895348268212,1.5075666856177627,-0.9994285703859154,0.8810293996494598,0.5294023865932912,-0.06780456358630842,0.42322452695924245
,0.8911236533246149,0.22598297916954865,0.33558177725455274,0.2584328844990578,-1.0062450814401411,0.7351189751865864,1.2794868860069655,0.623130231015546,0.023415576208556367,-0.9525489759061184,1.0615527556407423,0.05458404340297309,-0.7237650470443477,0.47037519884642043
,0.03680918381705962,-0.5285044671128172,0.2167495578290527,0.4459170398345987,0.4395740915192874,1.5470077037074934,2.036120476417835,1.4421025433893278,-1.2195999828033475,-0.3844261125911657,-0.05404539764044712,-0.28285084667043064,0.43607651917201284,0.4349985023969732
,0.12096980463639877,1.8419493233616084,0.39059031897554125,-1.2879552534054577,-0.4978450295000553,0.49610971757311156,2.0866800764789426,0.5023102344850352,-0.9825351386420897,0.0558882037794989,0.6283583702685966,-0.34034587380310466,0.6765514163516883,0.46286755908374944
,-0.4826458396229953,1.4848108150583907,0.35397219820350895,-0.4909896709771595,-0.89262974289411,-1.2638913802387668,0.20286896185868988,0.39532655181693044,-0.5027289538639746,0.05231740101896483,0.07121496520977207,-0.39547782051445884,0.2293723015886124,-0.045856771244277485
,0.06982783057908566,1.3446336285454816,0.15847060847789343,-0.39655933689690914,0.6504701339189773,-0.7726667349863932,0.478597174154545,0.3106041815110254,-0.3019960606961133,0.39036565673067225,-0.5103761261419122,-0.3159197171441966,0.13842180559045647,-0.2784796838826404
,0.7197944592033526,0.14916414499742353,0.1489233565528387,1.1611567765811162,1.0840060096707755,1.049236921776511,0.3882549269419641,1.0214548380795732,-0.574145229803803,0.6611300994746893,-0.35153063400621487,0.06848391524202142,-0.09869287977727986,-0.18553825019575657
,-0.5279258418486463,-1.358283129645378,0.3837171198213116,0.3610215501477258,0.9288329036373947,0.17453167919087564,-0.02859363254184415,0.515197007607839,-0.5021847194456129,0.0060935932214790005,-0.745464221141355,-0.48704083298473644,0.061889526975078483,0.27918643390896497
,-0.1478172072500333,-0.761649163728117,-0.0016748091006650602,0.5904011415211018,0.06948135322561491,-0.7051930587852134,0.5299135330245428,0.5818603471307944,-0.0620629555560449,-0.3484285873113083,-0.8266172408989637,-0.5438231911002158,0.007264648579628658,-0.06536999493497947
,0.5888867447280085,-0.33139716988605755,0.20934758022604588,-0.1304734978901825,-0.13792949864795626,-1.7488436834320378,-0.4393393189252064,0.2577019439362428,0.535640930193297,-0.07788938751996848,-0.4626984219731195,0.7884685030203122,-0.2976625059881288,-0.03773798511183212
,0.11796736952837972,-1.4436270350815608,0.1882739805977673,-0.8740186919989666,1.4447869539204146,0.03580139640938189,0.6688600991669893,0.24097269804433832,1.0558802606635918,0.30203933799627497,-0.17587942704921525,0.01630335952165484,-0.21141171245253704,-0.04163974761788001
,-0.5413180448054496,-2.9531578932873934,-0.3139456338914576,-1.121116907494791,3.5381939486348855,0.5492038588631604,0.7697686952276943,0.8010338680737292,0.13122426705421095,-0.44461336142368413,0.2006792329144009,-0.1447367593853982,-0.8363693086467763,-0.059827362243141294
,-0.8980643993126726,-2.196559161173072,-0.4510165326103164,0.6712328947970404,0.3540954473398509,0.8408573602107571,1.2764885743767513,0.45809699546057336,0.03804432325185794,-0.38199794597480524,-0.023863590453421672,0.03442721377827036,-0.8235989721778895,-0.19485583930470396
,-0.41465798803867376,-0.5037471537742135,-0.21047546152313232,0.7021160318938496,0.6698460073341135,0.15027512157439718,0.2713084142417464,0.11072942891210667,0.17833973992465738,0.12803208626468449,-1.1064468844254935,-0.1616607093660232,-0.7213989129918701,0.19555897098222366
,-0.34736023544311495,-0.5621796527549039,0.15081385437174427,2.4298232300393563,-0.5380417231744375,1.3171218433073182,1.1323901341178433,-0.10688310341456445,-0.8764072956238328,0.2991479772650591,-0.7758396988347376,0.05223671353401748,-0.4259873948211762,0.1139442593663714
,-0.14033807153294403,1.0765548834125755,0.2721026618961171,3.037290427367792,-1.354183358788874,0.33239191314020544,1.2468931771894913,0.019276652113905755,-1.0678144525021935,0.3439766271476946,-0.091168129082782,-0.09963145827472777,0.420547801799466,-0.005019692638330093
,0.9125650083207928,0.6519780067594988,0.22686521175778768,0.47245602155124145,-0.8129487611595186,-0.3603014221466756,-0.8820491065923548,1.0950636783766745,0.3610718069253855,-0.15595654931438283,0.06165445809658289,-0.3133036885562878,0.04388124827301013,0.057193816156919514
,1.7752687222714847,2.1588080642064016,0.1125473746159246,-2.4172411145214823,0.4248443873907811,0.43731142513140336,-0.45737215477828685,0.9524156208049392,0.31738555520156403,-0.4189026220908978,0.03966332262880946,-0.3470884209037027,0.6418101448676811,-0.10441455572895744
,0.41174567298838954,2.7851867008920883,0.03904806284712465,-2.495464748145057,0.4419594322080955,-1.2525140333587599,1.7393431032468096,0.24528303574992633,0.12161817499724059,0.1095838378242874,0.6796186126919767,-0.2345119161848992,1.2713081681639953,-0.27380470925048306
,0.6660320249583563,0.1727253079335476,0.40050539906850857,-0.8097920520454245,1.8283093418725247,-0.6327257884374112,2.9597574415589607,-0.3114006696651457,0.530807743441075,0.4713200189919683,0.7591807765905823,-0.15821048796013357,0.20135323044145984,0.2284542366074626
,0.38277797196307817,-4.27318145795207,0.3326641940613645,-0.5217111963734276,1.0490470761160011,-0.2584793910469018,0.6974663315356625,-0.17928446505059134,1.036122866485946,0.39784716956113225,-0.22815280041091499,0.1125224731343168,0.10099504262752793,0.6794507680223006
,0.4994798754432068,-1.2152395275937422,0.03562286134074797,1.2353628077873968,-0.7849236150652937,-1.3804414109091396,-0.8106834993958797,-0.16627403913760888,0.4188049387749029,0.2019812890896285,-0.515755979414969,0.6953444585719173,0.8317445195895775,0.6178994253979255
,0.6849140447068556,-2.7028018150516266,0.5037234057617032,0.21985672171263276,-0.13467575159877596,-0.5156460102787483,-0.05717262335742632,0.34679803225838274,1.2141902124045056,0.2667059105079216,0.3613147590667034,0.6962391584194886,0.1665195474998712,0.7580000036386063
,0.19517194001368376,-1.0060590544774108,0.35525851848205825,1.2675883829158345,-2.4652335752264194,-1.4608338790763251,-1.3338519821594077,-1.4411954329027064,-1.4568369995900505,0.33424976679959495,-0.5423414880237819,0.4521415529280301,-0.5068270914048919,-0.5485526839344286
,-1.4276884789617428,0.6650575003130119,-0.5254192294031012,2.146334693125356,-2.7777038829096963,-0.04188080863181964,-1.486579430935197,-1.5126676513494812,-1.7765090225864852,-0.09142267567467681,-0.9346952746096929,0.17134407141345193,-0.7011715148193232,-0.806290604659578
,-1.0124206159479459,0.8236119320314914,-0.6527675416689849,-0.9617394080215969,1.1082421216057827,1.0294181631718948,-0.1690343786608466,-0.04928656957126421,-0.5364279078134954,-0.3841966127307919,0.1784552513228344,0.07781768158938182,-0.23398619131638793,-0.2881010047337605
,-0.3092474835625325,-1.0288424136022647,-0.10863819459583184,0.12563168246780584,-0.08807342062368649,1.9003901620899584,-1.6670388211278884,-0.11028582604128934,-0.204415471953903,-0.2522000613275486,1.658613447728849,0.09417368456502039,0.4925772291563275,0.28417187737455063
,-0.3259557580577096,0.2242339477322111,-0.031111986702620036,0.35548427946474304,-1.1461530912976772,0.3217389725025374,-0.8759194988002318,0.2786836430939438,0.30795493443539035,0.046838151635583296,0.9459385572812171,-0.5731453532878295,0.0736005789178004,-0.1440576187127249
,-0.4937738599953781,1.789600170025409,-0.16783231978255853,0.6586030145468237,-0.8974595439454084,-1.1601592836496464,-0.7791741936931408,0.9264154340297676,0.4459287853400246,-0.2780634835916727,0.2951805552404346,-0.821338772009206,0.28750560083260607,-0.45410093398781254
,-0.6855620550291641,2.196590773161547,-0.4622924006482225,-2.6922350622510782,1.3619698314537731,0.12384436531474238,-0.038437087104958086,0.21937310791586626,-0.16841963386634762,-0.29230932220217126,0.4907893262480421,-0.10893522609197236,0.3879870096113558,-0.4238708020812028
,0.06230810081913401,-0.3644303430476174,-0.12338156908363584,-3.1869168730760626,1.7700615454580326,0.4012116062226812,-0.2973908132851008,-0.47058812475110096,0.43703375708084063,-0.16713204158546124,-0.234993184114173,0.34462292113835324,-0.4100165848088053,0.09322120015856174
,0.46480558439689523,1.3086932929591388,0.30378369181532117,-0.23667973323574013,1.9910215330108292,0.20842109486953297,-0.46894358637655353,-0.30426974683232927,0.6795279456729194,-0.17750152059514585,-1.0171520375260648,0.08695610356253478,-1.0968434594403322,0.21517388732706277
R,-0.5375742096843978,1.6328810619404297,0.2804163434169811,-0.12262380750392471,1.174657190934707,-0.7451188984946364,1.3796266125269983,0.7779748613836046,0.9559222867693078,-0.47455944034569486,-0.7573295892166033,0.33787324003188085,-0.06480328333294601,-0.11220019352803394
,-0.27956923202562606,-0.09022642033781011,0.12671015112322906,-1.3281814574510737,1.3453702825203393,-0.6375300265119574,0.027606129407238354,0.45758663954819767,0.41587947413642884,-0.4027534247038828,-0.3660858409434786,0.16842540203910739,0.1898264294708201,-0.264934271365369
,0.649132347865091,0.1504803205420346,-0.09127912019461988,-0.4358066421923758,-0.06464652056735405,0.06704264733272078,0.7212516659515347,0.3289252861951934,0.16968142461380878,-0.16521259826381746,-0.6252107200673923,0.23536970972996568,-0.33149817647502616,-0.05548886189031934
,0.058864180758820515,1.5670052277144173,0.11366353333916036,-1.0982756515165029,0.8588386396203344,-0.15118817670438545,0.753750736050762,-0.009521815300885708,-0.879555908885737,-0.035160926090909546,-0.5400642592037774,-0.8937803330523092,-0.43774816843082176,-0.0969698530603883
,-0.8770276296674686,2.2236499733091257,-0.6404736919763675,-0.1858975524220481,2.433518047192992,0.8817443968220927,1.3741702856852587,-0.03327462545816652,-0.565538950539864,-0.022763455807571154,-0.21648373569683707,-1.1710792145600784,-0.4672518683009173,-0.042569979535129414
,-2.4050886282871113,1.1542492034701108,-1.0262609075449374,1.4083625151661066,1.4277977775706474,0.30509230754408695,-0.6590070702189453,-1.1604734677437603,-0.5856443238035417,-0.10336753127495417,-1.4037737667383035,-1.1326545450403052,-1.0446759561347243,-0.229881100263706
,-2.496251445319089,2.0495896971194063,-0.2734743057411468,1.5497109579656558,-2.1715757744592272,0.9847368388490644,-1.0548583011617898,-1.7023208008664494,-2.0605439443634337,-0.9681481249363713,-1.6494553582415952,-1.5990426441593917,-0.9792309338892026,-0.8193949866394761
,-2.512165858013866,3.6462099892394604,0.03192160126013029,1.5029502766924223,-2.274921774633142,0.688569478841,-0.5669280051273448,-0.9804132659183926,-1.2937100110910689,-0.07276642492825472,-0.9620119733427822,-1.934346638809754,-0.2951377521913788,-1.2314891472725098
,-2.091113465277567,2.73803742542091,-0.6144501217778657,0.8824329510159316,-2.3180829020370215,-0.26090971786554773,-0.09359354373266841,-0.04431551513819263,0.653867893906145,-0.16498417602255586,-0.9708991573545869,-1.6596929065515336,-0.12491571038337969,-0.8158548374480772
,-1.3459493097331336,-0.0077978749414083105,-0.5288941844163074,1.679126314599749,-1.156377694142014,0.21460705458072882,0.490206588019389,1.090586488668518,0.6545244410775214,-0.10825141570840276,-0.29940812617517654,-0.7306129867092546,-0.11628737197192238,-0.18829578899782898
,-0.5294023069928223,2.3402499759454143,0.07409873467449359,-0.09509161877786514,0.6464901785595617,-0.8881289267173473,0.053040896185197965,0.8888799143900536,-0.24319501558327947,0.2751235282498034,-0.4111016026259155,-0.33092624137338045,-0.37878923073631143,-0.08672974806489664
,-0.420186257318199,4.555465084028298,-0.2432062681327637,0.5583995737505894,-0.14368500332841896,-1.0544898784911745,-2.34083897525192,-0.1683569057581707,-0.6862250456243447,-0.3412860882007729,-0.18240317734023223,-1.0846916107443254,-1.2077944332812627,-0.25600865337611073
,-0.3032533735171469,2.24372915892958,-0.3206537250256082,-1.2758075055455305,-0.07528107839672578,-0.9013922258560837,-1.2039055527739513,0.04057328473176391,-0.1602565948038908,-0.48714989806638054,-0.4550441109171768,-0.04919151544009279,-0.9884686195891778,-0.22758040722752662
,-0.1687990717861901,1.696725021469618,-0.6287309296017828,-4.609737115582524,1.2294923517608463,-0.7766391050328678,-0.8059727126023337,0.10782252951173828,-0.22719887360881136,-0.07376640753071886,-0.40936575575179796,-0.24291495514376138,-0.7174621856222942,-0.6365213716039193
,0.6147827473711778,-0.21382230357359047,-0.8283668969450865,-2.459085638245694,1.4908736890799756,-0.23866949681717783,0.7525806078766483,0.25341365464818644,0.18601548802302406,0.0110236530845377,0.38307975758051976,-0.3566978463303947,0.6227429585048434,-0.5721067905791792
,-0.5443783466079478,-0.43533908865659804,-0.26363053609637627,-0.295280606901472,1.2057759855135861,-0.5896628704133967,0.890336166263085,-0.232040362408268,-0.44819272170401225,-0.05001044046189147,-0.09123007370834338,-0.11414410978817689,0.21407655953370486,-0.4244748390702797
,-1.0058372345629558,0.4853793058228337,0.23935318676775333,-1.8744957256650276,-0.7674427719510752,-2.185108544232331,-1.5904225488867125,-0.44697782597920194,-0.6245990317049317,-1.0228326518575008,0.3096035203057063,-0.968934797282497,-0.3035959043217266,-0.024203573481213513
,-0.6280185441155383,-1.0437986876190735,-0.5518725870861656,1.6627907653502587,-0.23731509400020834,-1.8420801647848362,-0.5797962171573446,0.15012693776622293,1.00128544491878,-0.2826193837248017,0.3690282834640581,-0.2843344606693977,0.3099173079733025,-0.19774270614884987
,-0.4439450027918001,0.7450005959904743,-0.3679851100341395,1.4292860701437888,2.4812882856323935,-0.6887333069334164,-1.3917211966138328,-0.05852812179079982,1.0072266043370321,-0.2344486526621797,0.29614452346393944,0.6241681747916948,1.128675761478848,-0.34559415725993947
,-0.5830096762778244,1.1729146327590012,0.2770803148156232,-1.9279793115878507,1.1997906444940791,0.004713164439232148,-0.8576902251203762,0.7416317999244761,0.2899770464664061,-0.5327047417151429,-0.34449802858571676,0.9315405286134065,0.6264435735904794,-0.37825764905471027
,0.41114287563134994,0.6613687603836472,0.41916035681105995,-1.3393560084032203,-2.7174888819873195,-2.0748275034199306,1.9205531577009975,1.5452579435436415,0.3181054937796316,0.22082107018211813,-0.3884033840909946,-0.3934508532837663,-0.3732233945029373,-0.2426420001022354
,-0.9897390127518885,3.028962979003022,-0.12048444290491336,-1.952666527454731,-4.231729741583888,-3.1692832870650105,0.0853463596581111,0.19469628198016753,0.36006153701513033,-0.2643499421386833,-0.9962165042448485,-0.2582472191505314,-0.9768813243856069,-0.3035409002244416
,-1.4527671209547444,3.4187022111328025,-0.2552477343938052,-0.5461453692347092,-4.050568067787101,-2.355753275067014,-0.09232667600226721,-0.2765039234105142,-0.3038605343289742,-0.035899621467816514,-1.1819926533024414,-0.39143303182433065,-1.420454135295381,-0.2219701467911824
,-0.4877068552264879,0.14434997170143243,-0.15299812865747983,-1.1051282232420012,-4.314220979955309,-1.694480981243012,-0.648402841655124,0.6958217900338142,0.02600167771826877,-0.022880917638574482,-0.8830683468891168,-0.6381295900784948,-1.2558454926871954,-0.48025307553561314
,0.4228107224734611,-2.3804314360099452,-0.1124255136476066,-0.4204774253510013,-2.9486640116733107,-1.9898746445227122,-1.7781878049487072,0.7463528355079995,0.5477919447010061,-0.49970913954481483,-0.38464797116331984,-0.41717569005846866,-0.4277912455061341,-0.6758334918532923
,0.4029873076440773,-0.7229474628899547,-0.07323245867380795,-0.3590470458878164,-1.7345333012552087,-1.7571564491476626,-0.6352640208559329,0.45776515674451496,0.474601683962444,-1.1511915092856961,-0.3017286289048787,0.23202362479556746,-1.309927677899444,-0.3520220250478022
,-1.1162531998400511,-0.9729394341699646,0.11435233355939632,-2.2205408604292947,-0.40758962651441355,-0.44552134305223495,-0.9175485500420408,0.025434981168860345,-0.1765935691321726,-0.7076726834228807,-0.3393830576537619,0.45676500533257985,-1.0181552557428817,-0.5084719142337034
,-0.6601712302850982,0.41171712118261783,0.46149450034675626,-1.054385675686693,-0.17872391243283658,1.9358655265073195,0.11910302689743395,-0.17000338001862708,-0.5084236007637657,-0.4645367594997114,-0.21149965605805998,0.7585133068643123,-3.209257682511315,0.058736813355623974
,-0.2287801423983958,-0.1409535614290973,0.44573625017655144,-0.2927918997862264,-0.8666754134454646,1.5290029010919537,2.067501389179694,0.6140112241657364,-0.42922260508385524,-0.22407500492411125,0.07836683567832564,0.38671379181575327,-3.6295712196302254,0.5042100406297886
,-0.5200978294431718,1.3228615356229132,-0.4410449337020632,0.6021017066066285,-2.046173129756308,1.2640898174121062,1.8875782773716439,0.27755568395623964,-0.5317377505068362,-0.603076475029172,0.0003349233993455369,0.31304164323953804,-1.3968569075557282,-0.1830715206783992
,-1.479289274805711,0.817447215054768,-0.6160267276705632,-0.47705196945948264,-2.7927838017511393,0.49570232768635764,0.42750389032465574,-0.42251723235213823,-0.5049754949529407,-0.40677517296351984,-0.22007398467367478,-0.5737767957914074,0.2640222023004434,-0.42283770879266874
,-1.2958342925283162,-0.5175230142360379,-0.77684546943349,-0.8600702386952744,-1.188974432614651,0.6885369422534534,0.5674449181592222,-0.7043250672936937,-0.17382518424692509,-0.7484162648273003,0.24433844158439366,-0.5808371606141935,-0.3443369751353223,-0.5942864796776668
,-0.0039388791519202075,-0.7041023016703261,-0.3752165015848539,0.5852503767011534,0.3284211028747019,1.3239281057507268,1.1341390751584013,0.3145970399135127,0.7275805953106653,-0.36372344591500855,-0.3179792352301529,-0.7938449340147095,-0.7271441268941883,-0.15275833165766609
,1.3932836535107462,0.4250215789373129,0.27899375985553243,-0.7220809471711476,-1.1520290513789098,-0.5917917713846673,0.2622889386938959,0.3408406630668563,1.1026356635706716,0.29673166185594846,0.09450576317729809,-0.6266303527737457,-0.13260612737427657,0.12445460075634737
,1.3291174752459614,1.3703560851396657,0.1598569680694843,-1.4824282599783936,-0.44709691507889104,-1.915579005005752,-0.5353890521141709,-0.7479152131222355,-0.05546174629652441,0.40316288945759976,-0.512296500962646,-0.4686905459700901,0.40811718058965424,-0.13196005605249123
,0.8882889057073285,-0.9072832853915179,-0.16901440508985974,-3.957041171508801,0.2490087284412535,0.3683019349202672,1.3565602438954734,-0.3995197399838127,-0.04332033838764159,-0.4766101892307611,-0.25712719392642236,-0.49765483712575076,-0.22910452054680353,0.03231037796062224
,0.34390936231842,0.002527089163708693,-0.47384633489982875,-3.2304892992065333,0.2321564119068768,0.5359969799097635,2.552403310454532,-0.5444781240323542,-0.2682116820177106,-0.35941308088441054,0.38427134102808524,-0.252814306760464,-0.8021708026117276,-0.05874939482762103
,-0.04989442003735861,1.3333548484647717,-0.08315557340893556,-0.23636509707794026,0.31169466045301114,1.4272401693346897,3.926546073603478,0.3024186726206824,0.033591490073155,-0.343108439370102,1.535605880795917,-0.03543072214530214,-0.33691604190425345,0.011272107877234027
,0.1366036401246349,0.6720038352857661,-0.1245599471934664,-0.18218296283621266,-0.14487743951873852,2.7083937879412843,1.6732931000248872,1.7931596406621229,1.6748043020975754,-0.07730081294631544,1.2760861849601222,1.2813576798593542,0.2791322540706274,0.11809010714947969
,0.3839077543348886,2.609024435042883,-0.3868622605055738,-2.6520875766550827,-0.8987191364162813,3.238036421221684,0.7586863851650688,0.512608011826003,0.9932143995689363,0.09237980109221068,0.1313092773581002,0.5380105600991977,0.08753643921329371,-0.11273717115386846
,1.068495308398276,1.427332319739696,-0.08912656257000684,-1.921987242900278,-0.21750289730081682,0.05343007668635177,1.0883748166664522,0.10411157856816632,0.295480454800178,-0.03931669506376117,-0.1786367597303711,-0.41475386049492646,0.501942569444446,-0.1157898819628892
,-0.6623709968522665,-0.03191882804048965,0.010969916551341797,-0.09739466397710568,1.02307891175173,-1.0588328583932762,-0.14629861053110274,-0.9097365333761656,0.1122504107976816,0.08284120185734832,-0.6189785665492158,-0.7008510815775477,-0.19025707967634647,-0.3346013922612202
,-0.8567046578010044,2.0497283613566735,0.12357484691295986,0.3469417659034258,-1.5382933817093571,0.036620241886090144,0.3468563471592153,-0.6301428134304721,1.0656394307974932,-0.3830068196610515,-0.16894759416808997,-0.3175801679892931,-0.005967848076850789,-0.5366451953100732
,0.06656963614990273,1.5560334477007098,0.5363139739150471,-2.885679158141228,-2.1563004608377385,0.0722946625494143,1.63114988064461,0.6526096214466276,1.4685261925542163,-0.5486011219917885,0.8617315606273684,-0.6356395230447682,0.4531586306008606,-0.29211497991671614
,-0.26119278910530924,-1.4538817673555102,0.3092083957689893,-2.323416715882852,-0.2887523723550823,0.14356650855712574,3.2227534522304033,0.67594452797691,0.8752503960332604,-0.4088622346401577,1.0218468124479456,-0.1691730215996437,0.29436031238457394,0.021750150547978606
,-0.14237021674604597,0.5282575266987153,0.3867689259094111,-0.6433629609863677,-1.527859795797623,-0.16288182425593534,2.389968445056248,0.6053388184779862,0.49132512696811387,-0.0674011909788262,0.6207310851729224,-0.606677260243006,0.0015764643171978917,0.033628438855982774
,0.14048348513110853,-0.6999255164741166,0.46572127535289565,-3.6853461286579288,-1.25086523270667,-0.43931057649065364,2.4987009465795706,0.5237505379447946,-0.37012831504260785,0.011506166045078316,0.3156375115114859,-0.46281760589075044,-0.6090233799007656,0.00606907798751017
,0.23287455701214174,-1.4804400770392996,0.10002615607297609,-1.6406922468675136,1.9211091440319852,-1.3472707833902966,1.5802211796708983,0.10679311407147081,0.24340233331055577,0.026893784706334134,0.26570780302596547,-0.08013209080409532,-0.1738263044217926,0.0065378171434115175
,0.2737438451941917,-1.14805133172432,-0.28042165004182773,-0.26723277253511885,1.4519671915555128,-0.2345833498540661,1.0013075367229844,0.08602161188160329,1.27288216121392,-0.12491193477156447,0.29428341132215086,-0.2589985956522598,-0.3352540085596771,-0.3060586431686783
,0.6927629939379841,1.007464531592209,-0.30753500240316545,-1.6286456769018975,-0.16953124379062837,-0.4911805159375146,-0.17161141493401405,0.413266302060097,0.49132671140874734,0.1426376372698552,-0.25122833385131116,0.48855703784206594,-0.7463883291734065,0.10954311722789546
,0.4676617493987264,1.373854158847286,-0.31107730244356946,-0.6334870291221719,0.19184361550572798,-0.6640994818610176,0.07049779572383624,0.26892860937367447,0.011143917290380601,-0.2865991825727711,-0.3273693411471968,0.3848369631664085,-1.4116744444105302,-0.11968570595527778
,1.122441586934947,-0.42440687701768104,-0.4875365410741012,-0.8907884814825299,1.27570085980573,0.7002869391391816,1.4802609402894813,0.0029855897004268397,0.054524678708612176,-0.5349063241635618,-0.4805361956508545,0.33231110651031764,-0.2906314707678912,-0.30073824536943183
,0.1806940763354772,1.973327664091512,-0.33354718930627625,-1.475551110534948,1.2468797728497343,-0.4978225608546542,1.0496889949171284,-0.26550759094497206,-0.2921679455445116,-0.09630492194055144,-0.04225641662746152,0.294137735212132,0.9699142708245465,-0.10662908616270185
,0.13180347267943543,4.058116249231668,-0.08902714006942834,0.7914695719702755,0.45133463289677717,-1.2737802209993168,0.16977877229651217,0.2494630057007659,0.24776159637838757,-0.10925058962840405,-0.42959790890588345,-0.28827559381795115,-0.16256802228703898,-0.1327639631027759
,0.36221407726543703,3.74711480708644,0.042599730626986854,0.7162138469813156,-0.8034053104502114,-0.6002598427424823,1.0753593652037488,0.659835348417019,0.7319591655812536,-0.39795291442983055,-0.3475512069270982,-0.7052451995898563,0.4330064107110858,-0.09102624533247239
,-0.13640041918165005,2.336231698009874,-0.19281233830628713,-0.7323870015363625,0.1194512894410504,-1.352755706141893,0.12685112464242337,0.7372329553326109,0.7937474758907078,-0.5344070311976058,0.8261587880766893,-0.1607291334183518,1.146082292454909,0.022662342972089702
,0.44239391124294253,0.17516454956831431,0.016809361191839154,-0.9634280606666014,-0.3745832048366299,-0.5600338114387621,-0.1992616232207756,-0.5761812498415859,0.4144064026880286,-0.9437463182062965,1.4493788097883653,1.7527771710743816,0.9164651718095956,0.3785764510125981
,0.24491666221509398,-0.24805815773034734,0.4244721570889939,-2.194935382293792,-0.3079329957944242,1.537098565890572,0.14675887850790262,-0.054736360006385,0.7348532702623622,-1.0824078243068054,1.1708407096487166,0.3372044185416874,1.0746436378433382,0.09871808208014347
X,-0.9416979081505956,2.0364446982542495,0.7091893003200807,0.7362020806797014,-1.273541959778772,3.2076943659025736,-0.028224634360277192,0.23561252142766967,0.34350451655443864,-0.25795886879186725,0.12086555545760674,-0.5555439985996199,0.6269356485405901,0.18854668352636733
,-0.87235174105352,2.7020124802802687,0.5858745392957568,-0.0148929654710375,-0.10354665021394663,2.0197981054525695,1.1282222816990182,0.2027436570793037,0.3243276568975547,-0.23687835784814604,0.5850990031275995,-0.2406061251740392,1.219584752507721,-0.06373509747844745
,-0.24943940423394403,0.600844528739735,0.1794487981778041,-1.267436412296893,3.110182315940958,3.4600117075504104,-0.061336126321900525,-0.3724051136880198,0.35109224718422294,0.10622608446881103,0.7819206621026622,0.4717942226778218,0.9190239113180422,-0.3775282124110298
,-0.983666182309658,0.3705517092101596,-0.002180283446301551,-0.9669808004992866,3.209706221003827,0.28097813663684484,-1.0855796280828849,-1.4322477916807523,-1.5033019123963731,0.4104151611998472,-0.5518363573596281,-0.88988963323427,0.5078790392195682,-0.33934508005959574
,-0.9830539338927321,2.0084516712797518,0.35662423679820804,0.7932206915676496,0.9788235055738687,-2.0965138799500282,-0.45144373848068486,-0.7911218010046062,-1.0341463208885093,0.3880322275926691,-0.3943515177724875,-1.5333824312809547,0.8096563906253871,0.13042636546366554
,-0.5114787557705035,-0.3613593767103737,-0.4126334546915475,-0.2776171203623231,-0.3450910422510981,-1.47197830709736,0.9523123099589482,0.39835515464196924,0.30342745929089016,0.46811216150762003,0.16041363630246516,-1.2463605834033555,-0.029333611434113643,-0.6001359706697019
,-1.102094793109072,0.7264287419190487,-0.7101698591404197,-0.749494984599988,-1.9866841314149932,-2.720997431299637,1.7227979780370575,0.4742875872731514,-0.10026186457986841,0.5049759579731811,0.18912944617565353,-0.87609306523896,-0.8421144706104686,-0.7255912137412152
,-1.1370962839304974,-0.18561120490723967,-0.6264709702225972,-1.8505144660964041,-0.757672759677159,-2.0055102766924517,1.8025873825375047,0.04615944916389941,-1.3289006009081903,0.4934088539492869,0.232382234934922,-0.5239390590405892,-0.9080251137696247,-0.6329026477007101
,-0.4035841612229159,-1.257369884658429,-0.06461915381908669,-2.0794819537437244,-2.201093742670293,-1.646835729981134,4.929494065298399,-0.11904205530884317,-0.8471354815189277,0.48799343932515526,-0.5291599676301715,-0.6262539506799341,-0.39840548676221055,-0.2133154866213051
,-0.17024496719477492,0.3580020471389232,0.7217710796815437,-0.36994854971794966,-3.6673814553631736,-2.848745101060721,2.848787884565299,-0.7384667166013767,-0.008880535349924246,0.37147994239480037,-0.2404743380742217,-0.9014370254907134,-0.8945893956306891,0.011130425064385668
,-0.8115617749966543,0.26178969390812046,0.6398535095657074,1.0407741721060355,-1.1698150159235152,-2.575379983326246,-0.004300832171000549,-1.4591578324538927,-0.5619936395862584,-0.30904335260022936,0.477141703742339,-0.8652958037609977,-0.6015784387420128,-0.2022705176953934
,-0.647574109603798,-0.9385957109868454,-0.1841779919081034,-0.07505044292861894,-0.21094492955235905,-1.9592337987763837,0.9887007669846051,0.06359050835167117,-0.1391693413832206,0.3485257075726177,0.5583577592559907,-0.10291375770851545,-0.6601550273090503,-0.13548505914590164
,-1.244723868406994,-2.099113300444111,-0.2553474260105472,0.7334338183852922,-0.2738054439666546,-2.014137268047079,1.3267439871784794,0.7586586165077323,-0.05363292069391684,0.28561557068942595,-0.3616937744458109,0.7717054165034772,-1.2380390122987748,-0.40864060973670074
,-1.0849372256290557,-1.7971112397064148,-0.4356476876525487,0.7717053915137618,-0.11663589570192089,-2.9917313191000945,0.2869206769491987,0.3921169384599755,0.022326577335173244,0.033223596604555615,-0.41122560017362003,-0.26992809489695363,-0.30659290897260927,-0.1718109303607291
,-0.3279555283541657,-1.2116383246152407,-0.025577508428858742,-1.088266977925336,0.39130806493682896,-3.066070299808768,-0.5899647433834513,0.5017797096960482,1.1777184989015037,0.1537762123186528,0.017808711771560917,-0.5659345739014568,-0.45193081390636936,-0.19003065949168904
,-0.7718616006396936,0.31285405433020075,0.297754434765416,-0.9568835555883047,-0.008486072063617836,-3.0685422554478916,-0.7216644243105094,-0.01931742489538722,-0.31591997241347686,0.4718048693303257,-0.29221440088607825,-0.00454482375565569,-0.09780296541995864,-0.24581100456369703
,-1.4470885746805637,0.6309479974380344,0.24962791857571295,-0.1418557650863092,-0.3367767591218446,-0.8091779315676049,-0.8819757009371681,-1.2730325357382466,-1.2379433052773194,0.1128943909081288,0.02783278675112886,0.6939165106519448,0.0035936519841614865,-0.34857352820122334
,-0.8099212622342703,1.8947396480873533,0.1956352689849915,-0.33352843526016446,1.0962873591439444,1.9865596521437214,0.1878974940531946,-0.6553902481658223,-0.608083504250108,-0.1891118330136796,0.7699024411339979,-0.0763660559586958,-0.12089351797676519,0.3433267146323952
,-0.8506427857049763,2.8424848085127477,-0.13957334403308622,-0.8073725190232752,1.4303708775390762,3.608247616334162,-0.34227476078787156,0.17711114117559373,0.9732664000628012,-0.14835880405229646,0.5216948753374586,-0.40572879987888694,-0.0805576218111949,0.08755980616231827
,-0.3528047149455162,0.4998560700022349,-0.02013284737223606,-0.831972996469883,1.784185712571194,1.7775616770889842,0.5992659395903551,0.08186144910836343,0.03335471723212794,-0.2731806504982644,0.3425766774293111,-0.13039428294021255,-0.62624084038364,-0.1415846993395655
,-1.1111964686468674,-0.9405467257010259,-0.5496851398191933,0.6331352379272231,1.2600457028825647,-0.3186220036591687,0.9741911415380277,-0.6796024410834784,-1.1390646072462425,-0.8010833492907034,-0.3588407567886269,-0.09121027474282363,-0.22568442095151092,-0.651312061721185
,-1.3442730427055063,0.3168202076095091,-0.6884192347754554,-1.2958108877085288,-0.322333514101806,-0.7364102203254761,0.32434997102153496,-0.6872734645888328,-0.5561620233928251,-0.5901445774157045,0.078454705406588,0.9606157424658432,0.30763183494330976,-0.7149398759071179
,-0.5173931394368907,1.153510073932395,-0.027790651913109986,-3.865015350892892,1.557355142110856,0.7347218956926682,-1.1719134211497366,-0.34827583521407823,0.031619164098821276,-0.14830262501169317,1.2250559329895572,0.8295288216404,0.49501279887302563,-0.1275134732230414
,-0.3489434759851035,-0.004046058377281357,0.508762059452875,0.0647514346585131,-2.406188522464671,-0.6317044948990547,-0.5646924818505554,0.175269576132183,-0.35766608801083805,0.10281980005581212,0.7396217210964644,-0.07004545421000799,-0.5271045052153901,0.06505478208513883
,-0.0014875324272858536,-1.9378382939052157,0.2564889719773239,1.6346246791344106,-4.042603322816543,0.18589154111333203,-0.03372654440013854,0.16821990684902496,-0.9415389624990511,0.47910767880773286,0.3116836307987898,-0.24951065729568364,-0.9520758696838855,0.3540061257389404
,0.9321466194175637,-1.7184655712779822,-0.392409741926269,1.9308750169349074,-1.2514964053308975,1.7945739270232208,-0.2981343785491567,0.13505456226057191,-0.8834318777680968,0.2725129860066976,-0.10337051771179914,-0.6892245798530172,-0.7963377022099893,-0.3543488886342113
,1.3238071799748135,1.074390132246034,-0.5220543357493431,1.0338364987892608,1.0466161952140314,1.589758297700987,-0.396376966892656,-0.6143351702126765,-1.148895978533395,0.2868725591130165,0.4254741543692274,-0.6960292250310144,-0.1504194191348329,-0.4858192330711072
,0.6347186348766152,2.175886879184009,0.0016552109112327796,1.040897083805061,1.0070533786857434,0.33491896495937434,-0.20916964194963927,-0.5974155670861852,-0.5869544792820334,0.4280117359382636,-0.13010543932818797,0.44619081329072446,0.3179350671116745,-0.09222634442307472
,0.21707935880937337,1.1068425537790179,-0.012640779916783194,-0.09759477471720031,1.402646570633231,1.4236748952357638,1.1270022206999393,0.5053507802039665,0.4464546162757689,-0.05314096159632548,0.05973973284664332,0.46056885868577424,-0.4816160259214681,0.25164821517464614
,-1.1861946576789237,0.40007314754203255,-0.1706325836650102,-0.2442647441586033,1.5257830471948934,2.561356759193718,1.8184207280324052,-0.2869306989906805,-0.18988503943314416,0.4083566668107228,-0.05581976045221127,0.01696026271199231,-0.29832319921201084,0.10180009951771096
,-1.3431437068548437,-1.006565898117398,-0.3702085447576142,-1.6016566585521586,-0.5393128807105635,-0.545836400239316,0.4084470605525224,-0.918957499185649,-0.6575762184987669,0.2912285543242287,-0.3109867523769675,-0.5646228565127284,0.996641126372556,-0.21658093017979851
,0.23909911266535247,-1.0734315915706067,-0.29625900096060587,-0.10812154437929511,-1.2550562691753229,-2.171415249054595,0.29543940667434826,0.023221738698407896,-0.04166855137289558,-0.6283042496678087,-0.11170772089380747,-0.49520793436586513,-0.07673653367536942,-0.25301975736691884
,1.5060427866752029,-0.4791605475172223,-0.22458048713014273,0.5333679686695045,0.42607646658006165,-2.3093924064388576,-0.35461354841785236,0.22521079980906633,-0.4891658789232321,-0.23945544218148512,-0.6252014377877854,0.20571883688138254,-0.1220547966894068,-0.3843444240300368
,0.46399066552663226,-0.3235725771159466,0.1401500579326633,0.30260465915653995,-0.5379457966183226,-1.1072940432672322,0.9021650205429964,1.129123939566585,0.2505078165914997,0.3291001851135526,0.12040297305422047,0.8082101179736818,0.19251014349737186,0.28121224174244286
,0.42694860478609126,1.7953763399097822,0.011248976432415295,0.49663627073499883,-0.8957210985579863,-0.4108052365513126,2.272908843516672,-0.3562840100122306,0.09361155443909386,0.27959145924184636,0.8511180723418017,0.3057986248375032,0.49649426021288623,-0.08798084864773785
,0.7308062002725135,2.438943475579049,0.29086220936401436,0.42750464739301286,-0.9824055968931111,-0.781447966011246,0.1726438315930256,-0.1283797098311861,-0.007741009693416832,-0.2385504003511277,0.4794174054190179,1.025964345035826,0.15519118607191087,-0.8989169798406447
,0.9574818584485113,1.204093514728003,0.18666613523995534,0.14820608943984728,-1.6185788590544665,-0.9232619658954837,0.3749981089378971,1.7305466328646328,0.06521189846954403,-0.6504506355401838,0.3384447615204184,0.12217822830494567,0.4152756558106174,-1.9088043181097862
,0.3523239415657548,-0.8532774319529264,-0.056813546441995454,-0.7724974641540476,0.004850978532489606,-0.055906563302057954,1.8497234372507547,0.971361336161012,0.903101885175677,-0.4533905207288047,0.22145034231822538,-0.17560656704629227,-0.012057618900639487,-1.4194136811000628
,0.15064745162497614,-2.477279768273497,0.13320963589019694,-1.392711620327515,4.717590529664652,1.2614762449485848,3.03240561472223,0.4759855558768557,1.35316397472216,-0.16712801272732303,-0.3032391139616397,0.6593849044880499,-0.23022178498794174,-0.3482481409239096
,0.3711125255073339,0.6680301266194579,-0.39067662968408406,-0.49765435597559027,1.5764357249510268,0.4294460036484172,4.234131077761073,0.1930590771398189,1.7098092105793705,-0.403831457633528,0.2803318929986462,0.9497528125632191,-0.18580925181233782,-0.2239548186009629
,0.30116225115733414,1.3967690603637344,-0.5284490139786034,1.30664969364599,0.2747579755689087,0.8575876195965394,4.097487012692462,-0.8125965837689241,0.8366912275636799,-0.3544209249479616,0.7488445022965294,0.2138047868020907,-0.3116982266308073,0.4151634131502295
,-0.13795027050306263,-0.38942241412443024,0.009780735893240269,0.09094828529760159,1.631220819896172,0.1903360282655103,2.0726662428979665,-0.18181608416068068,0.45573631751235977,-0.05284561613256421,1.3192130828894213,-0.4277222827651445,-0.0056488414418421305,0.3918032977198921
,-0.703790559109127,1.3901501775410732,-0.04057581271748535,-3.591171310097353,-0.5699947725899351,-1.8707888789556086,0.21174567959290544,0.32121323273557656,-0.31290940992604416,-0.4383039168232335,0.7773872617460716,-0.7767966194159303,0.4649523344713259,0.41243912011880296
,-0.6337232078891339,0.3518005754549964,-0.35009028188234986,-1.8446442979886564,-0.0024979271470366928,-1.0380215978813117,-0.6351415488604354,0.5598447580410962,-0.7921269527886983,-0.08090604983247603,0.08677615783391754,-0.2186947842169218,1.2701555866354501,0.002495518599818701
,-1.3434997674535012,-0.853774052493922,-0.2977577389924221,-0.1419927531594259,0.07258720554591293,1.0587682799155484,-0.08238363157472406,0.3331796736522361,-0.7139608919453532,0.12611371357006465,0.11686666439070532,-0.9422266596671283,0.3322802474312261,-0.09275988703188862
,-0.8583424546392132,0.8206391997210052,-0.39479806931907474,0.41388665833213434,0.28944479123388167,-0.07690649201630405,-0.9069067208598107,0.1857150743897023,0.4794458952274391,-0.2142473988156727,0.6835866832434395,-1.1201681013763927,-0.08781232710952663,0.006742268970446444
,1.1364122020618248,1.1486267444837446,-0.12255117695203524,-0.46112992983886464,-0.6394264878127126,-0.2485938762135659,1.2198649739570884,1.1146045221334353,0.3047829526098871,-0.2349069950123612,0.08751951429937323,-0.42434527455472654,0.49887972051948437,0.06507462118738398
,0.7622802121320924,0.4842344704264162,0.1534105905429919,-0.6175837985459811,-1.7248473063948675,-0.8498007874677388,2.950342741657805,0.6194439836651228,-0.22062811873381505,0.4626099544563486,-0.08147251084740022,0.2500871782149447,-0.5498031006055927,0.40703813423828705
,0.9825569757254587,-0.40609314367341953,0.12525769768253558,-1.8181332556992058,-1.7288485591373481,-1.0011222476387034,1.8219671281822345,0.7032534435628892,0.23425877461233896,0.22788867918891226,-0.24464749867033253,-0.24759761129522936,-0.7254793789791659,-0.1409644825294917
,0.1777711530547042,-0.898985997668318,-0.10126296768687645,-2.9009281335561563,-0.09945632705480534,-2.5822676978390864,0.5303057797924764,0.5396241550086893,0.968922373455717,0.2222312762512385,0.3206479724589498,0.07418403019236955,0.06225007178910829,-0.39793039399970875
,-0.7077222110531735,2.6064146431115227,-0.5231593063799109,0.018934218503051454,-1.8429124389199052,-1.9311629784240227,0.45501085539638986,-0.09765975363261015,1.1843922391783535,-0.07466833967467819,0.5252525264802418,-0.6393889541516183,-0.8901746743657104,-0.4125579261055061
,-0.3596110647764516,1.1789948239278227,-0.6635732327667908,1.6452944618059167,0.345155124651499,-2.0579161907685473,0.6691091557124064,-0.035147255193200756,-0.06408871248422415,-0.4457101818061707,0.6296483295587411,-0.5220858770372363,-0.41901086463124176,-0.3401499639456517
,-0.0902081069132684,-1.398831618529778,-0.7613813942069091,1.2663502420257047,1.0141950255248313,-1.9181875030563804,1.762833148530743,0.8974443026072539,0.4264809902269769,0.44634258798789506,0.5357438225137259,-0.43363759044240474,0.5654699661566988,-0.7816987198576452
,-1.1448492082354627,-0.42330521943826865,-0.4979917551763982,0.8199036798305153,-0.032809003381844073,-0.030028722449930767,2.3182195117953754,1.5974516039699849,-0.08665175154565269,0.17122250178039053,0.24752142604023902,-0.6594330115728914,0.2068867940319779,-0.9680352976095429
,-0.9421807046219142,-1.5199754450224243,-0.0956064740917419,0.051569832752160344,-0.05171837402575276,-0.2087894412124686,2.5532553966158504,0.028031351660344317,-0.6146755286448334,0.3105951789201877,-0.2066629624093115,0.437238163935641,-0.3882766418536977,-0.1680564975997466
,-0.10922607533596007,0.06102060498315649,-0.310482883301655,-0.9510240588569134,-1.4230220553662407,-2.203983937987711,1.4565975573052818,-0.49901708715015414,-0.2095023153741372,-0.1390949133723612,-0.006045598878664813,-0.18027728701104695,0.05478652996387775,-0.27198036086900224
,-1.0908230262687213,-2.2403715377894438,-0.3996187461345208,-1.3769514071937081,-0.2811566698566183,-1.3566101379736115,-1.2703762355068677,-0.27617243497271454,-0.3731723224050161,-0.44562617098802126,-0.6204129921361924,-0.7546147907608248,1.084673669124002,-0.3147656297771024
,-1.0088529491259373,-1.6689585044191162,-0.5607974012597111,-1.4743625802851583,1.8900636247369043,0.07606825507335599,-1.7253864191479338,-0.5789771852854314,-0.904502625467023,-0.21629170096806552,-0.200315496997544,-0.3052726491164036,-0.14090086629320833,-0.1303439274551016
,-0.3521048159713291,0.29911189490324874,-0.4851865289862173,0.6976175204814407,1.6980150943314039,0.837068226892821,-1.9736242116154386,-0.6735359011312975,-1.0256973016749047,-0.1955214695790103,-0.6541523153520459,-0.2604154062878777,-0.04508916881617853,-0.7037792215270752
,0.0898798729697349,1.0019206754280399,-0.04737641547569817,2.9565551527081606,0.7481322686055258,2.0316680159951788,-0.6179534283867621,-0.6322526026990027,-1.076502991100285,-0.3684280256313502,-0.7200513784954605,-0.04160671016405117,0.6931971757063617,-0.7141317274154424
,0.9199688039626528,0.11197465671310196,-0.16152509477001023,1.4803465393967066,0.9071728364241742,0.6925002926992114,1.5039008463891486,-0.311648326694076,-0.48791141287969486,0.1051977126855015,-0.7648857668754901,-0.012339066834380668,0.12024479503391967,-0.022172289742059825
,0.6288180961142122,-0.22205155978478797,0.20180057428935574,1.2408962500623943,-2.2496355495560603,-0.7051080430475752,1.5947499929481963,1.4005888417723789,0.5509456660652711,0.28275703642348804,0.88055322421098,0.053195335617207795,0.09851733233457184,0.24286448495584062
,1.5392888925506492,0.03093150663986196,0.02212797004212682,-0.3969429615256158,-0.017859761234222768,-0.19603548914995317,2.721960029396682,0.7377264704734192,0.4075433178550563,-0.18525783408053628,1.0687921279972223,0.8836209171142313,0.37929883469481934,-0.17583723764694642
,1.4546336272938356,1.2527636381114617,-0.21678615676402252,1.0542124816126548,3.716603576293311,0.15440331599388815,2.875255880748597,0.49775546336679416,0.6354335056855058,0.36479927019562297,0.16550557934153004,0.34592158333546325,0.30457799227847115,-0.5378052170558724
,0.45495483419859395,1.3039799408963313,0.09743885475084044,0.28935103083927827,0.8234899397934087,-0.6419869005162359,2.632221664722345,0.6518720148074562,0.6825433517092439,-0.24796176272581652,-0.36074795440814034,-0.18119266510796914,-0.3717119411007745,0.0837464680309043
,1.0035542296145863,1.4684861649979515,-0.17706863752726076,-2.4971514679851947,-1.5142416529150113,-1.498405369918451,3.1123663124829557,-0.18272744433580643,0.6382405389436737,-0.4447596034778502,-0.06516246931056373,-0.44303070462455924,0.025455755798660235,0.5028727400035056
,-0.10966841928936479,-0.30820133501312286,0.016409648460146906,-2.929804626091018,-0.9781055649673219,-0.2544725697615907,-0.36096135331976703,-0.228535718250538,0.5905198945781518,0.1495062188379828,0.7451913434673874,-0.1524152286852269,0.7531032810254691,0.20688158535928938
,-0.343379637934967,-1.4669453020582024,0.6030485279158876,-1.0588584835855719,2.2310932057387824,-0.8963112557993633,0.25553824163395905,-0.18418232054078462,0.3223333916109727,0.16054159189602618,0.5906177173695523,0.20981592513340966,1.1936299699882864,0.043044909606103486
,-0.3487393170296529,2.418611114571308,0.6719078427366202,0.4924679215914653,2.877585743640997,-1.4418399094016583,0.456643690033482,0.5080301134433384,0.24200110710090564,-0.27403655812556943,-0.18264199288973582,0.20326518804921806,1.4014756036343192,-0.1799801025887871
,-0.4031132214005666,2.3228921761359484,0.26788570381007104,-2.498583784414686,1.975931160408987,-0.30026647919182453,0.2157775224268384,1.0392811056534113,0.8703919838511697,-1.4767083310567193,0.4875625856315612,-0.3764988452909608,1.070852170772616,-0.5251099491145984
,-0.899796204976677,-0.7561813586547441,-0.8155910085776888,-3.4527174424708997,1.3227414134331157,0.672708443538561,0.8936881772970529,-0.11617115193178047,1.268648840894056,-0.923873852485651,-0.36953662222306405,-0.3789066792307211,0.3608563565969756,-2.0938020902189263
,0.22709659446119657,-2.2445195551674444,-0.9463575740625875,0.10188808719957936,0.9050338670253744,-1.204655423051972,1.7615182173255552,0.2969129510113457,1.0074948039037532,-0.2988085651163758,0.045887679750312986,-0.13240735823074612,-0.17244705527694737,-2.0972597471840846
,0.20661162059484528,-1.0980887831848645,0.09275217787972526,0.7311674876569039,-1.0267180529334476,-2.122503261784284,1.5916630601231665,1.1512044776079637,0.25030533422277235,0.2015661850220451,0.2245743103553961,0.6775649071007878,-1.2068353873842457,-0.7424927111868495
,-0.2837171007043135,-0.3549121309270046,-0.04616091150039706,1.0464779826920227,-2.3948838354087068,-1.8291327670934778,0.4917133600515255,0.7508893643713574,0.40790875246765207,0.6086961586927787,-0.2312605921962286,0.20483028235598355,-1.0141933471586155,-0.26189274439137145
,-0.441987551174098,0.9980819373183744,-0.6971304634549316,-0.3286564049901726,-0.8112981210710277,0.1329871498783666,0.6840991759683498,0.7559723482307213,1.10557816011664,0.2839304383195111,0.19688440112924202,-0.5490660152180221,0.11342470669557046,-0.1006202611955201
,-0.6266078659316019,0.4254527212655825,-0.7274993850356072,0.42727076186314594,1.3813508811259325,2.0250563935921853,0.48699425938302154,1.151864070094303,0.78148630864809,-0.3603481351666033,0.16586998363828195,-0.5762689287346824,1.5575099806372048,-0.04918781643129249
,0.4446472427520729,1.54745312245705,-0.33752334420281044,-0.001786619733637969,3.041590935011687,1.8284914462984962,1.1433248233362363,0.2528481386912518,-0.0899184892137612,0.0238022238674017,0.8191708484804373,0.462983175376711,0.3951095446601682,-0.2988827938866188
,0.3958864367483437,0.514609724986579,0.18250618339041688,-0.4847209198768935,2.149292852298988,0.5397393154585958,-0.48342706169016697,0.03918643154032489,-0.33356428135134353,-0.1544714637437833,0.8297079797927497,0.794926419140246,-0.3843318127736584,-0.28662651430807723
,0.1203913870575659,-1.6632639369526956,-0.039646452834158276,-0.8604205901297352,1.7442468585033302,0.7529980363704858,1.4269185059162943,0.6097950150477494,0.05550421737558597,-0.14304040094728235,0.2101993429093707,0.1481364634057597,0.3718140928034232,-0.10821982126472686
,0.23354223783139277,-3.251892532119002,-0.10636995753124505,-0.7020027894218048,-0.17346266465869767,0.6685012104651143,0.7744356326688181,0.8615288862240492,0.6337142973484636,-0.1586873319184293,0.31840090356150474,0.10896930878491731,0.5546935896619963,-1.2931238982358562
,-0.9514633291149601,-1.025439132901187,-0.7534166590415465,-0.6552280650212766,-1.3976548396121145,0.5063322986904767,0.6358478390854643,0.04778066233972457,0.3492911635415534,-0.3952475166631431,0.29462595280538145,-0.3546975011634156,0.2604239116272339,-1.5624961573306795
,-1.8110996235692984,1.059755624959207,-0.5495644636487002,-3.5440378640482186,-1.5847632173625672,-1.4210490289898747,1.7431448864235044,0.9861630775279852,0.19250125479783012,-0.6155633932035599,-0.29801770530891347,-0.7568205461861278,0.052485928915197225,-0.7751830535945773
,-0.9585081283866755,-0.32835532946480933,-0.3237174971840699,-1.3328970485205318,-1.7738656813202789,-0.44621000902191804,1.274728865541195,1.677834554688186,0.09882858842743862,-0.4167220843371119,-0.606758876013965,-0.11252459932316168,-0.7047139820472397,-0.655846797088907
,0.4774249697982187,-0.15675019270193652,-0.5570587371872766,0.8413930692395504,-1.1118128035460515,0.8874103925274133,0.5946651726473944,1.0025869141623447,0.1837380525764461,-0.5162722550407405,-0.371489415143174,-0.001480186859473801,-1.359355779113929,-0.6541118909942388
,-0.3207388661072852,1.211524028789132,-0.14443581392268934,-0.9315413124225546,1.745685956654449,0.03206495791881424,1.0150193170620605,0.834897954533456,0.5687061948438076,0.21972472015045716,-0.12672609731241632,-0.04844045636907096,-0.540388471145578,-0.8418188321683254
,-0.6243359359604503,-0.040236067677678185,-0.042892495341541395,-0.5732657040347188,2.3804432750200535,0.022691603261810786,0.7438543555711239,0.6207816692086654,-0.5386801156340424,0.14940459835928416,0.11815547113825074,-0.29729002686608264,-0.6412173176658488,-0.6758798518683644
,-0.015889571166656395,-2.335608650870218,-0.09905851693574848,-2.090362251002893,2.2772204813728605,-0.6563000328289836,1.500624736832242,0.641308087606295,-0.19255005883315335,-0.2091249143489595,0.5063887388675272,-0.34937918900509274,0.14640487879424727,-0.4221510494807494
,-0.6104197895640974,-0.7341526437186209,-0.1651852628393672,-4.555205560809201,1.8758030049763517,-0.9183822462222966,0.763349732063555,0.26751345423798767,0.2665548272997341,-0.5047551012967583,0.5862026609934076,-0.21792190850634338,0.8708058049994859,0.023217200547338147
,-0.579193775383937,1.9477078580181753,0.05577843914925373,-1.6893150923622435,-2.2225922246598206,-1.8630463308897525,1.0828451762751878,0.05173391649527777,-0.5907467514278344,-0.7669448567525607,0.46778040654844594,-0.2230874131286219,0.6227520937807063,0.7001847521249919
,0.008748368220962447,2.1409554695619994,-0.05732416644970499,0.8815357534791785,-2.3723323856620944,-1.3453665387984304,2.2559747271598733,0.08398009474916536,-0.23114203186312388,-0.1901163715155289,0.0776045065030768,0.7847257462110029,0.6225915015793643,0.32710500218707556
,0.3059210880720645,0.6695072130402269,-0.3391891120395755,-0.626964005996399,1.6121165351790694,-0.6394328131005006,2.296951089315093,1.149942902731071,0.8678160167727355,0.010400944343542301,0.16262224467754255,0.7134574962620712,0.30339226818550724,0.3100578489798485
D1,1.5685177819921694,2.6712268527314347,-0.12342840883598145,-0.47590247836945815,2.502296630624511,-0.6932448198927569,1.4951091179887115,1.2412598828668544,1.0220575075009721,-0.36006302620567837,-0.13059875584151434,0.1383009303166337,-0.22706951104583187,0.17802060730328914
,2.315733212963168,1.802478293520508,0.6121547170642788,-2.148114174696812,1.2830541692529105,0.20256747575212394,1.0540121576329433,0.8075321862124883,0.9275151325486898,-0.5598972040975815,0.3703282386059448,-0.04136439569721126,0.4910145200530354,-0.09302950119816554
,-0.19411446990840528,0.23467496353277562,-0.06971497328755688,-0.9295539805496653,0.5941545297322905,1.7462221626942716,0.3972871521808932,-0.08401365950096722,0.3818192300849318,-0.30456517345958534,0.38605908945978357,0.19787539441714608,0.5824817376474424,-0.6610914525481494
,-0.5706426070202427,1.1105525563409298,-0.6554353089332469,0.850290405629933,0.2312865143853941,1.9560427146903483,0.6818486375607943,-0.6330157470153185,-1.030086520926248,-0.49008754895435175,0.15770071069580682,0.2638327462621961,-0.3607478290475461,-0.779745088230065
,-0.45817548478348086,1.551679414929657,-0.44213764124063004,1.9254397572914084,1.8889181990998232,1.7268743995516345,1.8275749690101402,0.3503696916719055,-0.6964650624563609,-0.7004642020698815,0.23591715518775444,-0.020472904103732186,-0.10354366286554481,-0.2096531370172926
,-0.835743654653095,-0.9582937256538739,-0.49916340666794007,-1.019326888709876,0.19312521334415714,0.4574860173433278,1.3178531951269752,0.4559711399902967,0.007794537776325345,-0.21541121751268932,-0.3460476840714792,-0.43244811622221385,0.6621026772834266,-0.05615023563242729
,0.2235830086520087,-0.5486843612026898,-0.5090189811770794,-0.45308138148113447,-1.6972449642649232,-0.8817937346848556,1.3256697529740726,-0.006842116651073547,0.2416053542566131,-0.0815185406758211,-0.07616570553220639,-0.18906190419153737,1.182108339203063,0.10462589023236243
,0.2969805007401367,1.3471977419954544,-0.10153151746861189,-2.4205467251742068,-0.9684892023535915,-0.9108271166328844,1.1491803875523212,0.15415354310970394,-0.752580062163915,-0.30238091992472255,0.09330501030984482,0.11044256933227362,0.8730507778645139,0.18410158013010997
,0.11100899054926716,1.6041717348222806,-0.16152153296117946,-1.9941301444748984,-0.876846730475087,0.005540614454793068,-0.4578361045245284,-0.9435759072655919,-1.2822212004747444,-0.36688902869870904,0.04846898503189559,0.8498884178581385,0.4249232229808969,-0.16186264479270293
,-0.33921150933412014,-0.5878595428099861,-0.7534817657176447,1.0501475206686823,0.5262185360418375,0.4174206018228709,0.19975680931830017,-0.5799149647849815,-0.7823028262125984,-0.03689746281583089,-0.7596527442749431,-0.12106997518649908,-0.3878558440671858,-0.5250052693476496
,0.10088106370205123,0.045846865189749605,-0.4842201888476484,1.372727665446697,0.11202329781127997,1.1179347542787446,-1.1277504962305958,-0.8843886374589064,-0.7562536872082957,-0.1153675214425168,-0.03986240667469676,-0.9434626198534781,-0.7830340707898843,-0.7377483923184613
,-0.16812657847533183,0.9752965377681958,-0.39739299326813116,0.6780684676799958,0.6737735034591157,0.9875550168428918,-0.2141784405564107,0.08867147605033304,0.7993979562871681,-0.6897394494254625,0.3118309558853637,-0.8922510690100867,-0.5286528196039844,-0.14640363682824611
,0.4280061457826802,0.7549773553056086,-0.1629006696310053,-0.9223094477012254,0.4523739923556608,2.774997982309681,1.6651255654250712,0.8655197247024118,1.663619210926405,-0.3660929538025527,0.9492192095039153,-0.8086704996009063,-0.24325886098939,-0.23832957744511915
,0.7874004466360243,3.2418182171312035,-0.1304721354507908,-0.08004403623887087,-1.1321658592216577,0.2977121422475707,3.0706418114186493,0.3113886355651668,1.1181082770750363,-0.12230791682121861,0.958088474628328,-0.47461333265658256,-0.7486053733227961,-0.16449662436119153
,0.2021761402614922,2.8068193222282343,-0.20178001323007863,-0.8420348136940058,-1.4032074804864618,-1.0338648231276362,2.6394111637726914,-0.12427239380937441,-0.10664683631229115,0.08985831326292291,0.738392397291092,-0.05409669266794075,0.25807654803922,0.04223939428429024
,0.5247698387220027,1.070495087413835,-0.4174139943380228,-1.1266805572643712,-1.8784486031321856,1.4951584626009782,0.5653451601634224,-0.06398846682460962,-0.46796895872579547,0.20678965626700704,-0.5496409750916593,-0.012516422218708812,-0.14148710492451588,-0.05771958861158454
,1.3895961150143614,2.0598789801259314,-0.04033587883505987,-1.0700656603586969,-1.5013878323660985,0.6626561280799661,-0.15133719062728745,0.3826979188504935,-0.11029514010062706,-0.1963744916312358,0.07577274324051166,-0.6143232843551619,0.23614107411762603,-0.30018156726812056
,1.3430142940806908,2.262455220793554,0.3016879092248884,-1.1357264939958729,0.10120296485671246,-0.72738485624835,0.4777150340644763,0.5963848770794851,1.1987225691539565,0.19948137511075129,1.0604159766417214,-0.3028815047328493,-0.46093279093144757,-0.2561791016585651
,0.49713515345520626,2.6628585150484283,-0.38740553166851965,-1.188881132811423,2.2468527078961937,0.10680064837988244,-0.2683111503095401,0.3803458209593759,-0.09589683411700452,0.2681424675101217,-0.9475430801071734,-0.18217689870620857,-1.1680158738077664,-0.18720162228475448
,-0.2464848469782961,3.249884793741661,-0.8277079235223443,0.12803699119908885,0.6947052610020138,-0.37865524018503316,-0.40336371636939433,0.16527431493481035,-0.47262504249196297,-0.26418238767156604,-1.2398660335228904,-0.08960344101087477,-1.778634811929148,-0.045925655835490846
,-1.0165819205154552,0.7376383084058526,-0.5218357123974438,-0.1445545117615189,2.228392305200639,0.4205356377958715,2.235335488336665,0.41366928315194035,-0.0189522456576919,-0.8378815850502634,-0.03850898217320578,-0.3501872479662574,-0.9754757589371675,0.6844142842018557
,-0.7912665568526269,-2.3824360370239757,-0.291349038890044,-0.9056215940028773,1.0246796200349797,1.4336127771513876,3.5595291649587724,-0.42425346181766316,0.6127840445999543,-1.2829114260418935,0.1329350168085191,-0.1470515076899576,0.19383364443317372,0.7416088093054245
,0.03608614294264508,0.9303241419039606,-0.12004374090829704,-0.6607595891831255,1.0406100184968625,0.6901676101445544,1.7950823265914542,-0.33540309546321695,0.17122783130308092,-0.8380652740987259,0.16487241447067913,0.06080952329805863,-0.1126125408670819,0.6508667393808746
,-0.2035966145731761,3.306334998005234,0.3435375470803918,0.7438202450976693,1.459698112016572,-1.3088941999894808,2.906474156457124,0.0710746118414148,0.3372565390653107,-0.0714110603550216,0.0830409105626995,-0.0986935680358057,-0.5134170979601387,0.6877375269713708
,0.5531239083451418,2.821686258693645,-0.266051345122515,2.1740089615798537,-0.8542880488577974,-1.9532654371274196,5.345575798351813,0.03994362651293193,1.3001687674452813,-0.18212220344002022,1.103092494548689,0.14808572112634388,0.7955424887212691,0.6159146131763331
,1.382979157669533,0.8773830680531877,-0.627825455321226,1.8907685405922656,-2.1598902783616913,-1.2102936842539975,1.7557652229699072,-0.28078341021725534,-0.3543648398170706,-0.06428624641466107,1.8123505055920244,1.4122728580590513,0.44370722296876564,0.5592767414552642
,-0.6005419335932131,3.4641161574036383,-0.3810723868162966,3.5894572317146958,-3.393463062958597,0.42935310881839744,-0.5565475221343268,-0.041672039969540615,-0.5272291565714633,0.20185923301778655,1.6500502223893674,0.8233454518979714,1.080764205308643,-0.003680436187729855
,-0.31480994019233427,3.679737503178501,-0.08801887237481609,2.810573075961652,-5.4535325896451186,-0.3795639341476451,-0.9634128255039265,0.04287795965331818,-0.34806798459570026,0.003969843519848519,0.4782250227854911,-0.011628036001445312,0.36197077091830165,-0.2629311494333503
,0.3103835080037057,1.2880605223065886,-0.41558808957235355,1.351896645857267,-2.4899401231644003,-0.783395411472113,-1.2698423810266066,-0.2077681547669931,-0.5177577062076474,-0.2605467573901871,-0.696576753328459,-0.5305207279307658,-0.3906720470930175,-0.3451276006898498
,-0.3347194048646797,1.2530119527772923,-0.4210281991016274,0.0982694561684016,-0.05027934159956833,1.0228828957872984,0.17939626777024859,0.61317216166188,-0.1406784843867505,-0.3820005206510241,-0.4747412831709194,-0.19133140482955338,0.2615240081393116,-0.04570163463991727
,-0.8698823274211575,1.637652058549986,0.09829886625376387,-0.005608083771293913,0.8869909524327984,0.5211403316357854,-0.9080403137525443,0.10339043168109519,0.2712351823382148,-0.8241686174296935,-0.4274990770923101,-0.7613908697417836,1.318034525182444,-0.03102285775784092
,0.12975495940087606,2.8065685607111925,-0.04278894961192599,0.31916080710611766,-0.9176560211101048,1.3310199864415215,-0.17378474426347237,-0.3265520561511842,0.5311499929724985,-0.7474114206405494,-0.5420587123093566,-0.03536625076614997,0.46720212533758054,-0.06505418955047683
,1.0759314669755984,2.949591895426749,-0.5293377799070768,0.14539133323333678,-0.8796463394069691,-1.20442004890774,0.09916161750209682,-0.1015150302046413,0.37738067189960633,-0.1957593845338656,-0.08841486905216697,0.8221207484166715,-0.12666601932696622,-0.15966043282045123
,1.2461658642377778,1.4446003252611022,-0.3245496587381717,1.1558768763098417,-0.8013525670441867,-3.225556918272534,1.37294094754783,0.33243212091707613,0.5250021549685773,-0.19435658172407957,-0.7171418897375428,0.15358424065027032,0.31572180109813847,-0.09296655951162243
,0.4824432061689453,0.17175677576258264,-0.49659594016620534,1.9017575628708228,0.7473019616503491,-2.8493251397841064,-0.07635545183170338,0.6990244716787403,0.4012885369326426,0.17987056732873286,-0.16622581465216163,-0.43717282241323985,1.0611555587893604,-0.5375997212742948
,0.39173399377259144,1.7466659621933567,-0.24863769415908596,-0.17094510854903702,-0.8222496965834053,-2.0839644605015617,-1.0695815280783554,0.8874516177961105,-0.43721308783024704,0.2303762508475102,-0.883925869994742,-1.0130023862860862,-0.8311181050871999,-1.3263562944152238
,0.9820132172693921,1.0662833428077947,0.27105365716458935,-1.5844939945222383,0.23431815260821498,-0.6507417322920573,0.6284532834886903,0.9445152771310785,-0.707028579790457,-0.6353379984599572,-1.1499094548634317,-0.6523333684367203,-1.5111616774127856,-1.0718057540535744
,0.379429148438216,1.928601100018624,-0.34185097729440095,-0.40332648705362184,-0.3521234945299966,-1.3076521664245462,0.14266667252844076,0.21703033666821617,0.966101599774825,-0.588091654052326,-0.29377525757934697,-0.6243128680619278,-0.3849537614873152,0.014021283125808807
,-0.2128098104353107,0.49151304232185544,-0.1623279449669907,0.4077798292583733,-0.326057741171839,-1.034288070581109,-0.18427059484198952,-0.7998997495658985,0.9639773811258485,-0.6557649499006222,-0.1005696434767376,-0.22068202250344227,0.1865390712610092,0.37872931701527873
,-0.8179147875542007,-0.39365482313060385,0.5185932777888081,0.5599175696452323,0.7336330896165536,-0.4186375431309618,1.9637011646523368,-0.10103987417029757,0.04886190537795998,-0.8311614967177543,0.1087224449008313,-0.26101002075024693,-0.0868634362585677,0.42963394404247424
,-0.5312753033138359,-0.5052917692444564,-0.06534568983019429,0.46904405624238416,-0.9664222478349067,0.15047620168464104,2.8137120811362797,-0.16906374067617277,0.17681599725406974,-0.5207783027674956,0.32597806113101063,-0.15164517668046373,-0.1683813886133506,-0.11380140434243075
,-1.1906990689279067,0.2286783113800412,-0.18891732460942096,1.1282173728912532,-0.8156172967465638,-0.7916179447548233,2.0149377547566716,-0.9440097320691593,-0.18013649641566315,-0.37295220931580353,0.33058283498567953,-0.563959592484514,-0.037384452677634725,-0.2634093733247082
,-1.3081060568178986,1.2796620277055861,-0.38319035443026983,0.8605626293043896,-0.7953219071700172,-0.7445736298887476,2.0059756444012296,-0.9320278772551782,-0.23122143240895168,-0.1899627428857239,1.066652141597327,-0.32284207680267524,-0.04027407990345294,-0.2279450016733583
,-1.353185864892853,-2.0397990009808558,-0.8159632815954067,2.221682749457147,1.007005734564014,-0.5730708553217958,0.4770803081530806,-0.011422190013087441,-0.5522341982754112,-0.3125723288266791,0.39560761907617414,0.13780263230697395,0.14158517686664215,-0.5942797902289221
,-0.41609824398342027,-1.6818000418890542,-0.35278878223640153,1.3333032507849145,0.654355295590813,-0.2761449090456548,1.5097450123392593,0.8232114177042348,0.060147137026530705,-1.1190171527252923,0.7648578211369877,-0.23668293118851816,-0.054157959352522135,-0.1398675930049463
,-0.12115925086109655,-0.28312411389080566,0.09838750336146812,0.7467370510327622,-0.5810396505147751,2.421491490297047,2.5578136197018675,1.0213263579583187,0.8054982515168226,-0.6535245845795762,0.16469038388155988,-0.10799449116441599,0.8353500373784207,0.03579634113877777
,-0.11725340205851838,2.3120600020126654,-0.26006643387267175,1.1314974063080177,-1.4436506793684944,0.9714311381711519,1.7039401583968867,0.44194123441309924,1.1070768832695184,-0.7748364323655956,-0.41025456492681034,0.07004875955478448,0.7813841454077883,-0.3201988777776112
,-0.41563413435519453,1.800511278503545,-0.8290261939927609,0.7462716562082008,-1.076712669986025,0.534332255348222,0.9854974649887347,0.5267256966384221,0.7208778476523854,-1.4505160581881775,0.18654383498506866,0.07639422728077322,0.39814877365860724,-0.18803714132148322
,-0.5378608816607022,0.9809617889496605,-0.6307147126272182,0.9094012160837635,-1.6124204224282785,1.2160462540234118,0.620845774467339,0.3883509623041514,0.5498835162720233,-1.5351586936985295,0.41008126256662886,0.539496117092617,-0.2666188509679655,-0.2731739197761183
,0.1333107670473319,-1.341330382206856,-0.5343560595191518,0.047812428460311265,-0.8076666981214136,-0.020651052730055956,-1.4374909342650304,0.28250610428898687,1.213826822642185,-1.5267656466530801,0.015824481536570918,-0.3481866461939276,-0.8397333038358346,-0.33590598769950164
,-0.8941110532540911,-0.24021408635459404,-1.418861521959916,0.04031228949591834,0.4534270935753798,-0.0011820739278280716,-0.5429764269170179,0.9429485803805653,1.033256931136985,-1.4942002455410757,-0.17760734769339562,-0.599413570694231,-0.4365150637756778,-0.17681483624957567
D2,-0.5343858366911465,0.07296247268368546,-0.8829886377343367,-1.536096975359189,0.7571645729067326,1.654015262262666,-0.1776271066143563,0.44862200319605877,0.65034656511029,-1.0280987703775173,-0.882098947423788,-0.34436676527956184,-0.3428394160027913,-0.5184089601785201
,-0.062152214050419756,-1.816634088244574,0.5014391931888711,-0.38521990383729837,1.0268545783083083,4.200311689885552,-0.25111082436890514,0.7995608537606681,0.8636385108272929,-0.7923007709049904,-0.47121643824736875,0.17056536772792866,-0.7445363602782243,-0.3843827860902379
,0.14243524871719815,0.46446280495277226,0.30618030993175066,-0.2478156500358117,2.0200698174215352,1.640267520649662,-0.02715289952729772,0.8843797566984222,0.23629248229955485,-0.421109087572289,0.8420060102860202,0.3242716277760688,-0.17702505232471769,-0.17378922294133128
,-1.3438075788015629,1.6523584459666114,0.036226691443274124,-0.5266827143448632,3.246601987389506,-0.03989321383772822,-0.021690218686167512,-0.15340431572135413,-0.4621739411372034,0.20287496563409887,0.4828729905455678,0.3054107411697986,0.1650650317768016,-0.4881014560192948
,-0.7222450082563654,0.9835805893675832,0.2093226045273452,-0.623207988956126,-0.0698694606527957,-0.593145445435251,0.24114611734349442,0.02689183523729692,0.07101137074355524,-0.13274661121426118,0.17908304772626665,0.013858400363333474,0.931585585797324,-0.2873143444755489
,0.1764892759945489,0.7063451280000843,0.07941154377501147,-2.6173215225387843,-1.4726228775747154,-1.2819414361855368,-0.5737590836625897,0.13224224119825703,0.27099934778045826,-0.2219609947338491,0.6189295331280008,-0.08311762647622714,0.5832662113236567,0.17366979113776146
,0.1502056970360025,1.1243124870958716,0.20717587820039546,-1.2222769918626588,-0.15015702619133717,-1.2375899760498417,-0.33138172538758126,-0.8852206456026807,-0.9617386247449987,-0.4313278515710497,1.984102027964239,-0.10137870340814845,0.03254792530858171,-0.31505624767189294
,0.11348785037218341,1.3149669362233258,0.29867057644979533,-2.2712726683285833,0.7232351980944107,2.1926567673463264,1.055848430504395,-0.7745956397882021,0.07501614744929892,-0.6280579582605428,1.4889062381211173,0.4724278163563614,0.5132677999088442,-0.14318357575127838
,0.5137747432547654,0.9475837745531687,-0.1353392318025189,-2.402317270368636,0.042869004979544025,2.478261341712916,1.546123832369367,0.6979954745713904,1.907807414648756,-0.849376833825768,0.16571355921320463,-0.02054396228966649,-1.146808149669443,-0.21653920627915269
,0.46292721382543883,1.9404440590648808,0.1797101723145083,-1.577938820881088,0.5487076522750833,0.6282216467843976,-0.21851326578818747,1.0116864919435113,1.359389680748855,-0.8788608249420798,0.45759303389768935,0.1867548494833101,-0.7081327774682036,-0.3993972602857302
,1.6953918310018785,2.495043280028683,-0.32768799033416124,-2.365699887419601,-1.8429169055924637,-0.22956092683876406,0.784215279262714,0.9996146882844392,0.36394716828303136,-0.4715001954949873,0.2669541542795331,-0.11430205027283254,0.03446547395203163,-0.020384818911375606
,2.6316312986064814,2.6091434107278357,0.10012059787442522,-0.539754747084836,-0.5012290810389746,0.743195746112861,-0.04250885898783467,1.007058263354038,0.5077926912041325,-0.37456995507590557,0.35995664607854694,-0.9291547172625149,-0.3163690627746662,0.17719849236164686
,0.6555946103800034,1.274232805676366,0.20579530493478765,-1.4851906209495085,-0.2832402982338161,-0.14011138740435805,-0.20986856327209638,0.15512507620418717,0.008031085925533827,-0.7459480988408927,-0.48848702765614277,-0.7280664312625812,0.01526899050601122,-0.4880344509112625
,-0.410039556874943,1.445597621007423,-0.4146299826412969,-3.3159353086824717,-2.787675855708329,-1.4094367042213933,1.2116164140515733,-0.012490112778171343,-0.7146340479925791,-0.941907199007684,-0.3589841046040958,-0.3674838225983488,1.3358717708090033,-0.7267362844269066
,-1.707559716172193,0.5555262493921176,-0.38776155339130264,-0.3485514795255105,-2.3295008989219426,-1.1603790199486437,1.066017876749788,-1.0643763383249802,-1.3018656363533707,-0.6761359633308444,-0.8494564793489396,0.33388242000628826,0.43418944895738093,-0.7351269939701516
,-1.3645539309246304,0.15769982939041682,-0.12745433516396365,0.22302307999526325,-0.11446831784434262,0.06853253824916634,0.9143049131017185,-1.0401971710381201,-1.0636754765132561,-0.7540140330016678,-0.5024660298879123,0.7570160669884318,-0.36176332207026873,-0.6101673057773939
,-0.20373183192452488,0.9374809687753145,-0.2387219719032194,-1.087027200688569,0.8986747972448732,-0.5793980635278922,0.24132888411541056,-0.4579355505826688,-0.4129762461434861,-1.2428071234645408,1.0953076026217046,-0.05590618502158964,0.17941669045043535,-0.22546699001166903
,-0.8255517111953452,0.9339463812514168,-0.7045110219521364,0.5317382895055833,-0.9301514543523918,-1.1481809727560308,-1.848178017455868,-1.5683481650124262,-1.3137226224333192,-0.5414846420847308,-0.34909377964084787,-1.0912052548693576,-0.10323431523564554,-0.6407438830125791
,-0.33785162911491856,0.655403631905214,-0.0974967197157594,1.4151435066568052,-2.6572447357122284,0.7794211395966547,-0.5957628358743374,-0.9174944743212697,-0.8234918234823732,0.14536930817321608,-0.6098494605074077,-1.0001404573100465,0.05131802503054646,-0.04210069890053128
,0.6857827940537025,2.8752979109810983,0.11156784506507492,2.6186306607049628,-3.6378292540985924,2.197976955591624,0.2699912837970926,0.017974664865620042,-0.3961492251830944,-0.08174262089395705,-0.6078974269874479,-0.4029017634167751,0.36441622051516537,0.4132823237930692
,0.8798510971219817,2.9825394339712124,0.2668229725461278,0.9465218296073482,-1.0504627929417583,-0.22914867787949647,0.7592421249598202,-0.21802036475595707,-0.6010530037043635,-0.02796810085961405,-0.10911352413419292,0.1244980598246868,-0.7764445676677387,0.36649569228427564
,0.37379299459949017,1.1027804243873252,0.06033460814352995,0.3696611086903,-1.272876273191638,-1.379302214291514,-0.7418684229219171,0.2379616780968162,-0.06183145926111296,0.524268835567547,-0.32347395755328884,0.7203848410281752,-0.8641329776376098,0.38482733962536086
,0.12538575249012396,1.6375663999186094,0.2146722457801608,2.1293780295928215,-1.488696120244025,-0.22313540461622133,-0.07806542625948759,0.6646031717151099,0.8368117032141784,0.047180138823526695,-0.08061375762423463,1.0470191536489992,-0.6611450486412458,0.38698365589091954
,-0.924411717933969,2.3865571186678225,-0.22350663988750705,3.3247943250092775,-3.098131442196246,-0.42895003527465325,-0.7820785630869435,-0.16352916178406798,0.9065006733278606,-0.27450826684406954,0.3865770322621858,-0.6953778289201151,0.9862899902739722,-0.049204308784704394
,-0.9565088533635586,1.8313137789701097,-0.28712007091384933,2.7702397670497207,-1.201582838565529,-0.4997626503736425,0.5823874391299619,-0.6066085718373658,0.2159229453760705,-0.578258035532651,-0.4596570105993033,-0.5304704144660204,0.34534501086524844,-0.37754403637242534
,-0.2731780949776904,2.685934661438364,-0.2662718921591022,1.1125329296890258,1.2127522111118645,-0.9895646840712903,2.2353693005223865,-0.7061227778343899,-0.9046805076970253,-0.49197466041632226,-0.210344912006197,0.9231560193075945,-0.5395060469363143,-0.3336468210124959
,0.3876870902115211,3.8021461067691984,-0.4410133969214302,-0.9716325921625345,-2.4944765091385794,-0.8344467107725458,1.0320977206868105,-0.5551573349528263,-0.872978143434763,-0.47972293522402637,0.9884433074204061,-0.6646122097177289,-0.7727002154652873,-0.26420584600416397
,1.006268115042248,2.3978681194396025,-0.43244266758156746,-3.286012668188827,-2.9501283937288827,-3.0808384247804534,-0.48482710019750275,0.23630562975859823,0.13201423675671786,-0.6904291856456491,0.8100729515533088,-0.8244999573890059,-0.1552339865724684,-0.02726195535668299
,0.19203119043188155,1.8547573030952968,-0.10646898296566938,-0.5868655571052902,-1.0944693286199256,-1.8233879619556566,-0.2982918889391802,1.1983588872273518,-0.15045702571922914,-1.1213526362066364,0.43267617384953755,-0.03310214198987579,0.2985822452103066,0.13452504750989064
,-0.90873841247697,1.1309454037078017,-0.10122029436317864,-0.013445979210394343,-1.4537877767365375,1.173934024308076,0.874798388038975,0.06871628158624615,-0.5493329455822921,-0.17462045214183608,0.2561065487920669,-0.1308205929354159,0.9668511922907322,-0.11492111471031255
,-2.573909592374108,2.8483854802618063,-0.15918585788690048,-0.03446819590716718,-1.1195346170165634,-0.6609231143466457,0.7528987674647237,-0.716812177725107,0.0311781996461594,0.36935200083158504,-0.267114466991264,-1.182421134223116,0.5438801300049726,-0.9728591555111294
,-2.097601731033203,2.7343999534975625,-0.5601134931472516,-0.8522623091550574,-2.8801279518785448,-1.2531404034349751,-0.987720125159927,-0.8081051839826388,-0.520741518518499,-0.19716946284981676,-0.9427600206319927,-1.3709921671587413,0.10237833790606744,-0.9761398204086015
,-0.0064275705337998555,0.6058889178403624,-0.08099648461370389,-0.49643968437921054,-2.4121230195389596,-0.6909171957704564,-0.7864612494443574,-0.47316145084713973,-0.9557560630397486,-0.27171176677232095,-0.8513962024521449,-0.26155788198574065,-1.0469386512325305,-0.35021781242733213
,0.4912251494343316,-1.3832981224336944,0.5133017520189704,-0.4591097978426022,-1.7604693866107033,0.39430002263155767,0.5615070562717916,-0.6210027610044997,-0.6756975305451799,0.227693258325643,0.06257178123045767,1.5279789106389405,-1.1502191239247315,0.18684804086838872
,0.4408710232872471,-0.2631210278607188,0.6443863407683085,-1.96980048051723,-2.185479545540513,1.0389379537734935,2.05030324768991,-0.664444895079218,-0.1294859755318042,-0.09491424218521552,-0.23445635049986124,1.06136842514961,-1.1506823249081897,0.295993742315459
,-0.40828696862254155,1.6608095450737257,0.3227937641281028,-0.663937253655449,-1.6347308544592818,1.0001980883043626,0.6604914691823761,-0.40209954860303054,-0.017053217582136862,0.12131834781290972,-0.06863972055663993,-0.003450313341391366,-0.13431643064792367,0.21329271121702578
,0.2907608657170014,1.0257337982098658,-0.27934311950551355,0.6697346646463213,-0.24087297792894233,0.13434500860356668,0.47774447217405736,0.5513852966644525,0.5287801564672349,0.040034032896707636,0.6168105797868612,-0.6350190211355745,0.2924728573271641,0.048717716753715265
,-0.5790604737888595,1.4949540315186929,-0.7396435941299242,-0.8872867863173226,0.3850075012714805,-1.732451455744548,0.27959320570094737,1.0165140630756238,-0.1099877267626142,-0.11704220605622642,0.44554092269667916,-0.6514943589988513,0.12530210773834477,-0.560353327086774
,-1.6075036959272844,2.3711680267430317,-0.12032364948349597,-2.154024232884734,-0.0071227967291066585,-1.0131252051493853,-1.085226795520952,0.6118895867783576,0.19798094687004722,-0.22726371133928291,-0.2774315995643387,-0.46470636157504797,0.011751364593041458,-0.7098207582883328
,-0.20005324465675822,0.581105703477218,-0.09479314353516297,-2.475438730962531,-1.154369798689356,-0.42270146514645707,-0.35458308132475724,-0.23769025206771402,-0.49557951570409625,-0.05887305567104121,0.4254795130630831,-0.7101846766542288,0.49896265864879336,-0.17467056038610998
,0.03510882532010857,0.40859964291918455,-0.043817183391401546,0.3367926767191709,0.7010697503906104,0.8371993615211011,0.6457889540091287,-0.0599024336353629,-0.3130852994436018,0.22079588512397277,1.6900566089078144,0.724205197649002,1.238239982033042,0.3240051992953394
,-1.1224918734474618,2.667206149195445,-0.38203871909750464,-1.0641130346382164,-1.2881694644719204,0.6287084308886091,0.06316381160780567,-0.17440808716792644,-0.32566545271060976,-0.20411147780409641,0.8012776458075697,-0.3763914590003457,0.7876902577272841,-0.2079543562873526
,-0.27336216476214087,1.2638380936486142,-0.4778502122386617,-0.7182835817586085,-2.294410381572732,0.5828371633505012,-0.07816468891448823,-0.08448282121436597,0.16676117243313002,-0.6085796364595748,-0.3756360426894665,-0.2776609866657985,-0.8216810184453069,-0.46218093153567447
,-0.8835155009667383,2.262064086623421,-0.19996734717777065,0.5565975046474755,-1.3584494677066834,-1.0058117064365175,0.6841134312836151,0.029713619692892865,-0.3940625584082348,-0.19131130321501733,-0.090646251244432,-0.01480113868946891,-1.0187489959798302,-0.6263166171278762
,-0.2022330268759307,1.833819924963618,-0.21084894009216806,-0.7868359515599698,-0.5741879678926565,-1.566828368594585,1.245281854818914,0.08146585725056778,-0.3689856622347633,0.2447935318035514,-0.09829980293123197,-0.5794390922834344,0.5673574285574189,-0.2201907891101488
,0.4376242587919739,0.44650219807068203,-0.5625996255233982,-1.84860366348681,0.10054761879431623,-0.13483322290717942,0.5162159487704644,1.0444641053445984,-0.4270710134323313,0.1826675999173364,0.25802896275274867,-0.7548806614957213,0.774626401665585,0.1988350553992731
,0.47221139478328644,1.374846624970425,-0.07822447639428577,-0.42972951253273506,-0.881482300882818,0.2617824217558248,1.8817522544323821,-0.4005425816450795,-0.9997044410277115,-0.15239435586398137,0.3859222029539744,-1.3290332685125075,0.4649099861668303,-0.01667175057418134
,0.11140258416723317,1.4372872401483605,-0.0657086048170593,-1.0946864686071354,-0.8161576671626732,-0.9925697764540983,0.22321358492266372,-0.3869479547107691,-0.4741054980320214,-0.053780171350958424,-0.15250568315402313,-0.7886467334189001,-0.6163818525558282,-0.4513562748772014
,-0.26294852318176526,2.255033775347674,-0.5941821851290273,-0.06526881274091387,-1.376092173898746,-1.528844932398449,-0.6305481896473869,0.30723720445176333,0.2578882154341364,0.2372813406216182,-0.5465880670951485,0.017571595957868207,-1.1221410830549667,-0.20620053512095132
,0.06975505052488588,1.0598907795566987,-0.016045915754345705,0.2138980932364553,-1.4174813987552308,-1.8073498266815502,-0.27399191503335424,0.9385905069540501,0.35072855317238805,-0.10058538137531971,-0.661362365679036,-0.5165118322086779,-1.0581622169346478,0.20771497482959855
,0.3545195948254832,-0.37004559434796036,0.5243972765342777,-0.2814289560996024,1.34669987530459,-1.3507056140175864,0.5316783963410152,0.7741134905338733,0.4167851751901011,-0.2676481043253235,0.11229909522525303,0.174807525085337,0.2664752712627468,0.362927998839269
,0.6569983090619234,-0.8947231697267832,0.2619745303576213,1.6878796921714985,1.9841511556047637,-1.1668348276203784,-0.37052568704614053,0.6065663955946836,1.3377594083542343,0.014001589605261907,-0.6656616435894,0.029832451260886805,-0.2760511493428126,0.4112267656364079
,1.1195633841310433,0.23784454520163265,0.2304703652557483,0.9196349013578616,-0.4208545015655559,-1.8793464105886764,-0.9636270698556373,-0.4887120515876193,0.5109921912801821,-0.25917694967308597,0.139758425742938,-0.3027398585904894,-0.278889366478154,-0.15046947340341832
,0.5600265518976913,-0.7079073362675635,-0.4664233478822095,-2.047904686374307,0.5346849907522021,0.09744288636746319,-0.7375947648114854,-0.488101113783406,-0.09268227594580154,-0.48163437546553484,0.8767528876649319,-0.8980729336512375,1.1345266737145914,-0.5761863574033631
,0.2123447744850807,1.670727291260212,-0.062052705799119,-0.2024243868771988,0.06325108235199725,1.316760399002577,-1.2809877455353396,0.21675547915587667,-0.042083072098478794,-0.5956616593075024,0.041625566537292116,-0.8211602203798555,0.9804323872283295,-0.6153389736433965
,0.2815664247923409,4.09475724370708,0.3223591652791426,0.8728308927593454,1.2755916085230905,1.267321393663394,-0.44521174941819086,0.5125986398824756,-0.37604026608121377,-0.47779636241571444,-0.5053450137884641,-0.7072968560970692,-0.09198717531671693,-0.016545530531603524
,0.48441978433769617,2.0572794965420473,0.8255699001172715,-1.1866125737866504,-0.9583462437274592,-2.336155373921892,0.44812172853604915,0.5696616748096037,-0.22856575238288437,0.00019718280192233405,-0.6153393601154883,-0.6431501892091847,-0.2695523491736774,0.10548289937866313
,-0.9737812313843779,0.23927074768613896,0.4056980827356015,-3.6403225841119626,0.05805671012596725,-2.7856780513556636,-0.6920113558159039,-0.8901256340723424,-0.8111641373004523,-0.10265329076761909,-0.27673008107185454,0.1222283771959286,0.3670729559078689,0.03505390419448347
,-1.2193880067075142,0.16669187916138822,0.5412906125679922,-1.647794895732404,2.5749606673388947,-1.4919321180708915,0.8238874835877367,-0.9113683855535971,-0.40701791397294307,-0.1511197326771054,0.595986963416829,0.2829630641958269,1.1281692475716896,0.09012647129054514
,0.020132684705691115,-2.522901891833317,0.8725652983876496,-2.076390296969788,0.14665306246600232,-0.37539127953186013,-1.3818430379420756,-0.7643153626388137,-0.48167186058027656,0.20141545606189046,-0.14299088690392847,0.2990721077899326,-0.02494925469732611,-0.2628818846697834
,-0.1843822771925161,1.1147294867192727,0.5147200958367246,-2.5509574736921588,0.6177560882320463,1.0816102138567734,-1.8825600822109643,-0.6009150255510922,-0.3247199021425594,-0.02266331528406061,-0.223764928043804,-0.20058399277641775,-0.49384656244853986,-0.37782669586033235
,0.006966160327819015,2.03176355087066,0.25822979812445657,-0.5800414357743142,0.7993297148444967,2.1304331313356633,-0.7465192076348407,-0.22314472533627877,0.07102331656698048,-0.11324963243413398,0.7513761597597082,0.03182002431667266,-0.46404401212648116,-0.026199279296293138
,-0.32231127669072684,1.347362123871406,0.1706182115687519,-0.2826125317155086,2.7126292739046978,2.2059032929690368,-0.5676411527020383,-0.8337629568524283,-1.0415092629184286,0.059797942044087164,0.5730441347780701,0.7166966737737894,-0.24501848945224777,-0.31580166599468146
,-0.6720292132121579,3.5131640602148857,0.2764923941757499,-1.4743547639841674,2.3123788242739893,-1.235945207690032,-0.4479719308024731,-0.8278823154869224,-1.2571999680213914,-0.32851533949300454,-0.43143489249776834,-0.06776285892044975,-0.5727649212754748,-0.3463732424416144
,0.692363297984642,2.5891518536775275,0.4587246285127994,-2.5894843827089855,0.5376710096786785,-1.1889010859523719,-0.09607370468036477,-0.1502079259805971,-0.5483114918706309,-0.032010386654424954,-0.6001375965943413,0.06594049193935207,0.47782874430249833,-0.2844238733892175
,-0.2971926961603533,1.4015838038457225,0.6998651807629609,-1.7795796382911078,-2.322393211145029,-1.703525571797958,0.3597164163464731,-0.3954019984766725,-0.9241369465485485,-0.5501273837703482,0.23565493624750242,-0.14350922057055443,1.400484082590369,-0.0209167547168193
,-0.523746837975656,0.3630118279464735,0.11374073128277018,-0.7821762611643904,-0.5918417131542383,-1.039231785841829,2.511525697819196,1.0576152546437707,0.34971087613295976,0.2079645404290555,0.31730527988935825,-0.6939566716432671,1.1459709043895896,0.08356435914171477
,-0.2529926286772242,0.5661967529539458,-0.33179623069883063,-1.0076684029494891,0.5431231277804249,-1.2550431274860387,0.578104809167973,0.9079859123734579,0.6073451933446165,0.15428191675637123,0.027359024006718937,-0.8272006098814783,-0.7942256328698502,0.003016363028707007
,-0.4850791042597777,2.2664752763288223,0.007203785190352326,-1.4528981723638326,0.6470096878346592,-2.4477724425849896,0.4087614730760904,0.4656899468028827,0.11314492924495781,-0.6024372822966936,0.011935692063890807,-0.36215093201845683,-0.47758969017207925,-0.26552412409090526
,0.18253997454180035,2.4780023024969835,-0.2903360461989208,-2.892898132688342,0.25997751998278235,-2.1061726025553753,-0.04926052269825711,0.6148528762699836,0.5378952767828016,-0.23748764725546598,-0.546788904572027,-0.012884574573894499,0.04047007069184094,-0.24486396557140713
,0.8086462969750354,0.3365333768433563,-0.44667201941758294,-2.3018851163437857,-0.19363717144988796,-0.8210988964913434,0.26198080380211297,0.42998893257570736,-0.7659802826564478,-0.33396401064670045,0.40378785136775486,-0.3550096511003693,-0.3195712431146007,-0.061950823800903776
,1.5085429431326276,0.23479136916596555,-0.14956076977637672,-1.4900504677916042,-0.1654256464953397,-0.145121111670111,0.5544983556544114,0.2817327342496953,-1.182352429038198,-0.8749985154034632,1.3790824366977317,-0.1426299337075747,-0.5093438043698025,-0.24820628000376924
,0.8347643096878223,-0.09070257978575044,0.1718593083285884,-0.988916479553363,1.3679051678917205,-0.9083060417873505,1.1243434631854015,0.4572550500734149,-0.4042239527964697,-0.3958716428462771,0.4992934432103107,0.011071141097293517,0.12911271031308524,-0.33586132863593676
,0.7557495546844551,1.84133287156832,0.5374310293979511,-1.4705639695943469,4.195282719773089,-0.444228914145338,0.1852499472971703,0.4018197594649884,0.0955532444759767,-0.4140179272102211,0.7221087898353976,-0.5083185289988252,0.9752931024827022,-0.1554262285740781
,2.6439686103299773,1.0197642764519999,0.9071192117995694,-4.978842470501002,4.373994385500459,-0.7005514637436839,0.28646289692877624,0.19496147716026793,0.675461068908393,-0.5628571990228289,0.4623056458175884,-0.4598118063114387,0.37838389485501206,0.27014638661580986
,1.1044607900617793,-0.5933942578063169,0.623773379681789,-5.5117908107518785,2.6468442499381717,-0.4319974601427728,0.14184753622345597,-0.02325749399699042,0.39412751871650226,-0.7529095483460133,1.3388264727585333,-0.22955739748656012,-0.009511356964750488,0.5593791351864662
DR,0.2404977732276914,-2.264182859190273,0.4948498009935214,-3.0198606563876025,0.05515605966956886,0.24198989792262143,0.1481277686288652,-0.5938174871421502,-0.3471922305274212,-0.8412405632429271,1.9914895980274807,0.3521755609120347,1.684675467885888,0.5491552839019546
,-0.08235784009743496,-1.218980323111775,0.055810372426951096,-0.42525853210153797,-0.6673615537709017,0.6756063364219311,1.839912707606273,-0.5467001797705001,0.11404476955918305,-0.5298895271954198,0.9080920500372907,0.37971638345238085,-0.09293549710646368,0.2618123925766266
,-0.4067821979740039,-0.2183620033677426,-0.8127023439042862,0.6671805104706641,-1.1506624128619396,-0.8165334799043733,-0.9656012073389532,-0.5330267796949856,-0.030477264346149287,0.03005805335810321,-0.08907061536127,-0.31414823118872476,-0.7606037078465528,-0.17480290416128808
,-0.947236848697898,0.8817125841783898,-0.35660815698108705,-0.4452903794142613,-2.4062796279893233,-0.5824290448685953,-0.6897938483995084,0.05173004071425795,0.47085712990867845,0.49007737371544424,0.026124546499718217,-0.6944826882243138,0.22646830257887776,-0.3122764741666315
,-0.7212589015449771,-1.2479139002104398,0.6066807446192526,-2.9655609892621624,-1.459532968423293,0.8484994802629461,1.5002609371629545,-0.16436067508188532,-0.25672294594318623,0.2403569989645832,-0.5120891192579548,-0.6112768918968262,0.05565415527928182,-0.006247633082641959
,-0.3489156492142099,-0.7575394809321099,-0.2662978444541921,-2.087568142082206,-2.4168360737815813,2.619326663529299,0.9821497132677242,-1.0945197272046314,-0.1465280400012932,-0.02443550843559867,-0.08029597689125266,0.3759575188054211,-1.1166927459467066,-0.4129834514988756
,-0.6206526006392288,-0.4260939242819459,-0.7598872970060655,0.17446111764910663,-0.90499714382774,-0.519580102757939,-0.19797655488916,-1.4709035901742968,0.08102017290347216,-0.00022179540487170653,0.5690488839449683,0.4899210542754692,-0.7913959772694787,-0.48670647391793687
,-1.0084970267948346,-1.0329963009228238,0.17780656201541142,-1.0551810477733503,-0.7289089975977828,-2.107471592635869,-0.5008931982314546,0.06331610965779758,-0.27164154188557327,-0.21947902228483565,0.5524764952031591,-0.9475822672790082,0.5312746868963394,-0.33447342684332104
,-0.40121063200484364,-0.09821921193638025,0.8238625529970126,-1.8851637688844933,-2.229605466888797,-1.392405399611604,-1.9710460661906948,0.8936592560487489,-0.13240125975764946,-0.09330532256573718,-0.5840478479716525,-1.0167196583278375,0.3725224125785304,-0.5629566348913202
,-0.6291941169789952,-1.283647054872301,0.3508556518224366,-1.5618468681562911,-0.32193238080169284,-2.0151948997309117,1.7691524571688477,0.5126053963660606,-0.13872732849042932,-0.056301249429621496,-0.7864102374760046,0.04274495860047897,0.2004805194471651,-0.15054284810243695
,-0.38448224017815635,-1.5309527870852162,-0.22541770461451827,-1.0143555998648517,0.841988942597549,-0.7849767218500269,2.626717434079971,0.03617696296290476,-0.5745186270601728,-0.23505643266254056,-0.148991974693446,0.5710444797365809,0.03003089852232696,0.022056377474539302
,0.9236825505532833,2.0167595826192115,0.03895200058960287,-3.115636060509336,0.8040839901613218,-0.47395264882112187,-0.3855913570655493,-0.07046713364279299,-0.15558385830700266,-0.02158374941155108,0.7816666987524771,0.5995039067204885,-0.21057083659772466,-0.18069642303387207
,0.6800598269698571,2.640419288091315,0.09995013995713116,-1.370970797457058,-0.0638255248596981,1.5524682355909063,-0.5475697093226277,-0.001972219412880445,0.4057757892265549,0.02554475686833297,-0.10352548433597336,-0.16831638333596874,0.39109978330270395,0.0410029941653552
,0.1250160151017337,1.7281136901726328,-0.38820950327112014,-2.243358572686069,-2.4996505278633556,0.37829796759772594,-0.7153237821936987,-0.4799672326814089,-0.5759142964486414,-0.0936040071308776,-0.7634736822516776,-0.5852091428527786,0.7891124882553527,-0.11786185700769172
,-0.9356746349868462,-0.04065707702873495,-0.32522507306776444,-0.8095239993594615,-1.0797471010920363,-0.31967929920806365,1.1621352124401518,-0.9146622729141127,-1.1232362989128457,-0.30116815998575497,0.035803053513226366,-0.19259190771968093,0.21768206660242645,0.03511932267559409
,-0.1824021853536261,-2.789694025125653,-0.6499606817784365,-0.4307143477095082,1.5209911669888208,-0.45931992640808195,1.2992688334760076,-0.10215668375463202,-0.3678200225107745,-0.18583891780995557,0.7175709060468575,-0.020998478718939596,0.8617246805046374,0.08991294252230903
,0.5238709104702153,-0.6833638631767103,-0.7141460131627233,-3.340934317142752,0.08616573799152315,-0.6381744775985339,0.5878505191778058,0.34483869990953997,0.6111094075248844,0.004106856273719043,0.5298655664544534,0.5129819016614839,0.9903845346164089,0.2669086397986287
,0.5423570879197841,1.1234985174625052,-0.47499833567957084,-2.7168679201963877,0.725894569760198,-1.9738667870513402,-0.06247900923533043,0.0752961808520767,0.5276691655605983,0.08973593253280907,0.36325374439274494,0.7788218021380952,-0.7424942950550337,0.0440199271164055
,-0.5872635424085866,1.2360166286046952,-0.22353378553671585,-0.5556185456007743,0.8921620543158281,-1.7308849576744803,-0.7271039380991235,-0.45804712055552743,-0.0592434748401108,-0.39398975418944626,-0.3309497235171895,1.0915465123975387,-1.454456559982472,-0.15843350120352942
,0.11744799029306947,-0.1895049180776342,0.019573549511931923,-1.8770195793759608,0.09164969032473722,0.5445474123310898,-0.38802636765483345,-0.11406494159078702,0.26555796810397236,-0.4199023941843254,-0.20522299500052602,0.657332212344147,-0.2153307095561576,0.06716499711238716
,0.26931985646032675,-0.4851153613940014,0.5785134444557666,-0.26681709510609447,0.30318837867678566,0.12245145737311469,0.08584528724894402,0.4487435760503722,0.24935326622898452,0.008666597667931519,-0.08944479823432568,-0.03049045856550277,0.5205259963793446,0.16903027683575
,0.1451070798597005,-1.4891701878009296,0.26894505145225817,-1.295602389006998,-0.5629186958785655,-1.9940902053211171,-0.10267806017354691,0.2485622857274215,0.4984908650099353,-0.23626576008656863,-0.22204569957670173,0.00620139206911858,-0.23878038273150443,0.4728816937646832
,-0.5150003583776005,-0.9892884396104031,0.040362889010840355,-1.3157407030185084,-3.041346251613251,-3.7438132920037996,1.2395516955527892,-0.30156317052541765,-0.578391096267807,-0.058054270077080646,-0.4668240635953449,0.17903355204582927,-0.6552814531567722,-0.01820467100277471
,-1.1706117949426251,0.23793047127266168,0.2659738670197303,1.4286565742585002,-1.2097530034770818,-1.8706752682591405,2.531670590829213,0.036577039034916804,0.06791601732089424,0.033905174195196196,-0.6411081596435253,0.3939674742430012,-0.32951591920869155,-0.7201811562253868
,-0.494758203926916,-1.939441413500581,0.31737495701500135,0.3210809758313871,1.0867490641736768,-0.8829614678085341,1.133782844848502,-0.4822832558990684,0.23379754673196848,-0.028950394746463208,-1.1005372505131843,-0.3998310217682903,-1.210577758445312,-1.93134393172709
,-0.4612996728308481,-0.9037720434698318,0.4373267165548189,-2.5484787918176393,0.7683139663666547,-1.566566326682505,1.037922528374072,-1.4290387895560335,-0.6528653374980545,-0.28453058047738045,-0.5781796034053437,-0.6551737001051753,-1.4506286843975706,-1.820618738685054
,0.008311852459693486,-0.9368756182515668,0.45990081654589515,-5.397631552930912,2.2140134562885145,-1.4143049881777505,2.476326230883026,-0.6090925794297584,-0.6186609966540428,-0.23641063675201915,0.11866186800137624,-0.031707298936850946,-0.20172607997180422,-0.2529637547664281
,0.35920271090261785,-2.765894859337149,0.5565203844825471,-0.9413090253917131,2.7013825203331816,-1.5761598284369185,1.9252038496889565,0.8378071832758841,-0.3866573823999924,-0.7498724291228124,0.122874380951008,-0.39242916964092917,0.7807419494551063,-0.23284870299630078
,0.02745154786229904,-1.472757928134974,0.6889652154396435,-1.3057585346896847,-0.4918390571621458,-1.1392584899920564,1.5007148686820106,1.2029402252447925,0.368875374729975,-0.8308035871083396,0.17816060289241067,-0.2534148073358932,-0.6412545051265227,-0.26525350167500866
,2.056670049578188,-1.612048380269975,1.013660897840643,-4.169177956291174,-0.24872964168056036,-1.023859931878873,2.812631671897442,1.6267165531845573,0.8097794890077135,-0.9462979601183544,-0.0289333134780665,-0.2876874371299423,-0.771527196142733,0.42175530903172403
,2.376623198757211,-0.41052227947312026,0.6009699453703213,-1.6469659244247448,2.4884376808305166,-1.5582025010742138,1.5161320500631013,0.9329033405441955,0.852174163723561,-0.98624370402476,0.4425283520059018,0.12704256560828442,0.1819527255549884,0.12126354389815827
