event,eeg.af3,eeg.f7,eeg.f3,eeg.fc5,eeg.t7,eeg.p7,eeg.o1,eeg.o2,eeg.p8,eeg.t8,eeg.fc6,eeg.f4,eeg.f8,eeg.af4
,0.7142162615454448,25.86285129200412,0.14997028911217652,9.514996110360153,-0.09927303629130559,0.2995019582321267,-0.3174080663792192,-0.21598606695286557,-0.035234021746822566,-0.3533176031060051,0.6775583675027776,1.0774144968332877,-0.02294175554946277,0.728556414191089
,0.867858373600855,-167.46971251796288,0.03674638911928781,2.206228900903631,0.2701162627435492,-1.9663916212303794,-0.8552861598116088,0.4463521775754962,-0.37240666592506794,0.6133759668194163,0.5200771930600063,0.09364328921652246,-1.0181315524656391,0.13562419976452805
,1.3413018784810538,-34.436533578883285,0.0253044948432993,1.1185407156525096,-0.3214654923673382,-3.563875180884776,-0.112965892000192,0.15002163441412478,-0.46377584804043986,1.1732031115888386,0.16967477358459687,0.11983645582109258,-0.871388408967336,-0.09644116423113837
,2.0220547276656213,72.53593184759966,-0.023207042183246606,1.7765946306222413,-0.4001415686799788,-3.3489167118439687,-0.29225562208268796,-0.3658982800355749,-0.36664026883765766,0.5934019812654837,0.24852999284364702,0.8779110836348357,0.8597736069345872,0.3385395698764707
,1.2957816220837841,64.71721040625295,0.14264350070092544,3.3956344155288707,0.1915906754582804,-0.4866608265950264,-1.145258811147985,-0.2086928726550299,0.39956737533502185,0.8370819212046711,0.1973788513978412,-0.05856637566906891,0.4713671101796358,0.4550492448171929
,0.6197668512187586,-11.376107079355203,0.049853456927327844,0.6842424698673101,0.04432884792632865,-1.3522087306138344,-0.9176401713931719,-0.5854750497154133,-0.3914809906386627,0.41529609235670656,0.4823950946112665,-0.0741256974059899,0.5662203708464116,-0.055556680989922266
,-0.0881733939906935,-97.64064671262524,-0.15069644824000805,3.5145783682040506,-0.25299889453743596,-1.0242596807282642,-0.15635140255152133,-0.604123855147232,-0.6577794840361514,0.23037383700220643,0.6384222304279423,0.7694702888163264,0.1866235053919704,-0.08694755015796089
,0.3321521954900207,8.342370724435721,0.18054146288198333,10.493904948054668,0.8009462515451352,-1.1348518976416815,-0.5236422563054479,-0.03718105316160014,-0.3498178163723703,0.8201207918477257,0.9337025248401671,0.8283462281736086,-0.3399254875818266,0.47404070859593356
,1.4606396095252339,15.759693042798542,0.33218703927302057,6.634475593384064,1.0439819432008823,-2.167736003679778,0.4362399291641906,-0.18683877591122092,-0.7514985500597371,0.9653348350438713,0.8897230140440046,0.4990558742533013,0.011869166905777821,1.162093884199737
,0.4821215207594628,-82.68717702889819,0.35724578298903814,-0.347778224594964,0.265536362858834,-2.482860377124866,1.2558707274168586,-0.5299614550738585,-0.7331970877025771,0.3362308617547003,0.06203694676732232,-0.39562845676225117,-0.5710882466180783,1.00296583909828
,0.5916785953297468,-39.19205088187353,0.4882789983210618,3.477216198689235,0.050501956501773596,-3.579468068713458,-0.019508436367678957,0.045474339881036684,0.053997310592292715,0.2040076469143354,0.0014524215546834899,-0.5692259341750765,-1.5838851577463964,0.48975683588054597
,0.16068768467445615,-51.327034296291686,0.47428573208609864,6.634309797086182,-0.11168539961610002,-2.574138131853736,-1.0337344123559689,0.520449894472841,0.07663987052691017,0.8797766334316739,-0.5047295164386485,-0.7700047646419121,-1.0412599293920761,0.5586310346261609
,-0.8849367026080778,26.977252045613767,-0.02074740672445418,6.91761788992709,-0.04066249161975584,-1.3140918999748539,-1.1699685782386522,0.08580957059981147,-0.23764281519147598,0.9840313886988062,-0.23820389705409536,-0.6571306650109612,-0.9830078598844245,0.6378112900318195
,-0.3318687732776788,66.66265391153274,0.1159878968982582,8.765377047658514,-0.9817924968079972,-2.5407299990301264,-0.6140244173943711,-0.3200525443520498,-0.6046826499357966,0.0819237975875088,0.3904048487258094,-0.059293660838309274,-0.8393566266084375,0.24234665103153946
,-0.14810002167576394,61.94685447965735,-0.006125432483531102,5.21520032291216,-0.007221544114710756,-2.7514106202012547,-0.4478216686639842,-0.4917271420741692,-0.5411414151368767,0.6741962288194717,0.9494442763948164,-0.6398728553639687,-0.4533318102785919,-0.33918337586999797
,-1.2628948404943905,116.96350344784258,-0.38336909054915264,1.0926795044666988,-0.6072380301219246,-2.5904542816420255,-0.4342248293130999,-0.7287835017963824,-0.8252957415284727,0.7125736735215471,1.27526604898336,-0.4720729052903553,-0.7728880446083093,-0.31488030201108475
,-0.4352580214101946,38.240781500783,-0.12181659794051691,5.655026301070165,-0.18535631955155638,-2.1776406568664743,0.8441356022798886,-0.9055872846849867,-0.6296127082478703,0.7042564671889033,0.6514748754619958,-0.39231165909764276,-0.4553656360699806,0.21611098380239657
,0.6092315823377497,6.7300690316628,-0.0420773979887903,7.282375695237456,-0.472266013584454,-2.052931357935381,-0.05287060448149865,-0.9661716607088144,-0.02123168411371556,1.1450622335476102,0.4777393890741266,-0.5072459395323937,-0.45595915254994146,0.3094173541995418
,0.8818403443744396,103.41236747548436,-0.17906171662043383,6.1138468622463735,2.1713906806052097,-2.5629041135349744,-0.84951137027764,-0.7923753412267177,-0.3880210344664545,0.480600683328268,-0.17230906865557213,-0.5153316627699983,-0.28504289085037776,0.3140396367658417
,0.9438004838559684,79.75771929793463,-0.047557773591430805,-0.3580573574563449,4.019875440141158,-1.2412825659966675,-0.3574973282983221,-0.22273795453334597,0.1737752250994833,-0.18173707367593153,-0.3097945543733364,-0.13846854124504898,-0.2841473253362693,0.32666201469493983
,1.2548311429203005,35.42676986945621,0.3686000600292479,2.0623263498988216,3.836838906307189,0.3577072660794806,0.3128690539691704,0.11918827260396758,0.8553628698835223,-0.21879954085810788,0.18102183929028853,-0.37500440951758085,-0.2334805358813269,0.1347324157204144
,0.4529519793963128,17.43994617987854,0.4488853191966175,4.9480418473837355,1.382660698456097,-0.5676848929042532,-0.13988832587688377,-0.43986091105165737,0.5831766628355398,0.5887824628093539,0.027355942247010767,-0.7982350706870796,0.2982394478503864,0.008496074696156672
,-0.31126085570810746,9.025838901128175,0.21190467365656113,0.5442783505731449,1.6765266799652552,-1.355465800736091,-0.5235413603913757,-0.37028641790395467,-0.8146238778874156,0.6122700416138274,-0.3560652591206885,-0.3996807085787143,-0.7898440215976106,-1.1859209395686305
,-0.7360374345975017,23.704293032064243,-0.2860861594403553,1.527126221213797,1.6735148764249514,-2.2519747802122927,-0.7344447589414487,-0.29171434002769286,-1.0942831161064526,0.011746605842344044,-0.42039880693241627,-0.5647085626325465,-0.7654622424499543,-1.6181493730323884
,-0.552348734368048,-17.723067922559558,-0.27830969002406364,9.610306633373431,2.0804363816652165,-1.612323000632424,-0.7830860876847883,-0.6847698735738208,-0.9532721685844273,0.24737561415204717,0.12912206217237326,-0.6116524555184574,0.12377551449267207,-2.1833395165739145
,0.10365394816812332,-39.63092241804991,-0.30440850307067446,9.225290242149066,-0.001972332002897454,-2.1847425521161554,-0.1465353953650147,-0.2865120610802844,-0.6213921618497439,0.6435984238061291,0.4624355495591109,-0.02559441427518105,-0.08002203363997007,-1.3426295226365503
,0.8496864665329928,42.13656195262236,0.0680363651339607,4.444013933899606,0.3199118334277123,-2.244606934951774,0.15508773314803237,0.11794608434537099,0.06045379924607307,1.2189041631417146,0.3182166732810281,-0.17777193974947164,0.03870070884854169,-0.06356168814498854
,0.2388719701083311,61.18465665451088,0.43996821341647674,4.62671129632668,1.3606500484965365,-0.8297420523566057,-0.8238474745012261,-0.038601284136687154,-0.37073063840035936,1.1648286887606505,1.069569429544906,-0.404480441208693,0.6044328434384819,0.14991447353971754
,0.5870286002090236,19.029882676070773,0.973097701545131,5.830898556541735,-0.5345877915100173,-1.3376670689557366,-0.2964124029219119,-0.24315781418742974,-0.5915929827032681,0.40902629995010303,1.2386079041849174,-0.29713294559528236,0.18462584903215673,0.6648819582560918
,0.6165184948733615,-35.562782820444376,0.7677756823477601,6.749140068296102,-0.9254715930922053,-2.841100608106161,-0.06983973784583403,-0.18522804262474643,0.29337437432152585,-0.014683802799426049,-0.10277028028130976,-0.7622111831563478,-0.6992579843722542,-0.09163661788289715
,0.9839166791278569,-83.99014994601157,0.32348307317255603,7.891428034826494,-0.055317836697952476,-1.8238822020151677,0.267334173796371,0.04057126320653144,0.424654901857294,-0.019428928307302234,0.11816812276744665,0.0007723524423279143,-0.17208472451246584,-0.050113179075208285
,1.0936081606522914,-70.15244369968865,-0.04557008077677177,6.376785644518733,3.2284442924636894,-0.6089853964065628,0.6464533643040055,-0.14560809329662072,-0.32137983437152245,0.025959068573143177,0.4676213216405703,0.3152111792720188,0.5209472873185087,0.46361888267011775
,0.5428047440391588,-15.09941751063522,0.004671372210183216,10.352889746082283,-1.2309048973100252,-1.2207030962723262,0.12986387970166435,-0.6013776844421294,-0.44870333828077513,0.2438846912497724,0.8823199916771286,0.0009788374996939182,0.15923250483660065,0.3140679360908752
,0.7589013582742625,45.71245302048613,0.44921534135068364,3.5234960334269876,-3.79674712490259,-1.5594201797050724,-0.3106947229894836,-0.056325477610052146,-0.08159174890012308,0.879706781288113,1.3283120328989833,0.3604394821558855,-0.3191305846634934,0.21552215266782468
,-1.3408199080114078,18.34427989894818,-0.15635115702318048,2.9881330066106195,0.1876301788140564,-1.6334556257331752,-1.2620742275533643,-0.050602832610157925,0.10542783890096605,0.5453878993323648,0.606531166938658,-0.1819634066336954,-0.4997623268091881,-0.5958060130374953
,-3.282510008065865,15.881047563310858,-0.8216750603825564,9.574188934373701,1.3214046738017002,-2.372339607662799,-1.2974955888737483,0.16980464624917832,-0.3309816678930682,0.512379840909369,-0.8146918182331694,-1.2269952864717275,-1.1730616216018552,-1.469817459803452
,-2.693023030139365,21.96144080861578,-0.5828756924753776,8.812095976562428,-1.391130713556551,-3.142545812946856,-0.5944184287548646,-0.2976588641981892,-0.6505230213567597,0.2676676869414284,-0.36151593587598885,-1.3789287891703028,-0.9687461873503629,-0.7279569155834498
,-0.5234907596344446,0.2863105780409005,-0.2883645290602156,1.8320326988992914,-1.401935961502071,-3.183442494396079,-0.778086505231563,-1.0666960977017772,-1.0688942893313158,0.5577859587946281,-0.12070665302398055,-1.0485890559194688,-0.1265725870893867,0.3176712678546607
,0.5912139864557909,-4.511977615642682,0.0294670118669376,-0.6014390574806042,-2.6569694445099046,-2.750177519921227,-0.40644335737052034,-0.7660612691133307,-0.5140797382338835,1.098132819720109,-0.13416961059512655,-0.4979681510246027,0.8410373695558688,0.4162680012189554
,0.4426524507245341,-51.420781146972125,0.35124386520319945,-3.127463343191476,-1.139926274655519,-1.5298260231899612,-0.42633517288987965,-0.22834441842612907,0.37573043414752527,0.5316381238550922,-0.4896952017524303,-0.028100648837354386,0.46013716086107315,0.6371109041900326
,0.28213167268261735,-87.14330731449856,0.1455518115009812,0.24591858393089946,1.0621250078773337,0.28730553917686263,-0.3066984228893492,-0.06820724926249078,0.2589168665144852,0.40656200767905315,0.19307809569499962,0.2938972095391798,-0.3300524055771882,0.12966394027513475
,0.17611518679362406,-30.365780987120797,-0.2573969956647193,7.096058193432793,0.45770100701181193,0.8039578088467771,0.08568898540148656,-0.20249383376484587,0.19222586567270106,-0.04234483796169124,-0.46460061076203313,-0.13981916230874616,0.00891933624398042,-0.3366963191360304
,0.7649649743243598,-9.85755403109509,-0.3668596775205568,6.2406009085753755,-1.7301139966587575,-2.2487745101821632,1.5566395153655521,-0.28863109752118266,-0.23477822993760264,0.5066844637546754,-0.7992022043566704,-0.33437805876202115,0.1725356886783223,0.17031932402517022
,0.5884740865454477,19.722606615269182,-0.25633435980140074,-1.2525921195041192,0.6773684410771899,-2.583659435805091,-0.2334437671213094,-0.4505573776886886,0.20942688101440654,0.7251873610032427,-0.5403342750429999,-0.8430752337098151,-0.5151059393339492,-0.06069767506774975
,0.27206124280166,25.576488038248943,0.07680961329616917,0.4244017260612442,-0.1725706439188066,-2.8811896998949953,-0.5893461938005321,-0.5418043874730136,0.3466284529998238,0.728662254776234,-0.7143547039420884,-0.36584779125221845,-0.5290197859656262,0.07863422580634483
,1.2007008510301185,19.76924612084833,-0.11763872013892664,1.676870589497638,0.42288346091074624,-2.2648096679504284,0.31747651720441755,0.2670066610373578,-0.3690583205777677,0.52868236352947,-0.44248652857862997,0.5066874394706615,-0.33753743391153207,0.3574308356453388
,0.8588827169046795,32.76414680149786,-0.18619549635188412,3.552389399244672,0.8411916543558403,-2.4372878678727083,0.32696563216981867,-0.4828393428296528,-0.28944865616526627,0.6107668560108831,0.16181086695747174,0.3078421759517599,-0.3560911584376398,0.23574695795810677
,-0.3874346796189025,9.310550684010197,-0.15294955703232244,-0.34151391580021484,1.0854088706207172,-1.2129616661981146,-0.3146831169002938,-0.7788218227236586,-0.3280666842122746,0.5493940025228331,0.0019139140547210689,0.21424391446614546,-0.26204107481259964,-0.3023552513413269
,-0.3365171077661642,-90.23283344907932,0.007750002110360002,-0.33589389467733755,0.5994838037924779,-0.26864034229946604,-0.6773437428228511,-0.3974016802493477,-0.3086647010734295,0.42913870328035203,-0.20104389416310234,-1.2187422493257019,0.21231742200858783,-0.42807537888507485
,-0.5608799308589434,-40.925043610943916,-0.1649326093221169,1.2394503657977443,1.1905532992002072,-0.9570113995153617,-0.9725292601102947,-0.6319271476376196,-0.9619129966955156,0.32889110872396243,-0.23819118521248675,-1.0287165254969068,0.25442718878535353,-0.09061733138410377
,-1.0872857834854357,96.70089601448352,0.3114558574324221,4.194417191336767,3.27965995526865,-2.3830575055089196,-1.0165820656898839,-0.7595263889856977,-1.0918908131876028,0.9807286752767,-0.6956057563735801,-0.7562826880677672,-0.41927787172705105,0.08955550818198695
,-0.6081069506289994,83.73602537275617,0.35871886619385956,4.914645483445223,1.2807691525931306,-1.785415902756915,-1.3087793167829076,0.1319607351213221,-0.584896310269234,1.154617425170603,-0.6642890118045103,-0.6837597254962053,-0.4371381440679214,0.4888594464207306
,-0.412986495577788,89.51448190674337,0.1782464550967786,1.076237039463987,3.364377256419128,-2.8110746326520766,-1.7810597676324609,-0.2584454077117165,0.12492968976108511,1.1999630032214714,-0.7989790132818804,-0.7015861790662249,-0.8937884054386818,0.43402172207363465
,-0.3400898456463516,130.91100251514374,0.4026619503916692,2.6201577237087674,3.8678763957654323,-2.4552760648250387,-1.8251287254741235,-0.9789183764547968,-0.4453745238300123,0.6959290919555975,-1.1501326256378037,-0.6959079775103449,-0.67118522125622,0.13389138718331875
,-0.941667168644771,112.88808392897623,-0.09614685987686825,1.4171170339699481,2.330744103076759,0.12825584471021984,-0.8330507575639785,-0.9740872304026014,-0.31431818041410786,0.141328755037927,-1.4102660121187949,-0.5557214976291356,-0.4778117178574044,-0.12117940002721247
,-0.7379820386832922,39.81535503366543,-0.10284645465972383,-1.9280725209908074,2.270892931333171,0.20093218389333442,-1.0629606183979308,-0.2410174767256255,0.8766956450343564,0.28026846234179853,-1.2369491941057043,-0.09499972193018845,-0.5482807518675288,-0.07076206931245868
,-0.1212966043248391,17.060280546646435,-0.11405717128333343,-2.9549318694059306,0.48657310280903554,-0.8079789273595609,0.16568460011941602,-0.6588122317236806,0.07656818505532584,-0.39595607910296193,-0.8996949759073067,0.3803088521603444,-0.3114516094862371,-0.016867117696657993
,-0.3631338651089801,-67.48253616038033,-0.15402951490688996,3.4401444896514075,0.6188334095741365,0.05212065841333542,0.14592639211982078,-0.6342142894901215,-0.4349125772159901,0.38590088948470924,-0.2236691081264992,0.3772797168618166,-0.128705296775355,-0.0583962493484742
,-0.1907565363394814,-4.5854454434258995,0.019372436718169125,4.6541990736355014,1.52747155066664,-0.8884142025966404,-0.0577739813021112,-0.23127738645884582,-0.4535140996229471,0.7225232619969599,0.0338558777153852,1.0634045534068013,-0.11940974322183784,-0.16527106366798275
,0.6422489949781354,47.063798301397576,-0.07500285096541143,-0.22073474547511607,0.9102008549033478,-0.11554121643345165,-0.23242056350409968,-0.2809570204302109,-0.10780079020055848,0.16187413123236605,-0.3436484740297543,0.5009171369791174,-0.35018008068641276,0.5072086622985363
,0.17383555791925287,122.17228929231602,-0.0012254570003266355,1.329262462256744,-0.13344421552951471,-0.574805815582431,-0.8332776547084482,-0.30851732122080716,-0.4637358365775618,0.12344436345766255,-0.4405224677006039,-0.25546040933466035,0.05557745499512373,0.13096262605807252
,0.0045071851945874125,64.65126555122374,-0.10753112271601069,6.3916454306112795,-2.0699939557040072,-1.7562291759578625,-0.31503525098892055,-0.05717928864009765,0.15939422314408383,-0.13103388485538603,-0.08328482128975348,0.03150792470972664,0.43777101609725244,0.18417268789785024
,0.17958616993212936,-98.45294401214605,-0.21154654363170858,2.9901691809372464,-2.9754668439580874,-1.6183850167400913,-0.4339493085973561,-0.7304285044419372,-0.712819793585766,0.3448806706172071,0.28542792974984477,-0.1619658271617447,0.26173742115713655,-0.2118148611971887
,1.1163351385953317,-20.60165562748181,-0.5832430178924426,-1.3925666767477984,-1.9112376454271238,-2.993479497015922,-0.6004602652010913,-1.0389333517853443,-1.372551089705969,0.4545885558918502,0.19851779664780603,0.139179493286659,0.07039363899246891,-0.1825184864406021
,1.048968398867386,-38.07822410850363,-0.2510073363815888,-3.1827789874201597,0.41355805697225956,-2.8428467095264067,-0.9490500256628479,-0.8446783427428528,-1.8672808787380761,-0.3426722739690262,-0.4250071095565337,0.004339249239083333,0.12292523039343943,0.2041643627475274
,1.0244588905016911,-113.79385728876235,0.13370781475168275,0.640723320258239,1.094050776728003,0.5220747533220189,0.28897029453934875,-0.24152875312648067,-1.529818730764087,0.22610616005328865,-0.36172442000400845,0.8129789116586286,-0.10286384002716228,0.3290599825764594
,1.1489184537255843,-53.89893348617891,0.13612295360671628,10.537927072119498,1.6649458322840909,-0.8002378054617999,1.33054109076296,0.02622659936806083,-1.280090397194712,1.0931922247529466,-0.5601878207620395,0.8449669832736122,0.2026511132418417,-0.10293471254255546
,0.8156570934167606,77.18320243477042,0.08575834348550664,11.23255171524561,1.5081447278444022,-0.2736652271772722,0.34116750598254003,0.25777625197898735,-0.4044346286205004,1.108397172502986,-0.4723776635596989,0.4434760308657046,0.027436180282591406,-0.12670072284664563
,-0.13868628439541028,57.1374876787788,-0.6811734885716458,-1.2996425087709012,2.1994987650586193,0.44380808746066813,0.44734982479162594,-0.4443625887349358,-0.46436584555503674,-0.3035918154176785,-0.4399091653900955,0.042575085339587225,-0.8812001400238693,-0.293051560526776
,-0.04518318480940578,-58.062663649492336,-0.6507280734138018,-4.954494538555751,1.2999875277370343,0.5326790956824939,-0.15352684602553246,-0.7398223928846102,-0.46312002718585665,-0.1259617307879411,-0.7816912501510503,0.0230459584353896,-0.9556050045365018,-0.14331932844587408
,1.0100337337970082,26.179831192833234,-0.18381385474456113,-2.9457107132995493,-1.5032272074933473,-0.8219604191200871,-0.583439165999267,-0.19933435908401465,0.09715652222170774,-0.11494161398617436,-0.22827702002027364,-0.4052807174090854,-0.12283294494793703,0.24740115921687636
,-0.24655049599247514,81.23180641236986,0.019821031074730017,2.106259431407018,-2.427180434316416,-3.043412846128786,-1.4085304580570628,-0.4336395232462372,-0.6659494342558442,0.5132270581627718,-0.44387865252045616,-0.5281105963671285,0.15226228639137032,-0.3647500933650331
,-0.4884086882992754,23.325683039861246,-0.07951029393197949,6.833746599555926,-0.40959049651050344,-2.2175491055251366,-0.2339006107672055,-0.3184017528585719,-0.7878348916884735,0.4557277814844512,-0.5373824640503188,-0.4518985662462669,0.39587255508799474,-0.21134043185448795
,-0.32259414465431535,-15.686275992643376,-0.6294113447351344,4.664760424483237,3.7142502539530744,-2.141765010681796,-0.8928405954388601,-0.6107838523226438,-0.701959537111371,-0.2958388328351846,-0.3555941439611254,-0.22433509780988453,0.9385160911319183,-0.27640448941887036
,0.20528319917837964,-42.04199244344215,-0.53319975354663,-1.6210545408146677,3.305081043576455,-2.6359947650744577,-0.3065410739530709,-0.6734290269285163,-0.859170796657675,-0.14409371194858783,-0.11569750392247523,-0.3231178685307691,0.5356726214203177,-0.0724313253391221
,0.5264856266216347,-25.79864671660062,-0.10026024973542179,-6.505826827292472,2.5650742204866526,-1.6689344814956526,-0.14738636750587059,-0.8310435388950933,-0.7264373569230628,0.39845419726785924,-0.2601069826966937,0.2580749594056699,0.8902582350577065,-0.017447457680792092
,-0.09316349148963851,-108.98954942652125,-0.323558973503581,-25.948835359909737,3.238571000727829,-0.9907741179032886,-0.22640648594364102,-0.9095969617851832,-0.5491946505435724,1.1053115384803807,-0.09234940791117215,0.7386526481474917,0.23611382209317985,-0.17756266172188728
,-0.4075467406681422,-95.79052994267812,-0.055386227699192735,-24.97177055203291,3.5544212193936784,1.2643773827584113,0.0746215525380025,-1.0045960729376087,-0.5163394173526241,1.1095545434520697,0.0720287550115857,0.5470683027089482,0.016119139321633322,0.08362595048133238
,-0.23582230399559456,-62.87592420330795,0.1745718417883806,-3.2300526917816184,1.4923690682291968,0.7515228436623703,0.17361691230736762,-0.5844788531708248,-0.6762467207093034,0.683373454155252,-0.12496152674635941,-0.1250244474189845,-0.3780682525602751,-0.1884568519197467
,-0.2602216786982617,11.007053640518649,-0.44599279267083625,-0.5044249849669339,1.9583443372339653,-0.4595578777173963,0.2699899058069042,-0.3356528964675712,-0.6803043769113851,0.5972727238371931,-0.48130010964071857,-0.4765202514679419,-0.2985676699273215,-0.2354726185607041
,0.47993757910385076,-49.663883440966146,-0.31764459967211345,5.381057032294267,0.25949577130571305,1.5461302076835202,0.39508400823952844,-0.4065339103239736,-0.9513630733991678,0.3382628034217119,0.6979818006943252,0.48463779905993387,-0.20288407397734035,-0.0016782499943781967
,0.04803814847683868,-196.09300525759446,0.18211931976544027,3.5246652936664655,-0.08868590165220472,2.104535592538879,0.6561561887849525,-0.15947730340737257,-0.3971823269371453,0.4003746556374127,-0.02044145962714602,1.1161632016296321,-0.0627281133485933,0.260565855227914
,-0.9025475028755962,-128.4300823366363,-0.2625107006159576,2.255056582867876,0.43378732704644035,0.10004645324562261,0.4155975160601072,0.04965345224472875,-0.16156730915458642,0.5370727443181326,-0.605584156451669,-0.24062927665701783,0.3084924624527558,0.28862506827148193
,-1.0712762635001791,-83.8700502457696,-0.35930892793608304,1.3658113648474908,-1.7114085609967093,-1.327691170376308,0.36411640628438563,0.6675134528380527,-0.5847303260794297,0.48868992308451026,-1.016388132989795,-0.5152752825117357,-0.22207595322608273,0.6029164380421613
,-0.7316264131356678,-15.054766762154717,-0.016348530817045126,1.243793191427373,-1.4314580936186303,-1.028748233794098,0.11040274124899639,0.6451365277123651,-0.06958783618566482,-0.7190353473341189,-0.7673373288815146,-0.027666184720601814,0.0865577496747745,1.1416328186431308
,-0.4872878912328339,1.3673985820985586,0.15395431711469773,-3.1823184125610586,0.3117545905551913,-0.012875700180616617,0.005971375323644373,0.5247230750929341,0.5805532738368895,-1.4281020940026747,-0.6886308365742879,-0.7797683338005232,0.03121432677114064,0.6983713376570122
,-0.21659604448702316,-55.409647810404195,0.282680347502995,-1.0638753812692092,0.3047386929035038,0.5354134946127921,0.717748482870783,0.27212374436335063,0.4204918529119546,-0.5558568508351698,-1.037493730955215,0.1323067082351392,-0.05349968146044811,0.22690689908943634
,-0.6863359417103354,-160.10270979081702,-0.07004527134437773,2.885055651733627,2.5156033400756117,-1.0000861144231052,0.7426171177758102,0.11952812275870123,0.09565915627050209,-0.04983299782815247,-0.7261983443474435,0.08358174258001991,-0.7008590071204552,0.24808307610392905
,-0.37603360284795245,-36.409519451691565,-0.38960503225868887,-0.7130202983994756,0.8728366687606806,-0.7174788840112726,0.2924881062902722,-0.26717876633831494,-0.08932519213063178,0.3734619147804353,-0.4787976616643972,0.019435659490962248,-0.6569041946678261,0.1166582001848726
,-0.30204538555395855,38.41446693973368,-0.1517318523881542,0.07577468116608056,2.6134592242798336,0.5059945721678065,0.9165283361063773,-0.3920752016145357,0.5523725430575318,0.1744743770434315,0.9917758804334206,0.6961446254996512,-0.2139791694923278,0.20128851905171577
,0.12572895673928133,39.153954871860144,-0.4626300477424724,3.046496235567018,1.839232057102517,-0.06036536614141433,-0.20549203499642318,-0.9291118390172234,-0.045760398311273216,0.04045507725500686,1.0289744081848382,0.8302344655294772,0.24937245055694526,0.5139266210505543
,0.012737599423922634,18.654676477919153,-0.25094102007355024,4.4745759861913,-1.2642096777347862,-0.8220765596607107,-0.6572177404568413,-0.6029447726315679,-0.6869205186761207,-0.043064776157088765,0.7436469669289741,0.05755175535118005,-0.41441759337411344,0.3407714196602572
,-0.420895551858414,25.18426631581993,-0.2819831728609452,-2.4449707193892016,-1.5367382922781934,-0.2321130334791135,-0.7291777429215553,-0.2065858187501509,0.11666924362596608,-0.8039614463284891,0.6646206043154077,-0.2980778003684525,-0.9324158047756906,-0.1389648101922888
,-0.8528560355712762,28.23896627525182,-0.5491157714159487,-1.7754486379778613,-1.6242870220175742,0.5022641720578142,0.09902538675391664,-0.6996246711535187,-0.1324495526903902,-0.458450361097421,0.45893984075664396,-0.5799793807026855,-0.04634946473636727,-0.687565569701916
,-0.5538396982783427,-21.665859398657577,-0.36793454183065644,-0.8663204745259694,-1.8561923099475397,-1.1779796736245238,-0.4442571759222968,-0.5688302700117497,-0.4244307378013216,0.09674647866686199,-0.8720012473889388,-1.0606224772290798,0.05849922722740509,-0.5141505268282954
,0.26402593150423814,-61.15253702760773,0.18944215742817885,-2.6199337259716513,-0.19158365459431942,-0.8516079176569401,-1.4320864548576873,-0.4241250933329625,-0.21392920984405467,-0.24365042554433036,-0.6043031922691257,-1.397769107444214,0.2325321049721643,0.14392924445246608
,0.03515543015582837,53.67660807795014,0.1373332473838624,4.214449024562281,2.3037557166814406,-1.7428676001977041,-1.5305048368310799,-0.21857089608207445,-0.16802861740746233,0.10349571824993722,-0.22938496454496582,-1.1226665963758358,-0.09351463866184699,0.16662189281095044
,-0.07307277230285422,70.19437714984106,-0.118560576608121,3.6096471419752634,0.870782680046903,-2.189043122205319,-0.31807651546031607,-0.036834895815562506,0.20229217213368045,-0.14167871079457856,-0.3951201863135626,-0.4518610968797508,-0.16922445820274676,0.522980727956647
,0.17364520811314518,23.732896991581338,-0.231826096051407,-1.3096034766349243,0.1638720414630644,-1.6494565917668678,0.10595836934017973,-0.9954910389811787,0.30451578247749067,-0.7182922873896591,0.20202159653052015,-0.4374383232960819,-0.308046187914765,0.19373915910408226
,-0.6730110050061765,-37.87020284302116,-0.02038888171930151,6.395153235332901,2.1531075721856983,0.7276528574165084,0.22077188032739165,-2.1684323557865968,-0.4690610226937185,-0.14330608283011786,-0.5723044259118008,-0.1888658491619161,-0.22722542409373941,-0.4267848343819046
,-1.0105179379974256,20.360690048074822,0.0370978902941131,5.839534412736543,1.5613673388747005,0.574957247479528,-0.5311181822789266,-1.6897263328010719,-1.0086592559351903,0.511494099707758,-0.8226694072016651,-0.2667079221499468,-0.005616810723906672,-0.04885852739064066
,-0.6345003979102216,54.64952236739333,-0.20405399927363185,0.6977371215668476,1.9844490774828543,-1.2507001823470287,-0.5838329728918958,-0.9287255330656825,-0.5783419854191466,0.30185722757808386,-0.6210247469753625,-0.17277079685327398,0.5302864886361528,0.2614271206131597
,-0.12194349442590684,28.864129424836964,-0.20117304907441041,-3.588489923576074,-0.3493050396902707,-2.0119439138705832,-0.019195406191268766,-0.8532294383279446,-1.401869907874158,0.7830619743043211,-0.5167726373416341,-0.3229457917044884,1.0342659563431846,-0.19846959315617163
,-0.6064249545715861,-48.88899111111169,-0.32458396971895914,-2.2135801376326403,-1.7786168069152446,-2.8873057022575592,-0.5793802235458025,-0.6521820671736123,-2.3914876609465097,0.6576128292462542,0.18609354646069426,0.21003695687018747,0.2578646159548021,-0.34290307380109813
,-1.2931964250019032,-129.7061254566515,-0.29079895639698294,2.2359557293072574,-2.5106517968137694,-0.7196751063262226,-0.5121139582444739,-0.6716711050939691,-1.4740245595041457,0.2423949301455981,0.5198292834493333,1.089146160732122,0.31830733063097766,-0.5159602130749723
,-1.1727234357785015,-112.71253816878246,-0.17785862262684704,0.8600188210676324,-1.3696789978058497,0.6185203574569467,-1.4414453854380036,-0.32971541090645085,-0.11757762283661903,0.6483781915414967,0.5847404090413177,0.7903758809350591,-0.21352827871516325,-0.7371419523788254
,0.13533057653142655,-101.5717486419234,-0.1759646345314753,3.745700884326016,-1.3626584597724427,-0.6079471891287148,-1.4354517574213144,-1.6738343966178861,-0.37196498761552893,0.4785697064973957,-0.0820084719370269,-0.42977277748578335,-0.5162480823746564,-0.11278880397674561
,0.5869208002242919,-40.13558802316298,0.1380109783306479,-1.1251603650151873,-1.583533595307022,-0.6094992260542944,-0.5079036923047292,-1.8006695625744902,-0.6063220771506793,0.18391081121792086,-0.0819641544166037,-0.6922962606319816,-0.8365186977547465,-0.08892706440604373
,-0.34930213207880373,16.107135588969026,-0.24899112597368145,-3.6494657556836754,-0.5411265954076173,0.47229465405765647,0.14885739850090865,-0.7855401181564035,-1.0735242006387693,0.416395431113087,0.38019935086713597,-0.5960508841328126,-0.5031040496837219,-0.46738275828078935
,-0.49879584687612155,43.87136761140882,0.025281620768959942,-4.433064881534593,0.4690681779458283,0.7763637137290871,0.3461862001366037,-0.45060749161766694,-0.7754698376111919,0.9950055709279526,0.27180588996177346,-0.2208716117715519,0.24889198015088498,-0.1821187825494254
,-0.2510024808999384,35.38598462901638,0.28721797059735527,-0.28818388815192986,0.8032089849337023,-0.1277679624184328,0.28469892795412893,-0.07400478567623017,-0.8127442826262535,0.5748768853205516,0.18411341986602633,-0.36957902961369077,0.47842786292241907,0.23425131806018715
,-0.29472819672083467,-87.43104064080167,-0.13496349504360072,2.5699775926310813,-1.804062442760262,-1.3722087872185644,1.1030947194012113,0.04791805963323917,-0.28349819377699803,-0.03932281973202755,-0.7228940257056907,-0.19082889086579238,-0.05394364962435529,-0.2509391230750423
,-0.018522842772985385,8.1834525209183,0.19340996729016888,-1.6689944659090534,0.8529350081370509,-2.0805235196984104,0.30340643789949867,-0.38917053458903483,-0.723414413654433,-0.3198327643674159,-0.11392623106625593,0.6400837322584629,0.09273486518703716,-0.02516111125643514
,-0.41802217741054604,57.53255127970864,0.060775342531607844,-1.2921384981385495,1.0185647775541458,-2.3988433205175324,-0.4594643469215349,-0.7057726537363129,-0.5062264389546043,-0.054797453798460294,1.3109418096055958,0.3528461469697704,0.30481451023291173,0.91356464687492
,0.2820661880539919,8.353237333612721,0.17937014386081618,0.771769608861911,2.442632514940107,-0.6759793028521504,-0.6044530737796167,-0.4632394662251239,-0.20162948429056265,-0.05850352886101029,0.5962012625035924,0.1974962762654306,0.06028697595139087,0.7270590241571234
,-0.2096329764865991,16.27365770458033,0.25721351939504106,5.184621941636616,2.617108149471348,-0.33312567187670483,-1.3049441114580644,-0.44149016659976204,0.22243539248774497,0.08179197608869324,-0.630161575886535,-0.04854782444114462,-1.3851796579011577,-0.4290271077938306
,-0.4005965703732432,55.44932890263901,-0.3326003770889664,6.73126731850517,1.6001308985033376,-2.5187838392690356,-0.8312870293556781,-0.7613464120335542,0.36650890469285613,0.3400475936642264,-0.11424884080526516,-0.6826494686167468,-0.6393104790832539,-0.3598456943643913
,0.08837459161386808,-53.96927002290599,-0.25715017593704675,7.6055694771212385,0.1815589907482072,-2.3996834135638987,-1.4147845747527938,-0.4412951227070188,0.6500161985298992,-0.10959529909733273,-0.11948570966808694,-0.44282234113030355,0.5580242204982259,0.04970787888475865
,0.8355859904216063,30.72203724597417,-0.08908075549874268,3.0486261491022826,-0.23100290018968772,-0.05894698838325453,-1.4944769508269287,-0.10750776726655811,-0.34492529840984004,0.15202986106821134,0.4135658350310836,0.8489122390029284,0.17167894430669636,0.02382251546529098
,0.028265781704272283,89.25448257783005,-0.21793003605191286,0.40244753976516273,0.2482131359243474,-0.5301099705128786,-0.29773871203060204,0.022452213967372663,-0.6875038042684253,-0.018004841302856074,0.4508264447638333,0.7254727655290278,-0.42449006773996273,0.06073306224126949
,0.17451707293189647,63.55246976961336,-0.12815973488123034,6.3171876332932895,1.58027464901433,-1.7625407566216702,-0.19184560021595712,0.06283888469028313,-0.4463304437539147,-0.3435315392517106,-0.02398874446243874,0.2751421164971384,0.06166633139666023,-0.06138497052706008
,-0.07056918135513283,56.562133297863845,0.26661335538596503,9.68142135173604,0.9256868458126134,-1.8570264527156009,-0.7677398144796405,0.11961478749331007,-0.5719347688592048,0.1520995288358301,0.0661733073302627,-0.6692911631648121,0.6354506130877902,-0.36838176200090417
,0.19675453708909227,-1.3062535170638485,0.3032069728600932,4.434854791110808,4.264717949507633,0.14033736029773985,-0.13818132717553955,0.3196713970629231,-0.041974328406021576,0.02614793888392107,0.4401946573489518,-0.7564113572570241,0.4095286521296996,-0.14807478563904714
,0.3790721964424628,-28.780623147482814,-0.11654955542373069,2.4240411524455894,0.21676058367175388,-1.2194601524837183,2.0729497720459102,-0.5522315327799473,0.03347617861659937,0.3433634548996099,0.9413003838100888,-0.7386790310396494,0.4051032771495002,0.13300234887053375
,0.6611481530458866,6.724862667750314,-0.48571448039316156,-4.018519071145676,-1.7591803447184877,-2.5490283260588016,0.6773970318284844,-0.8229523081617094,-0.3790367596570335,0.2337613104553608,0.8802743236993776,-0.7414275936357039,0.7605069641121227,-0.39646786684345514
,0.8219292505808474,-14.372647226297861,-0.3765088771595916,-4.058532405848174,0.47994442572911666,-0.31118249346985427,-0.6035834852863111,-0.5627223977103553,-0.22338030828002126,0.5419690019766141,0.2316783519605227,-0.024370324525743812,-0.16611612330533962,-0.40885957062508477
,-0.44228900105805985,17.907446705711028,-0.029187128966111052,8.235893746130564,-0.5696938179368606,-0.08746234865794189,-0.1722584036292434,-0.2814395878028629,-0.08248417358901737,0.7775055972180995,0.4961129659086887,0.7683976842990803,-0.10094455872543193,0.023756164100729452
,-0.29266467312481503,80.30395286595353,-0.05676096212781717,7.203711395652513,-1.2795108332664527,-2.220525489852581,-0.14049969918248836,-0.6024841277798859,-0.3950355012201587,0.9005202863524691,0.5228390009936017,0.41127741650084443,-0.00891832306546032,-0.09335700105677046
,-0.11520610162387544,51.1853545316739,0.09093522676270752,2.1255902150716617,2.1561936353530586,-0.7546583389506494,0.5493253015004095,-0.4920400128030182,-0.07637272588533958,0.9536208225801256,0.7736539443518334,0.5284680535331648,0.006236873759018945,0.44218187032560263
,-0.4794963411346166,-22.06219641957036,0.30794476102540086,-1.2202990473141753,2.506928772469699,-0.6611013875539414,0.76332399801609,-0.1954351492809361,-0.10553041792696262,1.0254889083521694,-0.3337083851963804,0.24631498547556935,-0.4278668473969424,1.2079959599655647
,-0.6823436844102546,-63.08201080734069,-0.5014006485295734,5.1906234696794336,-0.61825866029927,-1.5874549767259678,-0.716063362965323,-0.3241900457685222,-0.8872596988895214,0.6006257906742621,0.0775463023855701,-0.11273210955456046,-0.715127408915281,0.20252879763668963
,-0.5338176424907206,-81.57628077783018,-0.6859207103735048,3.549363879348576,-0.994363638103749,-0.5295251667259661,-0.3851583407881029,-0.514769441439398,-0.8561640549863776,-0.18957509756697355,0.3165432665265058,-0.1541409321379376,0.18867973367650623,-0.4314807396815323
,-0.26117291055746084,5.435070111720042,-0.2698558379222396,6.819754225837794,0.0010209191224326056,-1.8478456944014001,-0.541260455076836,-0.32947990071219296,-0.2189944228948307,0.19027820232199816,0.5285480444856853,-0.33026824884790273,0.48588962252610934,0.1854621403547973
,-0.7888325295859706,35.16796231350746,-0.20893366019640877,2.7333195443649227,-0.56415372603034,-2.5001699894165523,-1.1040531614354874,-0.108853078062243,-0.15674148113994948,0.6278938750071452,0.9350679239226132,-0.3900844204873746,-0.14505906563567944,0.20740323077092435
,-0.23766634852840224,11.388630207481784,0.019119739686477285,-0.5610224532631657,-0.4893337357750728,-1.5292128030705692,-0.22472040126028958,0.021749160743022678,0.07301169680592833,0.5693512149840156,0.4001932058792127,-1.049941072665328,-0.2539354082454366,-0.14782187219852128
,0.8512201254799191,18.5871639897248,0.24822304286571356,3.633837810864116,2.494483109164294,-1.0077087141386127,0.007719001484889115,0.287432404078009,0.5561513713931586,0.08452048529510083,0.1345199156204023,-0.5972862365551262,-0.002982737955161242,-0.2958928099842461
,0.6386117898702415,-6.53005401445206,-0.09615532044365457,-1.2882168584363285,0.7118372883734096,-1.306854984792185,-0.30774725144482457,0.03565592670685022,0.5297175132920175,-0.16067394146409256,0.47099691927765147,0.8659078429860749,-0.24236595444133485,-0.04314585025498139
,-0.3706154729567812,2.190909223855167,-0.05378481747948449,0.732689694060004,-0.9840916682520147,0.6418542526183094,-0.060882167846350095,-0.19703089944186783,0.3034675856847335,0.015392507667437582,0.5180711072197738,0.2528476507297909,0.2554589603797186,-0.1049025423882344
,-0.2944119733490641,-54.400932505404725,-0.1282081735763938,0.13942171269514422,-1.5127419111387475,1.3947473581874703,-0.7189712920751528,-0.37325334281318484,0.21076269708884907,-0.009623105969677356,-0.16732822497598332,0.11018421784113318,0.9652087939377116,-0.1734161877112077
,-0.3490500314649209,-102.12491823237418,-0.11246921789285767,-7.158521762246718,0.17900000744386477,0.6472793460502962,-0.35433533007465695,-0.32631140678794335,-0.6805143197220855,0.670544886076138,-0.7154164317011751,0.171744591634831,-0.11544521657167801,-0.17703475598000684
,-0.31612002530201255,-99.61764289709446,-0.010423076948010614,-13.701652129286899,-1.1500710246195855,0.5640017484153236,0.19982486834123586,-0.033963397062113404,-0.43056377441201993,0.13882435784458091,-0.7325947641897568,0.3212422680557416,-0.4042334261427508,0.20176503275756616
,-0.16268630368814888,10.14420937561224,-0.024552025851476457,-6.011918866673761,-1.8770893688511685,0.8674383213409591,0.667678111189531,0.0958876668689454,0.027078499723770993,-0.2534901191625046,0.2518177630145047,-0.06997533985938027,0.036984357812464126,0.0008695274594827546
,-0.09322144013613913,73.39415479106485,-0.10503564463308775,-4.342594075681429,-1.838601509191801,0.23727358371804935,1.058595547123564,-0.23729400285130647,-0.24862338423162297,-0.12608067037063247,0.2641497122976766,-0.11101184810693508,0.9520685235040781,0.20859441503427523
,0.2729216764617347,67.43852498530245,0.09129020415854126,-0.18079669725488245,-1.4361402157157317,-0.5485835867777548,0.3201798096819488,-0.5592026195155438,0.15476012640268405,-0.07643359054087866,0.04428109659511261,-0.1635425994258928,-0.012170376693534907,0.00135206978426623
,0.10740396541626823,32.87001054872041,0.35314794069300026,-2.8286830365970617,0.4430734343376621,-0.16743857402406506,0.29469289606027405,-0.41922037901284664,0.24638308639125567,-0.4117800016381796,0.24775430374658294,0.11251821404676231,-0.21194316784734202,-0.16749580200591266
,0.21908673343936147,39.59943722487099,0.3528710102017302,-1.3039266451254863,1.7588359340612951,-0.7784824647353743,-0.28468594663748875,0.6798771482488133,0.395742874592852,-0.5512272365721466,-0.4567618303257995,0.17604053470102013,-0.0579733563836955,0.34636414890520645
,-0.2567325120689928,23.973820672174945,0.18420754340735204,0.7098576015463904,1.9033881823702978,-1.3878453052720268,0.0021796705336789065,0.2502645223516771,0.24777860065077506,-0.16230626178300586,-0.6148789544131065,-0.7520496983866568,-0.5347678173927336,0.40795039224823715
,0.22479001937579257,28.46282110638544,0.2399810047303747,2.2998768786076607,2.5421686613765524,-0.4409998780159102,0.537719907602233,-0.4018637507793748,-0.2592888588604589,-0.14115523181300305,-0.41973109742071146,-0.2587646592230416,-0.42734767864984957,0.30815937069131394
,0.9191487522831364,32.069878792590046,0.49153561818690594,5.774497941911541,-0.5926085563615798,1.501633278928438,0.800681660449295,0.3653768435026855,-0.2923298539270657,0.23223366599361775,-0.20167905825228258,0.33634691103718317,0.4904812780014454,0.039887385011273105
,0.7076796619492889,-74.90129292726007,-0.08421448981788078,7.1939931550108485,-0.6602266071698577,2.8128102557794015,-0.09893795664554268,1.3037438220674569,0.043950275275720874,-0.16077896877158027,-0.5280026978093688,0.22614187805287264,-0.08921109831020226,-0.18687217397179515
,-0.2765355341471306,38.42852801140505,-0.20082312879509082,3.7907200803187298,2.065614424959839,3.37762901633217,0.19148083081808764,0.4612547239105568,0.3544158228726694,-0.28591496953735884,-0.27555019949753706,1.304090946610166,-0.8773359655686299,-0.17974497884090554
R,0.13457342937230074,136.62066150033135,-0.07438633973146554,2.086600513642573,2.5321559289151945,2.4123395526300726,-0.5449868906621405,-0.16715214921428473,-0.20627478122072093,0.18131247492339758,0.2872732705221352,0.545625283693636,-0.8812634804191228,0.43474142533152643
,-0.1814898055763194,142.15281539135992,0.10353315240367478,2.0782261386993444,1.497491590597458,0.19175205805728987,-0.1833423600647591,0.1746229969016984,-0.18829571510606244,0.20241397190316837,0.7105009071645365,-0.46212848108147114,-0.3499800877767757,-0.2512131105327147
,-0.7899252174676072,113.11184074054273,0.5407630481804822,1.6652360186053095,1.4847089834239209,-0.7480261671017955,0.373045459730224,0.4889969429974003,0.14300988987338856,-0.5953717735348085,0.8677960326491645,-0.7545862502359432,0.039528247967250116,-0.34051873566696683
,-0.7750830952252384,28.931067088818917,0.40977461491784134,6.450112540835158,2.6494220394944654,1.7833283681090664,-0.013306726149447425,-0.39377739336373485,-0.26185116574833833,-0.3740313061434814,0.3881960487709052,-0.4713556965306855,0.04045536826172927,0.4762815000744799
,-0.49874310093399227,-15.391137212302393,-0.06991228228940916,4.576721543661207,1.5929334711296368,1.3917922504462794,0.3674536506991143,-0.5263039138771513,-0.39018481605642963,0.1696389152194024,-0.004093819382291444,0.5698065497700323,-0.5452575769003265,0.29668566958460785
,-0.412157497265958,15.80470217911752,-0.570694995877513,0.593508135215261,0.29142881070277765,-1.8920093353583833,0.0068889136848229076,-0.5262943174943797,-0.3046447604882826,0.23530261411268233,-0.03763021954938073,-0.14722429781184693,0.11767522802943019,-0.4111278406593663
,-0.4099463603706988,-2.629281527312637,-0.4338840677044867,-3.5389544138260813,-0.20916830503382208,-2.070781468968993,0.16522087859536447,0.34759104345268355,0.12182956934661605,0.385487533791839,-0.11214434294303582,-0.7267608197439869,0.2395388594456219,-0.4460642329528803
,0.14234410081348986,25.233762345953572,0.13714607070934015,1.9637692508430675,-1.3163750719446936,-0.9525676944489584,0.48836709574966264,0.18577536396405242,-0.3242986090265513,0.0612326734754777,0.13484461894322197,-0.34783092755756395,-0.7359973982469161,-0.20308516074552035
,0.14479167113615315,77.78378658525295,-0.09768007903636623,2.081998437367098,-3.024928633395117,-2.197572461527382,0.14547418721507144,-0.47495063767233225,-0.859064036084589,0.5526864280231208,-1.2584101842495674,-0.06419369710235548,-1.0483591519644444,0.2675339765370539
,-0.9505501252936441,61.98602414314016,-0.4170117450966392,-0.7586054294009135,-2.3602189485864904,-2.215384937590956,-0.7088233271643146,-0.6675227763671452,-0.678720509781455,1.194256763156044,-2.0216288628093015,-0.8433660010833832,-0.5258256884777955,-0.2628562311990219
,-1.4933661070379467,-10.054940227246776,-0.5747481050792094,-7.85957471433718,-0.5129004867778493,-2.0568997717978523,-0.5401598569671829,-0.5608956541513318,-0.4830985615774964,0.9025777015781912,-0.7431873152319164,-1.5289318536335017,-0.5617507398270624,-0.10556467210811912
,-1.8315152318554007,-14.84357871615767,-0.2986913731307239,-9.577738139978374,1.3141840157101619,-1.8921194365643992,-0.2155937379600478,-0.6845995794186663,-0.1788084022093705,0.777223436904295,-0.34534045910994027,-1.2902317953120395,-1.2907865792267248,-0.6396744720774479
,-1.2127770035408738,113.90690503007846,-0.1382208755318251,-12.961723455480216,-3.1305610881850114,-0.7370209348147093,0.8384505425277008,0.08190656250905344,-0.27867485490474214,0.5225598757432315,-0.8195504493783315,-0.2952787698815233,-0.9064117146145894,-0.6549170114376142
,-0.17505076890014015,145.13866103137386,0.1755505455837709,-12.024341231577585,-3.717932020511443,-2.190284369206743,0.36978745006120906,-0.18789033700161337,-0.22691206631076635,0.3680354697439758,-0.6566081423286843,-0.48268316418765905,-1.0113705081370625,0.204228318088205
,-0.5047792006582028,115.42844630854603,0.12603881182031484,-7.809456783837888,0.1332455394200446,-1.2704103218787939,0.06975782669749644,-0.6977786777669921,-0.6872920956716116,0.005636475541360182,-0.8462294686742493,-0.47323096464004305,-0.6953995658095525,-0.2952123545735567
,-0.19052862651697064,48.220470335051715,0.1829912430012972,-2.960291652208198,3.7103834007534546,-1.5939101545746297,-0.10115493662740115,-0.09054411049648363,-0.4554767261100811,0.6983827068881743,-1.0429946135867607,-0.8436461555873657,-0.7736362214064086,-0.3222379552683102
,-0.2893159670891648,58.226951958223424,-0.18336928394419363,-5.572847059975177,-0.02951457013310828,-1.5129303606553983,-0.742287965316586,-0.008102686605670713,-0.8898274106638523,1.0412841100700982,-0.1940739660214794,0.2816314337806789,-0.5520769184592031,0.3499346163784166
,-1.1226759001293085,101.99400932869044,0.30212385769679984,-5.503170684003873,-0.6041417910091762,-1.3454167088606348,-1.4253346966773814,-0.3592466876161615,-1.0471613945392337,0.5080922760608545,-0.6555095824070382,-1.0585985409872674,-0.03129029695494225,0.23653960386004438
,-1.1433052253328575,85.85666145443531,0.2602056173673391,-8.006122787398109,-0.615503771939454,-2.126974454489714,-1.354142106389722,-0.7021549826996589,-0.39187421688118773,0.3830844823648167,-1.3903709237275559,-1.1721017755949934,-0.31879177245478113,0.06495554061000014
,-0.05752919249431008,19.612138353578867,0.25019833685205073,-2.330493814310264,1.380615959684943,-1.2527937849697428,-1.1503576721263604,-0.849935890738975,-0.9017419378748635,0.28544410893704736,-0.7858808863991742,-0.12819912154872484,-0.12359437257631872,-0.28700774174699345
,-0.8430311253211281,27.015942674792008,-0.16750234065847294,-9.061374256167333,-1.2004519485048317,-2.030611220905329,-1.1752758227589954,-0.8122379508126849,-1.247690118871159,0.39723864693723826,-0.560224986588104,-0.9981420603471728,0.5669838255164183,-0.43020187629327444
,-1.436001966625151,40.235846763009114,-0.23281579737669802,-11.04719863978224,-3.7454848633485085,-3.0371539677263666,-1.363674845295883,-1.4088806093895405,-1.622404620904194,0.1550278019817774,-1.1699896600183335,-0.8431506739156697,0.7966643645547801,-0.7772626933784814
,-0.9943957390770393,72.82995312649983,-0.35503351695938307,-6.9756825723287355,-3.9267527890081175,-1.3663200429668059,-0.3646949890336955,-1.1014088732810983,-1.7074928060452899,0.18556784103299515,-1.1477301694187685,-0.8165352834989381,0.7955934356996885,-0.6003322150953827
,-0.5709578189848209,205.2650945156196,-0.71701201132585,-1.4336042559992648,-3.4922122356868934,0.6597393478138167,0.2388248311737171,-0.34021601457849043,-0.9085187073828892,0.57198867368243,-1.1713553352460484,-1.1041845307368154,0.01997987294590748,-0.5845814658276471
,0.04445505379674748,220.49950203425783,-0.6241505749209405,3.7217905175559003,-2.897102228630366,-0.7291980849785226,-0.4530274933379742,-0.5842488409051295,-1.1351135416579816,0.40540487940761877,-0.22575230504216506,-0.8296816534431832,-1.1637734424271267,0.28569755689423043
,-0.8282954783550159,53.20081892315333,-0.008701629959254494,1.5797384513962114,-4.134394242323311,-2.5778878214788534,-0.8370792822359792,-0.9547647056433557,-1.4706583928687318,-0.6180971019930086,-0.5359599831316282,0.2189206637979997,-1.2952617916354887,0.10453233651741657
,-1.0873048399853016,70.9736273044231,-0.264287397770066,2.5971511220615886,-2.6876780123993704,-2.6128638098912296,-1.409904788657677,-1.140281874848739,-0.5466392830708668,-0.47028867712425143,-1.034085204697726,0.5661747375054044,-1.05374781418329,0.007394313663058993
,-0.4814431366213502,28.415576862566724,-0.5745755067096372,1.0064679465343263,-0.8179836231434745,-0.5916753547561577,-1.3386384072406188,-1.077937787697457,-0.5382375813853394,0.18150967421194894,-1.615627980004407,0.6059095540408852,-0.2140569509737691,-0.04597396326559974
,-0.8514827159890482,127.12155628940468,-0.3664272772761413,-2.393842241622149,-0.3872321794914034,-1.5946714830049074,-0.9802993038336588,-0.6490117659842192,-0.5814030564977146,0.7275420382124628,-2.143550254489387,-0.48959834303906385,-0.9839442417394579,-0.3051104379533162
,-0.5948129261313786,98.36794713433312,-0.471688798977942,0.07334075044516539,-3.716585225648451,-2.2440452149608103,-0.4538649456695165,-0.618313419896003,-0.4636160633429655,0.9831623131790325,-1.138272258092537,-1.0689694994267265,-0.5869036245460189,-0.33524459770668885
,-0.7486009971285588,66.48843677995097,-0.4541329118430394,0.6275729065479719,-4.243959176101828,-0.6228767153679556,0.5720173157944813,-0.510575122404005,0.03772864673405965,0.36032526659932645,-0.6177747347573778,-0.8619360833182561,-0.17005090390637462,-0.2916901261076228
,-0.8825010059183367,40.05167616593855,-0.6435880133069585,-2.44852835876175,0.4841236795933261,-0.2332908774119643,-0.9338437431421924,-0.7253221180584984,-0.5879162666228999,0.6594755898269568,-0.5568980448296244,-0.5094102805195029,0.008461958373101567,-0.4702043647529457
,-0.683653107670212,48.77848288311594,-0.6010261987590603,-1.4597537840531587,-1.249442123485596,-1.4181958053356674,-0.896026490261761,-0.4082957400565704,-0.7556674071061608,1.0957810970616253,-0.6371205697568616,-0.14546806249877514,-0.02952429868092021,-0.6050206826420614
,-1.0831435093169954,20.26328227811892,-0.34107148586995917,3.572404930711843,-2.5024249779795764,-0.08060453995418349,0.18338109566939395,-0.0030739103062750878,-0.6282107234423889,1.248895078548729,-0.080721400405682,-0.3115046709437968,-0.7439039145752683,-0.45177318689669405
,-0.7621452084307944,28.890455783850285,-0.13404294429493568,7.5852938844424616,-1.968762748220555,0.5479627739026662,-0.39463371598394564,-0.11021835140621873,-0.14612563794134495,0.594792113066181,-0.06982466274613638,-0.23470344510524271,-1.1549593061570167,-0.3949301746858824
,-0.35346101726466006,62.74207920255748,-0.2942225538498367,-0.3944778517134779,0.07878528237515213,0.040431270347239576,-0.5482722938209732,-0.18495418709149494,-0.6307731548639276,-0.005392626970218759,0.05144280407126653,-0.8679882157185149,-0.3376638608336901,-0.2205674139799403
,-1.131059715327468,-48.486540561129786,-0.7007742419733272,-3.737642688767008,3.7553823437296376,0.043270886476518056,-0.6921046712583212,-0.17896824503724293,-0.647430041993222,-0.39204315337082346,0.1882251174201847,-0.6872891676000863,-0.016829675282237357,-0.17849958102806535
,-1.3631444891792637,-90.42658607884856,-0.4683942208926628,3.9126334228486805,2.727978082008909,-0.1289003302531231,-0.4116795289531488,-0.28277597334604665,-0.22231701183858169,0.6977136131798609,0.14494046946898495,-0.2706531416017378,-1.3809433291658653,-0.24547220060925534
,-1.1628109926273378,-57.53778481447467,-0.38514894776539094,0.8299206116102105,0.9164015783272278,1.8488963564109997,-1.0652425893630961,-0.718113310978847,0.02779156374861718,0.7348245403548411,0.09358653943189076,0.15675699164766005,-2.228995041100138,-0.07369115530708086
,-0.822804549431174,-6.071317923354426,-0.4337087743433576,-3.333119366999841,-2.920170228618805,0.924742728601831,-0.58580780023738,-1.0295166295811586,-0.9998450218804824,0.3776645782707487,-0.6036264077980973,0.3333769040372837,-1.3376272435105063,0.23579463336659504
,-1.0992031715808737,-15.601592792038304,-0.6112824726310009,-6.422310960283217,-2.136351040309137,-0.886224177629399,0.3901258512629873,-0.8994553609468892,-0.7756428584646666,0.26999983205573436,0.21118036889877995,-0.5616400762440192,-0.5723508243295236,-0.08100093209855529
,-1.2535970471132545,87.61336886560571,-0.46321055707873937,-4.003066620351857,1.9245483664785157,-1.611766491585839,-0.5167711869192785,-0.33866382780951304,-0.46706023139195135,0.3472663648148653,-0.14222763494162494,-0.9693641577268507,-0.4948815846321253,0.1330704575730364
,-0.6527106684772903,78.31291235980683,-0.5742026009208132,-0.8469466226957514,1.6089835548658535,-2.010875395304574,-0.6013751271270069,-0.7444265708947723,-0.9200145003461577,0.5575128797654657,-1.1586645524144077,-0.47575778928858936,-1.38088503191386,0.21190803467817484
,-0.38483619372322625,105.55303250748008,-0.29017686828139894,-2.579012306231637,2.1855587336763973,-1.7396711752459142,-0.039037933413958024,-0.9545073682766185,-1.0446234592856705,0.4523487540214079,-1.3753549177384758,-0.36887044269926816,-1.332020196878412,-0.004051297299612701
,-0.3619170445011825,56.087604789233275,0.1088026027916683,-0.16041404985233687,1.475428155402244,-0.9154764010282069,-0.3546802428083801,-0.557838514321421,-0.4675917025668616,0.2865446200387156,-0.23198731192871486,0.18502502203767282,0.06993525232947839,0.2545969115279356
,-0.6435120213544647,102.16107307679671,-0.11815679183604842,-6.471379465388224,1.8805455834365494,-0.5547355558266455,-0.2431292710595745,-0.5463574500478854,-0.622063025588149,-0.1575133377405604,0.25867081301909206,0.7779502086671305,0.21491439894845024,0.08178491820684741
,-0.427291152151731,86.51175201746248,0.05608013847348878,-4.025962845176553,-0.2701048807471649,0.7692059587773573,0.3650154926812092,-0.4365369824905889,-0.034546605417591955,-0.7910323877020079,-0.6698917305719322,0.17562045239915483,-1.0179014367350832,0.8508071163160567
,-0.2531047359378583,-40.684123799973015,0.30528074822724316,-0.950834266929602,0.8640064227675216,1.201571757664848,-0.538120212010095,0.5034181247616653,0.970292795680194,-0.0010550190200947582,-0.4645806221901529,-0.08842285351850765,-0.4715853789846564,0.4252923175541922
,-0.7281432851224693,-36.14474937317873,0.022348154992440257,-2.6568115908133807,2.3652268573244912,1.1769191530880698,-0.8569828938129245,-0.008208191498557536,0.5587389690246031,0.3843649569360585,0.0027951078501536695,-0.7674325446032304,-0.16421737150523483,-0.061640489342262926
,-1.6218394850374178,-13.707727631128284,-0.08719409660600452,1.7157765460580183,2.4758965677266147,-0.2974257259860645,-0.22162120315171224,-0.36246089298351764,-0.05808177358117864,0.8460619419072242,0.06313339835698491,-0.755189348258988,-0.7129964233837621,-0.10251010459441004
,-0.8580874330797206,34.685179359438266,0.19280581187707294,7.866194484546462,0.2689568101020291,-1.4408420250164586,-0.2806664340049946,-0.25336151629665443,0.17980103194713923,0.7780139870744855,-0.010261145665654472,0.16945492998738,-0.4051113029778688,0.22199161697292702
,0.2225394703281475,15.195437372663514,0.3729685346388177,10.738783728061005,0.242102389009018,0.6096992475743617,-1.3576824282869646,0.02973927655317154,0.07451252549256686,-0.20324661875977793,0.2011131502113104,0.6998495611047557,-0.822314176498869,0.24208348048791903
,0.2235905866787317,81.17930773577946,0.3005248092913386,3.389184635884534,-1.1314945716126281,0.8473543026490991,-1.1620023282747398,-0.2788898535178743,-0.5113144021381169,-0.3855136923598313,-0.23704205713201454,0.014913504972351322,-0.5442812896117694,0.262034625712002
,0.0022405066222656823,82.4030113328738,0.07425810780285567,4.322769364839245,1.2626001488232728,0.14067242481703265,0.36269601538561275,-0.37442956673528505,0.07729898924780661,-0.2454202911725782,-0.18932754372238553,-0.05266023218553376,-0.46953655814616807,0.025098186841584793
,0.1663905381702532,48.47470582044094,0.022456164056198668,2.28872444003636,1.0568925440533867,0.19408615774309607,0.7527941161842789,0.14796747246578693,1.0165061228663772,0.2782142343800928,0.22205699988895436,-0.800162595295915,0.025674833270093456,0.031986855669285885
,-0.21647161721578215,107.53242605829166,0.09733275359308789,-0.4151683514715722,0.8457682111579446,0.33161817152938083,1.2566656034694599,0.3316735091374154,0.7372856484131066,0.5880164291728153,0.3020993256796074,-1.0150308192316422,0.12504749015936792,0.44843983187380054
,-0.40819506879479506,135.38347711842212,-0.052260484109555506,-0.9227651775320849,2.988710154465028,0.014041829243830357,0.10579049802713966,0.5221336494139448,-0.24244263734213428,0.40969063154038193,0.6237668837968511,-0.8605643833301508,0.22147319713876865,0.37703805814835084
,0.2887135424719386,56.443361292769744,0.10595321887253582,1.6550168410620554,5.753495490200633,-1.519921063045262,-0.07364179515483557,0.09511127163726879,-0.4780016143048614,0.4982500372549876,0.27034833513404843,-0.3298154356910366,0.022862545505245937,0.24279898747610856
,1.1515663990927822,49.85160906921107,0.11055548618635526,-1.9797988610614015,4.836517806824623,-1.3895180008904193,-0.642649740850239,0.12340374127521954,-0.06752576891694813,0.3360294522950036,-0.1761004048820085,0.027469505586639183,-0.4180314505520921,0.4632631925315961
,1.0472055067955726,14.142304993115943,-0.23901894970061252,-0.24772051611671295,2.952349182860273,1.5224033469898017,-1.0168355987354325,-0.15454061551511847,-0.3048590721898766,-0.06443418469372539,-0.4453417891279499,-0.6251421318787749,-0.4454973512686028,0.0656921104649952
,-0.6377601589771197,71.13998658670026,0.036799249769409945,2.2124590883593305,2.0281940704267156,0.7092629656873691,0.5429841453191702,0.22757279786030682,-0.13130848420908578,0.7922315537744502,-0.2943128847686265,-0.3484084279437336,-2.3448536623298892,0.5143285984313664
,-0.41950666273643833,27.08648325320377,-0.20908735149202562,2.8912937523788362,3.935126019670696,-0.978769860115144,0.9902105301877336,0.29513415995975595,0.023641136058609947,0.8523541919534383,0.14228962257760183,0.05328513592995965,-3.1463602439208063,0.11940252945672661
,0.037313997641483486,-5.14847759449707,-0.045098302492391856,4.643061792466451,4.282312059866703,-0.4687019135958989,0.6064168735811649,-0.013338426252773141,0.2226761609578981,-0.3250994575389481,0.07198107031053862,0.022361589319087844,-1.9372023113926482,0.3773466959215111
,-0.5244168952081338,-11.547408641093536,0.2089311153592201,1.0961941833817994,1.2610797210747295,0.2340814446481343,-0.5155334195249387,-0.026694355325577877,-0.16085074211890624,-0.30503825248576916,0.2809590293499545,0.690335534646746,-0.1923800720015858,-0.09016463906499436
,-0.8693613299558988,52.130129490805125,0.10592456894244645,1.0034368969081382,2.1530306098789067,1.1255809353866122,-0.5274276516797928,-0.5145796652241952,-0.6178197726781267,0.015210056593172283,0.7500656805346828,0.07605395103516276,-0.00818589851463428,0.012764388627391137
,-1.105967816211785,98.9736604254907,-0.6582280945795127,5.501675582422122,1.9451164281009787,-0.836759396601407,-0.6347934574319388,-0.8437381826406656,-0.5868908499130594,0.0690368565797875,0.24921148618003533,-0.1915018382302077,-0.03693972448622739,-0.8009030145752878
,-0.10518924284143331,1.0455556882554748,-0.5454432469232133,2.4522767703134507,2.0202682518173853,-0.6006412788261827,-0.3990081514291633,-0.16504808024622133,-0.6047151554649037,0.08627550977380642,0.21310960805779053,0.664010378262633,0.19922958944047006,-0.44077587670354146
,0.3669450492451172,42.856420381521275,-0.37180511729419713,2.5342244320733087,1.3627805908910213,-0.7229933307114096,-1.0574123293339757,0.4370614905618175,-0.029024214190211062,0.09288696167187889,0.11503771662370191,-0.37064461168809676,0.31551007831062966,-0.18647417728080948
,-0.5537323777908049,44.54386692481906,0.139754045071685,0.152947199025125,0.1728334739907868,-1.4622994304476293,-0.26111293461712687,0.33780323195306183,0.7305120123283498,-0.33269420301691544,-1.2253714869011347,-0.5902254888076364,-0.9045442446767643,0.045929431698525994
,-0.5083966188666843,155.07949614520282,0.09741314049198335,5.619902549375886,1.037740026845598,0.47947312285863913,-0.9267999578676331,0.1397595793548118,-0.40571676790288996,-0.6620230025562945,-1.6145639047276465,0.058030846026639285,-1.2434219180539736,-0.154930166562724
,-0.18928122527981908,95.69847260938866,0.23484248706256805,6.304322537034782,1.1008561811763256,0.3583545773268296,-0.4871434789458723,0.28728517320202707,-0.3941130525628382,-0.8128373314753117,-0.9685136454086148,0.4427680782987013,-0.6074081513941599,0.1741148405793178
,0.4676147351690725,116.4779719162727,0.37352353801101545,0.5126170698577288,1.7814394286351107,0.7518044236902338,0.6714006271343484,0.4842958783800864,-0.14702854784422006,-0.7982404071606666,-0.4717054101490637,-0.3855242952045629,-0.4926977779321476,0.36893326305747326
,0.18434498953103956,137.20451805938143,-0.18135652432140478,-1.2635971839543436,5.071814820917781,-0.3139718354013423,-0.41572373584040806,-0.4777121491982783,-0.340205456501503,0.29203065459993965,-1.4759571974099417,-0.4166575688019844,-0.24844016490554305,-0.0021043860917248406
,-0.19807694733597533,92.74198265217719,-0.39945007847166364,-2.103178662168545,1.0239118487505867,-0.3191243849944175,0.2554705797164173,-0.28250458394179245,-0.5537619952591694,0.8397742192332461,-0.8079792558610195,-0.17522949732169568,0.19010489708590622,-0.1365625035636882
,-0.9990911198942071,101.0115668368926,-0.28185142865216817,-1.8067392653100989,0.15690880419352057,-1.5463426964661857,0.192649518153123,-0.44170904949327777,-0.8570519367428782,0.1253089409759101,0.05319187336984978,-0.5159709924060383,-0.4175352687281408,-0.6978451605872895
,-0.3355492842159177,151.28461587687028,-0.09145145808547867,-5.11986196082107,-0.03913452835475059,-0.7864671529805629,0.14680756603996264,-0.740597089710814,-0.9952983069350194,-0.01613831513758589,-0.3924453841717123,-0.4219478409705285,-0.36303794398841094,-0.06942823746584112
,0.44750941189023696,56.47543608938184,-0.11919881454570996,-4.455085729844276,1.3485052134535107,1.6895643592841054,-0.5823406905730357,-0.3173806398170641,-0.4190363011373592,-0.5281751815294891,-0.1117457983243571,0.12199902737328967,0.3015113982640955,-0.12690084744610827
,-0.27447691765269555,-0.25631212939290127,0.10394593097882125,-3.2097927475768944,3.6042955923002276,-0.35608801892228725,-0.6338980728174064,0.33076466350198547,0.7146888474300815,0.08550409411106251,0.3336562197324112,-0.7648206666404634,0.34735032236254104,-0.02741602693556696
,0.4136571095768723,88.4717493004159,0.48488777023338414,-2.754340399351835,1.4546944614920705,1.09607447214227,0.4240241227738049,0.4278417340979062,0.6593347459777986,0.20871604226141774,-0.06331531213591608,-0.39995220394360176,0.2829874170925438,0.3888663381788085
,-0.14457252251057076,76.02453104686799,-0.27619317615651334,-3.6518771940718042,0.9852151185495025,2.0179736076255153,1.7754759712372186,-0.36724449434309225,-0.12350131695626224,0.13458928980522789,-0.23946525850951925,0.8168483142973537,-0.3492340939761711,-0.2383380290251659
,-0.5851417829381945,90.12377209752613,-0.16839609472289738,-2.6107926432247317,3.197076398743836,0.23147012254642416,0.1211865101554318,-0.6825582430122463,-0.7143539659829533,0.3454743950999965,0.10161743512407606,0.12445851080622836,-0.22304756888037378,-0.583192745936926
,-0.3250758256271445,143.05437882411707,0.008598934992760474,-6.637806953278692,3.314387497891799,-0.49183056620176874,-1.1078166238790603,-0.48226373610986006,-0.2237800679501798,0.7407681895054963,-0.1623418656702631,-0.7896080461250551,0.01039711771675956,-0.634716403081937
,-0.4042816146709387,98.04900870644836,-0.17394682681854529,-3.1639849929568147,3.48935335606106,-0.6228811140161679,-1.165850000297834,-0.5399300917114799,-0.7226976469593092,0.07072053791692273,-0.2076206176578333,-0.15753725352165174,-0.5485214025880918,-0.25424957179897895
,-0.234075792143173,86.19217048896593,0.1287074065445069,5.870198290027155,2.1795009808662207,-0.021323814732428763,-0.5230041717494595,-0.1174733505427041,-0.40933249424075707,-0.8175253923285476,0.1211701405958519,-0.3749924331810281,0.0683710443937486,0.34367037496844227
,-1.6172108602142363,7.820469464568281,-0.1684286605156546,1.567430441668516,0.3991514104031621,0.3037968988137059,-0.21794832192084573,0.07268090872490993,-0.2781008534933389,0.0007718638763278413,-0.31820588880455397,-0.780082377313136,0.10342449637229592,0.43583158862469085
,-1.2197625899183029,126.16341718044517,-0.4832963172495592,-2.9119541513124036,-2.9896233513696915,-2.1293682145510524,-0.18245701465018024,0.17019644817513097,-0.6109063512051831,0.5885922958098863,-1.1777566481529473,0.13401523679332306,-0.695902715798928,0.10456730967676033
,-0.4415148865640602,105.69249326325044,-0.26902163100885207,1.0789304896649765,-1.6914712434902475,-1.4216551572776102,-0.9939394292574326,-0.47086916526553185,-0.6767235977583639,0.39289514319639535,-0.5073176288945098,-0.22364035463650206,-0.6246975949498574,-0.46730792804489124
,-0.20384742567092087,72.34426252776568,-0.08182653326286335,4.919224377233362,0.36606025337374126,-0.24528259240093012,-0.819725572183918,-0.47421738079452846,-0.7009955444634944,0.27865900461399096,0.599530732187285,-0.35113746722144035,-0.23388174178877483,-0.296343810293881
,-0.31324708264511714,-16.671198545374416,-0.37531151492233744,-0.0016590860649142555,1.381776737138138,0.08374132648623075,-1.0181823936573138,-0.7209423927849764,-0.9677394647832475,0.16142280906154785,0.15192025979339607,-0.16979446254147199,0.16206001108300447,0.0986647786560503
,-0.05153718421537951,22.68090337343611,-0.0718144232446201,1.0288095592957271,2.174449853071726,-0.6841685962324315,-1.0995792592251117,-0.6339430784978859,-0.5676630037455296,0.18281846964935078,0.4323006299067057,-0.6073508596905113,0.45410932045685265,0.499573692414733
,0.1845358919918801,35.914579710635934,0.17388180889127114,-2.0147244992711024,0.5904885410387403,1.0912770364717537,-0.6143898587653576,-0.30645457076369165,-0.08099480087997858,-0.17504066034998642,0.9301607328049649,-0.607526612038219,0.37303198124920534,0.49978657832423473
,0.5814726532769521,28.67661873021044,0.14532532617550745,3.1312534783893895,0.4740744693101786,0.7075159270114292,-0.24054831040506985,0.31194352682246124,0.4271665675774167,-0.0626480661038717,0.7706880597847484,-0.0320853106521192,0.3541160493692322,0.4157490586112818
,1.0218961473420456,60.24305522746201,0.4730573711256886,8.22658572781818,3.213408280855755,0.6237998556430688,-1.0878832951938575,-0.0042683454578657624,0.15751951144186013,0.09177346008778764,-0.19308272593831752,0.3689972966408533,0.3340053096258114,-0.03271883583269772
,0.3267436579178201,23.72476280750512,1.0371677573985638,0.044884075368167464,2.718070803225583,1.1356711052839281,-1.366123121107847,0.28890089660834734,-0.44059405796152956,0.16586470647700322,-0.3334217562573846,-0.2735592935302151,-0.8129259080501288,-0.17906879730767902
,0.37458023716685607,66.35504847846086,0.8966827298042127,-0.12498338538356997,0.32473902768031504,-0.20610946887412854,-0.03700369974262203,0.19309902085389774,-0.8398174769187924,0.3402372886461766,-0.09897950522112695,-0.0910569059515869,-0.021116383234453345,0.34143379553416453
,-0.5018546874159185,55.72745241398884,0.5018155310730505,0.83429764555432,0.8369077651342683,-0.05892496715958598,0.6554180568980471,-0.20001180759137083,-0.9966306999305257,0.4062196113649592,0.5220959744590253,0.2162611842660309,0.7125594375455392,0.291669013337096
,-0.36530484341711056,27.933059283597828,0.1696458285931944,6.019629816096301,2.3560501029986765,-1.334566899894882,-0.2751192645169963,-0.022245821861249432,-0.7132067380376044,0.7524787885850134,0.9014178457542484,0.5137169987980055,-0.24421263003747803,0.29059227031024837
,0.6944355343054732,27.033671771604794,-0.2948258563739212,10.653174856428775,2.8027663634659423,-1.4309962018052675,-0.3935111174489805,-0.32233857838632873,0.1888399523346376,0.6577960627964222,0.37310251084667106,-0.07254517350169937,-0.5150915891223686,0.22175327121824082
,-0.21394791211068265,-17.731023188714502,-0.38158870742771805,4.600184265830806,2.0961811350490267,-1.4553280022664024,0.675700490007347,0.027887553850698042,0.9456611286757626,0.08123126328834845,0.24138305739082175,-0.38471498580607405,0.11690883152089275,0.643274464664855
,-0.49873747767375354,-85.46892959293494,-0.4300782570579312,1.0402905150074626,2.381066700832851,1.8170441005935043,-0.5068723883209438,0.09875954475477094,-1.023959127280082,0.15031302076429695,-0.22998224028965997,-0.6780406489956665,0.1941655002607036,-0.07787776619973785
,-0.01132336705099405,-33.195638198718754,-0.05947306724672735,5.562833605646408,1.8167912458142477,1.2649512513091379,-0.5507558901257348,-0.34420868791213804,-1.4287832946290868,-0.25366591280559253,0.10169171073869143,-0.6483020676117975,0.11520982139143861,0.17940030615372274
,0.2106874533270081,97.30657400856624,-0.42644284293081947,2.218787356275708,2.134236325348974,-0.8652258629436548,0.463512674027135,0.1289256882092925,-0.12190348886044743,-0.17475171246745916,0.4730422609061224,-0.6607006739637827,0.0024694412571522398,0.19818833353397267
,-0.22059585271934157,95.1180495494431,-0.5695882569613643,-1.0596565332726544,1.7747589093635157,-1.5515832598973276,1.4571491014654734,0.28332287473161155,-0.01703258812778996,-0.10024550804822567,-0.6763658508609012,-0.15464910722572459,-1.0203996090182843,0.17055411052238226
,-1.0646157688873286,65.36176665537353,-0.14378523926125017,0.38308545272802896,-1.3955640743317637,-1.1050592190018396,1.2775123051769128,0.010885220270178264,-1.0715784236516668,-0.2604479842191828,-0.4303511900221499,-0.05463173697517378,-0.9760086888135006,-0.052660340369310915
,-0.28779703841256227,34.107358097858736,0.19043895129965063,-2.734828522946184,-1.4066018904618043,-0.0664607796678117,-0.26875486174514196,-0.13811790332933557,-0.8660279867163251,0.39580586770972437,-0.8278808809511327,-0.4248695818241063,0.15824055369608922,-0.004196246079358417
,-0.6918035949506983,49.74944388266612,0.2308267812819891,-27.99502428353815,-2.053500559711121,2.2046271595159026,-0.4021323287242448,-0.12083364078828739,0.454626455679169,0.2075501231560794,-2.781877176845373,-0.329168093712812,0.11263082868841949,-0.37448484231950624
,-0.5783899737708097,58.80532762309775,-0.33751714766661156,-31.4090876695539,0.16510609443512966,0.3316422768940077,-0.34514249894976873,-0.13855747434258137,0.7629995009837062,0.21531363737991252,-2.402524927562967,-0.3610537943586473,0.3669863058568946,-0.544619865886641
,0.11729964882629636,-41.35928118814526,-0.4636333475221642,-21.423827343287726,2.704706115489982,1.053752690133631,0.08669958901308134,-0.1997455022697869,-0.05749812012519347,0.7769409972505033,0.02938213191996335,-0.2143825380418768,0.08367054692946004,-0.270632729410378
,0.40449149210511753,-46.09962257988254,-0.21316025369946176,-19.652866912816314,0.43349378339410305,1.6631175553327773,0.18927688560126396,-0.06431045585131166,0.02015240409226882,0.16162882188138658,0.11586288414769606,0.14507170138883962,0.369168260686247,0.04401943605416145
,0.4848120252047094,2.4444983988347615,-0.4418804666009807,-7.6460519710760515,-0.8423767768725688,-0.6958913615553247,-0.5631084344091032,0.1828173198849244,0.021073920804795133,-0.33870169958512203,-0.17516486195715705,-0.3618352829563897,0.9483992490183158,-0.17236115053864662
,-0.3033235877617505,72.83298557529987,-0.1857519988974729,-18.657481668846557,-0.11571564899704077,0.014175471234928474,-0.8360217253501541,0.2757942155790959,-0.16820614912202553,0.05865440347675036,-0.3876750311998692,-0.7523898248887556,0.00018023995774497006,-0.2164762183498836
,-0.0333861921054734,62.88397495880956,0.14197402077552335,-16.085315320030602,-1.650048060002578,0.3642674916766466,-0.7346285554577253,0.28427473055353647,0.32442879439866656,-0.1806482970442052,-0.3280750284148302,-0.47441005030664407,-0.15829584179147857,0.04603680561125261
,-0.4371061927216169,49.6872221674599,-0.011613661688575838,-5.433087754840416,3.5203893547466607,-1.0509905689930563,0.0958134832380844,-0.17976633814166512,0.9722170676268928,-0.4900454591814528,0.5471055934196491,-0.0074969602650053115,-0.20943378194809587,0.36577353455307116
,0.22628106802794848,-13.805553253988487,-0.04558476605332324,-5.788578984661781,3.572080534058222,-0.8667137720859931,-0.24960598775462822,-0.07631937373273232,0.020127875644838027,-0.3158834941054813,-0.27730365953502617,-0.42103720096041314,-0.39226427153049465,0.18922774473270146
,0.5429737040395257,12.815766333943724,0.03784855272114732,-7.527506430376977,-0.16488074238298372,-2.9033870196102236,-0.1776434966560005,-0.18850325228320527,-0.5424255154070505,-0.3038089498859632,-0.1727603687468045,-0.8529655524067739,-0.9022533076181773,0.16930246608714286
,0.5810866081525422,62.52014731063358,0.22093415961576857,-3.1862544561322688,-0.47102490646969286,-0.8647527579875199,-1.0466914526180602,-0.22766535093020163,-0.08703235767740684,-0.06833265070633486,0.15775225235042406,-0.8188233505178597,-0.25462349940289475,0.3060858534765158
,-0.027546438212758182,106.80975291122255,-0.22313552107907475,-1.6046283086134432,-0.5598264684450391,-0.5452181436654177,-1.1644442424288408,-0.47920806054429177,-0.36086295509721034,-0.1261250117002741,0.036244241295053055,-0.7000450262212186,0.16360174198106278,0.12644278503978842
,-0.25558763507491156,65.13360395219678,-0.12536855077171702,4.2522402745962244,0.5277223033436508,-1.590149627167762,-0.2586679082115467,-0.2804392794162355,0.388239521330183,-0.13075980453053587,0.43427132995508316,-0.3109436378772578,0.36557699007714245,-0.022560010991854895
,0.016579502971956157,-5.100885090346974,0.20652581633224792,4.947914179213571,3.148295979686551,-0.6823708236815459,0.9426523282556951,0.31196107564189174,0.927040420910593,0.7235114197985862,0.9769696597105537,0.5219721407979812,0.486293454839643,-0.14813409622144094
,-0.20888796865945042,-45.86789179951737,-0.047955486890824614,2.7168173477608657,0.47988510908625653,-0.2101004853693431,0.6635300534661487,0.0780536964025777,0.7034829037676575,0.6117797426683425,0.8256024352809804,0.7982912747837049,0.012541125447121465,0.31310210552605344
,-0.7774386655216342,86.48485199745234,-0.22388031930626576,2.2554436952951638,0.7978692385274728,0.1858323893697511,-0.6834411160192391,-0.19599134140143962,0.20294911052315168,0.2505925866075407,0.8238279999107653,-0.44418198330787356,-0.5294104776555467,0.1669413559747938
,-1.0936876208227595,73.72358677359009,0.049579562391868656,4.403547233508944,3.245116635845199,-0.8381854798784603,-0.34253371232565133,-0.23374143779878448,-0.014011445761787764,-0.1506549002694617,0.8518645813553868,-0.46537043622315727,0.20568096930669785,0.0817710986730753
,-0.46024734071786944,-11.662568325112627,-0.22207582014699273,2.5888589053945057,2.34550660571656,-0.4668931493625378,0.1371394640436927,-0.21100215605635383,-0.2033775210606619,-0.9424155059357562,0.3570095623262048,-0.14438922098877024,-0.31056056797945464,0.13933742651439968
,0.09218313244616266,76.16605201335108,-0.2740134331425098,-2.2891382572352197,1.2122802707025155,1.4164975350380538,-0.39813658536643826,0.0654618197774437,-0.19429810372160722,0.0776582274900771,0.27903249525607604,-0.3061068169832294,-0.3610846304770338,0.043908756940925664
,0.3315310671443398,52.54637588095709,0.2648927682061936,-2.909778738052469,-0.026454249790208887,0.9146531998691599,-1.0417301323314332,0.8149850493098437,0.1943160542302572,-0.028281368629786793,0.08322242627192963,-0.36811170216208716,0.5161044351684745,0.3096896177087956
,-0.8907301069158827,15.347336339728031,0.11311396834605408,0.8226779505276123,-0.9463298470670061,1.5036741907561013,0.1778412077443513,0.482929256448868,0.8854089830462782,-0.29573592946350596,-0.3189190103189979,0.63834419984505,0.19701550421957262,-0.24881844310313597
,-0.36627049374012277,42.296029093913894,-0.2521034854598904,7.760817450020083,-0.6071161781313474,1.5666757166691887,-0.5834079969093198,-0.29412101698250825,1.1044574145119759,0.594165807377221,-0.2870241784181243,0.23710055256391227,-0.40707916000512717,-0.2211722147080967
,-0.5580755404863716,52.56612089942817,-0.21461763932758085,3.586266196241017,-2.038583606932663,0.2363794694729307,-0.8496363438402332,-0.48456306802355875,0.055363268295536935,0.6294104681585255,-0.6744906593751185,-0.6450748073770798,-0.25151727576643435,0.1095156108198144
,-0.1404125699944699,87.54741981060056,-0.16694868044099617,0.7265069596641173,-2.305652956954345,1.6039633179354507,-0.6168489600032604,-0.025387901843296635,0.49735812526929263,0.40586068397206676,-1.1368941881809418,-0.3246052128805787,0.32399166677383995,0.6786879873378643
,0.7714814865080242,78.16981956335262,0.13242463380985758,2.8016336438583602,0.7950990323908879,0.8203226775436675,-0.6685042425285724,0.2212926727232213,0.411435198394071,-0.0842383078152253,-0.3010125015173082,-0.41212750032663026,0.05376362146317662,0.13264758366411586
D1,-0.6054361091263901,81.30919395830607,0.1975864371924591,2.8082413278046636,4.22356928083114,0.4663203046723257,-0.07906149749147912,-0.060741999409941495,0.4081060111991277,-1.0974252437894692,0.3491951442228714,-0.04518461772311341,-0.3537976129766188,-0.22135164246278277
,-1.1402160894113824,138.30610667903753,-0.0814809954930441,4.9677209368140245,4.235280673273479,-0.20346187192305662,-0.1405773928530602,0.04108604425932455,-0.28890784389918156,-0.3591736875572253,0.5270714508506702,-0.45613715644406366,-0.3325359191053771,0.29756012859770614
,-0.439652441263711,161.56400430706438,0.023926366433993176,0.36895096991429016,1.4151915307262593,-1.0589791905852053,-0.368749499718813,0.03864275231270742,-1.0442347647214034,0.40075593661428177,-0.31646052800544233,-0.3758505634094511,-0.4058643246100486,0.7069351174673673
,-1.2369432106992655,92.9723039215431,-0.15860693235903273,-0.5207983036389038,0.11468636463411966,-1.8193599141729797,-0.9596873287555806,-0.8224701600709083,-1.8264471193963832,0.545148414425864,-0.2072547802104288,-0.6246635882750196,-0.7541361093252233,0.33997481748321007
,-0.7411424504548858,79.42930965932679,-0.46839829548190315,0.7973175917853498,-0.21844787024253173,0.04658749828614357,-1.7656789362845868,-0.5454228890403297,-1.188018075988039,0.5529379445881775,0.0968957096005398,-0.20648769373940648,-0.12777829023972379,0.07967803506289277
,-0.4284075570410952,32.696508873060836,-0.28555271813926425,9.120362552811693,0.9804623921854706,-1.048379164016363,-1.4221440214288925,-0.36159533186914294,-0.8881349252219507,-0.04872294981495993,-0.6157360493740724,0.3004930390745414,-0.3688225405089971,0.12069264429883383
,-0.9490461010749458,-52.16767854912103,-0.13894069818882743,3.536993250072396,0.9990424621518391,-1.1761755157430434,-1.3773578863708864,-0.7623420852379532,-1.1054830751331097,0.6235555831265739,-1.1611404910881842,0.3078385197850044,-0.7433118467540393,-0.14856405661795632
,-0.9008798275805084,-70.2926130918575,-0.27162396977535175,-2.2078024811471506,0.5360421533246651,-0.7648601823352427,-0.5081240526308272,-0.3720643315449499,-0.8067600192640796,0.45893672840729005,-0.3440534981736671,-0.8442216646268899,-0.03862253451744764,0.13215110351814813
,-0.7766632484191152,-3.213711514561149,-0.4183242254214716,-2.2054952208912124,-0.833890598430336,-1.1950908577553538,0.006185912208518305,-0.38500100945099053,-0.7140545034529655,-0.20404638524475402,-0.17763775596941983,-1.0380772657484776,0.2155347391481618,-0.04626705516740982
,-0.11288894953197724,-63.356032800819285,-0.2218832401371484,-2.7491923087532433,-0.05740769528725042,-2.0182678604533804,-0.08893328438906459,-0.2638882638483457,-0.33697976923440853,0.1827491440140254,-0.11404378003533558,-0.550656058080624,0.5162574108129736,0.020121053810744714
,-0.13192293287473458,115.11423398299138,-0.014282776237228016,-3.710182692158081,-0.19799873748618319,-1.619336818839964,-0.9485180789822151,-0.29065972884719876,0.5683755339025792,0.739378829881607,-0.5423341893782024,-0.4709640209323714,-0.21605676354644174,-0.29838521620406794
,-0.2018133369107189,142.9038638435892,0.1373093466649636,1.4064923363690423,1.2615790478459543,-1.9432406224662924,-0.9729407233483317,-1.016643376992168,0.5075427709936233,0.8373923249019776,-0.6023776196286463,-0.8005150629157061,-0.513986296126479,-0.8123017022585469
,-0.30420711118358607,119.18771784841822,-0.29935292939457897,0.3533910861203336,0.20871473310694597,-1.8094686596588316,-0.8509657544313043,-1.25346404697413,-0.4687551080030259,0.5187404596104312,-0.22707761309830082,-1.0458056280912655,-0.1853669645759282,-0.8845037699750853
,-0.4484882427456645,80.25883806478762,-0.71584259755721,-1.207536122128609,-3.559071278647281,0.5706197621408396,-1.003710111758381,-1.2592066931274675,-0.9331218836167111,-0.5544916194097836,-0.04296719299391917,0.2938892415660489,0.35897941147617685,-2.5659284883799014
,-0.7647796256892541,1.797597191147077,-0.7710297610842497,6.4979485234960785,-2.624076878977659,-0.888154735196907,-0.4630782036196709,-0.5852958356653823,-0.3134370476860582,0.4394304077480871,0.5068352209672131,0.5944006318486957,0.3716257101919962,-2.7490867910850225
,-1.3755477132587002,-7.786871390107749,-0.7634916465261917,9.738849927309607,0.9350295154995788,-1.4800127565762622,0.15094920230174222,0.3835657506893776,0.3708369200101158,0.27796555131608675,0.6636502159227979,0.6994028741908725,0.09593275916993903,-0.8882161503590944
,-0.5766130168644926,31.693587655760357,-0.6314490959757885,2.0966827547184077,2.4271631883737737,0.21762983116978807,-0.3738531844103114,0.10474191333665787,0.10120483684831058,-0.5214444537727455,-0.10193667470689405,-0.052359738295802115,0.3872127918070645,-0.46946177084915175
,-0.5732434412187288,30.234831438660766,-0.24253640354586037,-0.11791479938697481,1.1338370667033926,-0.6107489554213951,-0.9001152302548456,-0.24937411283736635,-1.1309431253383186,0.06133488723708818,-0.7633359477535587,-0.012685192643118222,-0.3312702693043602,-0.4107638505191679
,-0.7216043565582156,-14.386862994886087,-0.23856664037611122,-2.840156775688862,0.5713928929304402,-1.2073375864819107,-0.3696064505415498,-0.3459426524956559,-2.538072385604324,-0.11691382819624338,-0.816484262585522,0.9297144352522027,-0.8087896217915532,-0.11508115974956357
,-0.38822847771185814,-11.617468494742726,-0.16609983578369553,-3.9877263573854624,1.718399011391975,-1.965616777462564,-0.717391262045963,-0.8581450148778366,-3.089357772557811,0.40278284342422793,-0.25444697006050854,0.8654892427411155,-0.3408158481724193,-0.04197046666645925
,-0.681408971591285,-26.455860052638258,-0.3615607185287816,-4.905093587016081,2.037995009699519,-1.7369074566818756,-0.9158144156290197,-0.7324230093256774,-1.522900956793531,0.7251857961257432,-1.0531182121519895,0.3532984604368382,-0.1570992028460501,-0.3630346981942131
,-0.9448493660550843,-128.96404190298503,-0.4685437763641118,-0.40863151300413236,1.5127736395091675,-0.9912767286999815,-0.8126216474193252,-0.6027019174129181,0.00771387143598262,0.292713769862272,-2.047114056215627,-0.12261811452236183,-0.2640421095382369,-0.47466824894772836
,-0.14643964451131453,-107.6687128825498,0.10423298666021205,-2.298781725957513,2.3962393789726146,1.1525432200075598,0.20279608739012633,-0.20718372734730484,0.8012133410255673,0.4752933027652767,-1.280105128189743,-0.6012822236486385,0.487062618494322,0.18957317328881254
,-0.6352528236653453,12.412846902351276,0.27552098505434586,0.09995174455904472,2.99558110509181,1.203155626039156,-0.1628969141615862,-0.5522827336237298,0.010050179869070554,0.21109532152636784,0.027094354759228938,-0.4698729474884715,-0.4113590306563336,0.1134743600647494
,-1.2180255833140416,110.6037920670684,0.0016633030807971481,1.3378229412447449,3.5227760003428688,0.46118373431015836,-1.087450077203417,-0.6555688305632714,0.1046267259078448,0.13032997593128168,-0.23975405414422285,-0.8190864145967972,-1.4815837905875722,-0.35665291149216005
,-0.9509093257441944,54.7310112930065,-0.3570168127003459,0.8608138683741372,1.4678797497633413,0.17068054692077494,-0.3021195842459627,-0.8399096161777745,-0.23184714372041704,-0.46502160462790115,-0.002007331987679632,-0.6613738037021764,-0.9427315649354379,-0.3989263060244401
,-0.8516504558951391,52.345568925450856,-0.25479877372011955,-0.26836521698877774,1.416140500524065,1.6441178071490368,-0.15083183188607238,-0.7858380224832995,-0.8251568475018745,-0.6429627904387956,-0.49492636007253155,-0.30002375063013664,-0.12135960258407108,-0.23152835294433394
,-0.7282541307565665,1.724503280352777,-0.1803329297848929,-1.5825268334326341,2.357706301617136,1.6223876584902168,-0.7790426644926777,-0.8721077556711925,-0.9421036740174457,-0.018389574977091847,0.0942139938610326,0.18264479248178467,-0.3226764852490877,-0.05755740901060809
,-0.5046792918126196,-62.72425747373561,-0.24096774666804677,2.103025245863366,2.7482635561721946,-0.6331496662027678,-0.3727154107574554,-0.12840244464547712,0.33287677387237763,0.5676167520941843,0.08821213939629384,-0.4708481525546193,-0.9013261882641492,-0.30377162531246993
,-0.8833125757301481,-1.095404184777928,0.34766051329785047,-2.0857388839368767,5.246104723878151,-0.25903048451847066,-0.6355126959458528,-0.1363845413535534,-0.11324168590730779,0.5225575499233384,-0.09859850432681397,-0.7441618840972833,-0.2607368328342468,-0.6395280738771644
,-1.240594075380782,-8.350300090745733,0.0754341541844877,-6.020859451241118,2.8608245007394144,-0.5116887773115196,-0.43400469350915327,-0.007179103592246996,-0.44178513509707273,-0.06602530894975714,0.3697111523259113,-0.759076252953772,-0.04829969741517439,-0.5578907805120086
,-0.2489483432388216,-7.198457628134203,0.09562344158266955,-2.2581364796932664,0.007574285572193741,-0.2685003969803203,-0.13305119382360636,0.26690784431961573,0.2610474222999235,-0.5587167678424033,0.05284518269119761,-0.09225620701070264,-0.24495911732769382,0.06410560406064475
,0.4326690515043161,39.63265952892552,0.04795107774844916,-4.1543630286997795,-1.3525927432370735,-0.4371405402876096,-0.44235596782027703,0.10593007949570096,0.28796182214017185,0.06034103430188172,0.07764299646208588,0.31863620919611924,-0.4468149553657146,-0.43574351895511554
,0.8801656044043376,127.26274864903957,0.18272659588731321,-0.7114283533218355,-0.019533809942270604,-0.035202550189807044,0.08853833417850712,0.05228597375834168,0.7492923916314967,-0.06239182911632918,-0.29750357492659296,0.34305428540417454,-0.7867781716946445,-0.07560669498495934
,0.4251068164952701,133.73890064279385,0.11653322889939306,-2.5798332920317018,-0.9757709089139439,-0.15054974152336614,-0.18428703674692493,0.11884408103895362,0.9321532447398906,0.04021876511041894,-0.12562713789371002,-0.03748237572939542,-1.4557536637254473,0.46140445610926234
,0.3524445565265565,48.207119663614776,-0.017511644596942696,1.824597481314531,2.658518177564863,0.9603285811362451,-1.0341658259365325,0.27284515550320104,0.23756115493925084,-0.42465945767555363,-0.2234615419053326,-0.563044762301062,-0.8636785288003826,0.034558893961398746
,-0.5927704367000047,26.210991282989745,-0.22573833837190027,7.087114648601511,4.7959676193141565,2.4674204231121317,-0.8703627653933528,-0.25509371636948547,0.3482319467723121,-0.41704518696547227,0.5670592620954015,-0.7641285503396574,-0.4115798930013163,-0.10375348477862104
,-1.735084225271602,-1.9148687212022293,-0.41514193028564733,1.3587663516257822,1.4308018256747408,-0.17131217643711188,-0.5126902492948028,-0.6675592832871124,0.01599457879614013,0.07275520633758047,-0.49157292031952254,-0.5878500080810001,-0.899339896600564,-0.09057482205818092
,-1.1863863970201973,24.542008537506685,-0.37469726816054066,3.991638598633351,-0.5118271472027726,0.44724056406598095,-0.8734495234377572,-0.40793743730194576,0.2857938440049322,-0.30749313811747564,0.020702930040242463,-0.7608165121209798,-0.46016372787535686,-0.30020365133990756
,-0.32793370806352823,-24.130602412553316,-0.18909679996979867,0.8543410862047305,-1.86042226788667,-0.9087735659158745,-0.6360089732191376,0.19109849754349878,1.3648109179749381,-0.7282277436301616,0.7632399193197977,-0.9545567601284844,0.28680571851845227,-0.04214485418869066
,-0.7335598015429177,-11.59466878959052,-0.1043137173639302,-0.12532715299415803,0.11728922703194007,-0.2729831041460688,0.17855562855987253,-0.18476382998933033,0.6985967328333204,-0.22239379254360608,-0.021171459954775002,0.02293434100423215,-0.8309268321667392,0.39971380202034984
,-0.7997902080830546,36.58149637881429,0.2553164955373775,-1.9206317613757455,2.029413239243388,1.1459917843180796,1.0584318274069913,-0.2027770754346863,0.17945553714642,-0.4419704308954216,0.28532725964623823,0.35305290413257023,-1.0378659980604747,0.23969764454482922
,-0.9907904698414588,-19.65462299426429,0.39883294457749896,3.0895952014006527,0.3696328062712987,2.328693230467203,0.8533983725352897,0.04531513993944198,0.06201250228863296,-0.8624440515150892,0.4768862929647395,0.10407407431687958,0.029279655119578255,-0.10512338776634311
,-1.1183734779607204,-24.740527220010804,0.5305379198301449,1.269304641785308,-0.3325663209976941,3.2807074941848193,2.407346408988648,0.012917859686488294,0.38267139915312676,-0.2832709734583755,-0.4202129789629367,-0.7649663120829648,0.15586909909273214,-0.22252673096481246
,-0.603723960635202,36.5670908538294,0.5955244012819562,-1.80346203564578,-0.21278613018823697,1.5238375382977205,0.9418460613381192,-0.3626053570884329,0.1539768530058314,0.03593343595089948,-0.4632378183128118,-0.7647471282176512,0.2322934436146658,-0.21485828293731818
,0.5134749129244084,61.06682965427551,-0.006055030888407076,-2.8595550688426394,-0.25790672739163145,0.6259502145470186,0.27696072365741664,-0.18282145493174715,0.05796178041209701,-0.1474533712805523,0.17864854621027826,0.16518206264833726,-0.2761986517597732,0.12438097807146055
,-0.5616105764630162,-4.5194787070635964,-0.3551546030301243,1.4540305180280166,0.38128035652781866,-0.33045348952761017,-0.5952399516711976,0.015434705448773359,0.061655067661343155,-0.28694410708699,0.601341208779408,-0.1385316601790936,-0.38984959894682253,0.15708904320640357
,-1.1647349683136916,14.91942746592311,-0.5484170774678683,8.70081984089976,0.207099162022079,1.1045726980846096,-0.44051383503566555,-0.0060779060396235944,-0.1548468143539968,-0.29200658904066,0.6302646977159352,0.11564593361154406,0.21646528317258293,-0.30612567373190097
,-0.021252186533716327,57.62729043466002,-0.17832129521437995,3.768808276775372,-1.0551964195621286,0.39116389646427424,-0.7504501789376269,-0.09377508175234062,0.5453408544748192,0.043438764938180253,0.40651316069593285,0.34441470404223445,0.8697833658838564,-0.20648433525231852
,1.21280640919865,135.23516169546406,-0.1317089525730015,1.0699932296728671,1.3482375537854576,-0.0902251669505323,-1.0209734687986034,-0.7459688587748257,-0.21337297961176013,-0.0837799950401768,0.6808458613328214,0.30968521113486047,0.6639822414925113,0.3767705701991711
,0.7331733911896591,129.2916103696542,-0.20595673959530464,1.7744756887806172,3.5891060662565364,-0.38785860503976094,-0.3239935810135324,-0.4852354023157451,-0.2948807213785151,-0.4718303631595649,0.8915429003507688,0.4250328398445889,0.624516925365911,0.89107916934993
,1.0531422710867737,163.55974091724076,0.2920268069495885,3.961895891856479,0.5451866831771451,0.6672177623938644,-0.031652764645941266,-0.17866458770113652,0.04895807638551719,-0.10690465401912438,0.6991352388563825,0.2760091007962916,-0.5609211962092935,0.2509726006739371
,-0.044175984505156835,115.02919179539562,0.16800927180288813,2.629501401170251,-0.20495446164118986,-0.3828351526584307,-0.3346739922447812,-0.8515508866799195,-0.5109845563041364,0.34251547340160443,0.17023722246027198,0.17567508314517083,-0.7364627011456433,-0.46184511883679
,-0.2731389222434332,34.34961501813657,-0.3372250967595058,0.09655289470731825,1.8398253920998016,0.23633591113783048,-0.7741045437822953,-0.4608976331965688,-0.15171683734440677,0.2008835685453822,-0.0036613942645223026,-0.49664634767004195,-0.5413942413180578,-0.03238525867039516
,0.10227394388760054,-88.88687992283937,-0.6485265143839251,-4.026287668720739,-2.6545413050215414,-0.041329224569270386,-1.4283504092137183,-0.6838501401037577,-1.5673175927165537,0.07378488930829827,-0.3866858876687976,0.019015199845064824,-0.7379730188979284,0.5068015748073321
,-0.5575430378929515,31.097296634858854,-0.3013982629014587,-5.38686741419293,-1.97570892597201,-1.6343427467992124,-0.5352756298744752,-0.6528629972056986,-1.4837104077135634,0.6315402738856378,0.21496315639492256,-0.44679529237872245,-0.7842719425788567,0.3850158646266977
,-0.2230087984030653,88.21306914217399,0.6976498482774837,-3.336145644641929,4.039551845925136,-1.2554158944142,0.4208316977060093,0.2963405546470729,0.27600673083517985,0.3420061050587712,0.38422995586671715,-0.2672819642078674,-0.7540687659703147,0.5070874463397759
,0.7441196717144039,39.237721107277025,0.063127468493453,1.4745650063713047,1.920107882674491,-0.6485758216808754,-0.781163950217995,-0.11778501153786688,0.5870433683568204,0.3379628812558608,-0.13506334235404482,-0.10300344546877552,-1.0768323803598616,0.6806494062069666
,0.5231799007347789,26.784075000512942,-0.25890310782098347,6.284981566653236,1.4080396479308646,-0.5760738107457943,-0.17899069919406016,-0.4326323991561515,0.05561912153930263,0.5852261590468228,0.03908056912248683,0.24998857442814734,-0.4202717360921011,0.7429981446393963
,-0.1732157731671927,76.76411566802525,-0.17873022102281166,7.109014198662799,-0.8887262084264419,-1.3486532082282778,1.1932021778004571,-0.38983155958943577,0.12402096028067294,0.6511201466025248,0.2730949752486866,0.27218159114926826,-0.3687069181048252,0.25734793577318044
,-0.6458247432647378,101.77948381926261,-0.31049390548013667,-1.8304398387687477,-1.4079944376784366,-0.9346231199760431,0.9311596542934082,-0.26929128807134267,-0.24994801421671722,0.3321737747689349,0.6259259122120374,0.39000507961200725,-0.2893667056310701,-0.03978770029963926
,-0.7758073932433439,70.90018677157423,-0.14056168374202996,-4.615984931058981,1.4192229574806898,-0.9154420938661793,0.30052699003587136,-0.04814994493315617,-0.842768954872578,0.5071561754748884,0.41014622386234917,0.24262117173445819,-0.0951912244576187,-0.331166547579001
,-0.860150036646905,72.44496112842218,-0.36558103156516336,-2.564359856771783,-1.1841412250162842,-0.7902432170929242,-0.7150733964785746,-0.8524427147649951,-0.9788736430408401,0.5243299395750227,0.5518036604857626,0.2834415847688125,-0.5685474057414284,-0.7744543845685286
,-0.9714568016668327,25.523340959320564,-0.38129296554942527,-0.8907718178678907,-1.8466211580138472,-0.8344007730453553,-0.9128431220769265,-0.6949011638328105,-0.43271145164300506,0.3425875734133846,-2.2015414528191917,-0.21693353212562577,-1.0098267314062188,-0.8749235500883189
,-0.978435194517177,84.42615708280684,0.026398146514776365,-3.0222052418527006,2.168970598865084,-0.027718923862169922,0.2773190440102962,-0.41701927078079015,-0.007353353327487597,0.2644383449061136,-2.4764062918536047,-0.6065604332992878,-1.0583793055809771,-0.34674078561127336
,-0.9740455961865986,112.71056761437393,-0.09741539566685242,-5.93484092646859,1.4428520987580067,0.1363923339969683,0.5921826090469636,-0.1895461157293094,0.9897292050600813,0.29990033362074053,-0.2734007400338363,-0.8391644621813797,-0.8517776806022944,1.06818175217639
,-0.5834699546906598,62.30901524329592,-0.7123130665473969,-2.4679898979046726,1.4022074092191743,1.1216327744974561,0.4731891144335913,0.16544973067884117,-0.28532131606343747,-0.06772787666264057,0.8469448040164242,-0.22861331511269586,-0.5375830234652775,0.3508394505992687
,-0.1744177040129905,54.77640464483867,-0.5104557260650173,3.6429245656754254,-0.7304700462552797,-0.07692162508530656,-1.2083126836211804,-0.3816073784531276,-0.8460442126986583,-0.2234628797830493,0.6771629044263437,0.12131850283559895,-0.14958313446664093,-0.6327698729281774
,-0.8445331407232607,84.24493163841646,-0.28438844585070294,-6.543408393804714,0.7803083357155898,0.1691222796230676,-1.903463092925282,-1.1569343347093934,-0.7876820356805074,0.08235193286858564,0.4166838682168109,-0.6772285978577016,0.10645475729334783,-0.7255143527164838
,-0.7757969829225021,41.76069961426556,-0.36341583774915864,-3.686164204661424,4.013899227143599,-0.49611688518702696,-0.37505914175985855,-0.8657828959772593,-0.10535796445981993,0.3274708053805831,0.3707358892157315,-0.14811198988556162,0.2613324782821323,-0.18456936211326197
,-0.5280777963154576,39.43199474659964,0.0009699089564077272,2.562379006251931,1.85150521274213,-0.9921849451771607,0.4644810545623898,0.03420645662779903,-0.20047957514938602,0.0876715891571024,0.23711778768815064,0.26825006067331714,-0.6701635340763142,0.0509305255445395
,-0.4443418553413655,151.0085082135107,0.38131208591432525,3.3067821002775255,0.4577993820363377,-2.926835200914481,0.07076230049167873,0.25956651147925375,-0.28321734929832487,0.21881908948015336,-0.646900536489884,-0.7476616574790709,-0.6091637394521182,0.37909706131747706
,-0.42113264233141895,132.2502691009834,0.36784555532293955,7.115474982085357,1.6892103552132072,-1.6563888091080148,-0.0013455293944150105,0.47833016338698603,-0.4216375126621747,0.05406037684792149,-0.2946222586749061,-0.336831763869057,-0.5242767915813491,0.41784458943244296
,-0.2926076676339736,68.5815072774358,-0.027715896479338812,4.645514885089632,0.5256449994672774,-0.019850334744367135,-0.2884892256697752,0.4033078289783239,-0.46750152781064597,0.4000305962552984,0.06807461172504196,0.11247682021570213,-0.11157391130782099,0.37039146461216305
,0.222013166295927,36.32360159094596,0.05114488863451768,6.550189773779087,-0.27297707445050107,-0.8560506195517418,-1.192367563562998,0.6086244086443275,0.323633615063782,0.055493218875749754,0.3866592739641063,-0.8212745851846098,0.026934732745312433,-0.09894483203763309
,-0.2766031241695736,-36.404814652390634,0.03328841433793036,5.190763883407389,1.390928465019511,-0.2216584872905005,-1.2055183600348158,0.43714908332769276,0.8842090863923412,-0.08606697784704555,-0.13344553646662946,-0.36690750479949935,-0.27586608453049677,-0.21375291381202682
,-0.11237456589318416,-51.798315208893825,-0.01225736805258509,3.6469091998703402,3.6475822332662267,0.725180642874925,0.3787517112173764,0.16545132333287269,1.0088811561593913,-0.3723474237367712,-0.3467296734808044,1.2042922632790343,-0.4879876616967102,0.34876190779231536
,1.1643763351948515,-48.60752805079463,0.3781011607800817,-6.3351665803915,1.3186148283067345,0.05165072230562726,-0.2737042413695028,-0.7142633934217947,-0.732313829945467,-0.22510472661810318,-0.07340253821185476,1.5575617654748726,-0.38192090951678337,0.7818127888970394
,0.8901243282928623,-63.85046463994121,0.5852044939451163,-9.79542949398438,1.3695143023010348,0.7403735889901213,-0.8683033713079684,-0.6209152780264746,-0.8939034558901645,-0.2061485968486626,0.08142825267399428,0.3341464548854589,0.8796827799475566,0.4228810705383738
D2,1.3082813235576591,-80.14562349660879,0.42751874647491706,1.177790437082422,4.657139767565247,0.8620820511613246,-0.6083144643964046,-0.14229045442926638,-0.016767618799828368,-0.7671694107376548,-0.567514794304838,-0.22806487179439272,0.664678702582602,-0.13814430176026057
,1.3518212305761035,-6.534070608732774,0.2166292447383883,1.8992644877351752,1.2751983602309516,-1.1624646228852782,-0.8750888346757093,-0.43974024771009745,-0.3226623908523625,-0.8819862058626378,-0.06618839602720863,0.007099370607949704,0.29420995539811257,-0.17002617505306158
,0.23395088006562756,10.794347429801675,-0.02313688450902925,3.0262093931091143,0.7572875491493406,-0.5438942998657014,-1.33307039990743,-0.7178371795648052,-0.15222578656870595,-0.36589980500383573,0.14719055674905632,0.264716634494612,-0.29585365242146305,-0.20043832410728843
,0.6696806005476312,44.559593816720216,-0.27836567814031266,9.474729748301009,-0.8433760083263461,-0.0041403937380150085,-1.2808327712989964,-0.3526310011841457,-0.2934095166993846,-0.11214547514445218,-0.01839532919782512,0.32614243859950887,-0.15519517572702055,-0.36513241871282404
,0.8511965391634978,61.23276680278563,-0.34754426174010616,7.429819250383339,-0.35693995524350314,-2.6435480760844223,-0.15055166413545476,-0.2805675883164132,-0.2703890995637016,-0.609601456523163,0.7987936286723926,1.3513254914672066,-0.09580841967558892,-0.3396739561557361
,1.5091333843675196,27.518909063250156,-0.16614440215214768,6.2755580066813605,3.0312001373142383,-2.3862640106384134,0.6980271657761035,-0.24287477166639915,0.4629418162549714,-0.7858979460331575,0.9450801719282257,1.1947511036184346,0.1635491817027451,0.13757162155269922
,0.9073485346698119,66.29403215054275,0.3081193406026214,8.772420992418382,4.088113735044964,-0.2360935924338109,-0.2144295574616918,0.24918324235147174,1.104363455265032,0.03025989011570078,0.18304313437329012,0.15551176355308424,0.46363750068110593,0.0930871494330338
,0.1836393099652435,41.94330161483174,0.2392927495743202,6.197657483592385,0.874805073557313,-1.4671848044304563,-1.618814613696999,-0.1322284406531806,0.6187821372904823,-0.389309334987952,0.4290557518439993,-0.2886176337126675,-0.04959038689949493,-0.16475458272012544
,0.08238639246964254,54.00926916406784,-0.15014191666485474,-0.8149064441507328,-1.2352005919078262,-2.4609617271673154,-1.697781320495575,-0.05938792007661645,0.3561795819127299,-0.5995493860121248,0.014332636038739186,-0.7373124854479594,0.007579672399271287,-0.2302829468713701
,-0.009635804738436626,122.63275168282303,-0.35131540103955106,-8.013198687916267,-1.3637055803593288,-3.355139957323206,-1.3961328212405413,-0.2508446443348436,0.11430664127473132,-0.28390755102545606,-0.4501478561948794,-0.9700214255235089,0.17497156185957274,-0.1305498469959115
,-0.11610999580326258,77.92492553638085,-0.3945775927400163,-9.795950898512878,1.0228866530734684,-2.578776149530923,-1.0319859097477058,-0.0715556933118243,0.5324560431074039,0.7417448974953549,0.04014625789996548,-0.5728382263144338,-0.24701140727279555,0.15684539236622436
,-0.09380432680694462,14.853644384829646,-0.07613188500903735,1.319638920536981,0.9099662349396627,-0.9266227470015975,-1.3997977155799683,-0.9140138693971909,-0.4543486102761575,0.3357432047787252,-0.6233981193849022,-0.41996735854002926,-0.016545931709760223,0.2527805023136548
,-0.05817170572691731,35.12083452812585,-0.10204650791644278,9.023376486129127,-0.28649921796885414,-2.0041331942579803,-0.864998556177718,-0.38546945184882053,-0.2235278667686115,0.2117732783535826,-0.8141627610975062,-0.36573183641881124,-0.022980691170201222,0.4399806078045538
,0.2207646508863359,4.0454190735138615,-0.03137152103656007,3.335014177850345,0.890772977708806,-0.7687115127139748,-0.339967520381446,-0.3982504019141508,-0.5078641480650459,-0.31243050331865496,0.17321328042144524,-0.31711322982611917,0.012941205851996962,-0.1280213470897664
,0.07085761958053288,21.53737082152683,-0.3837211414403271,-2.8004288259825034,0.5998061096797601,-0.5412348049155132,-0.26665080233551397,-0.7007175101636847,-0.7408981236741347,0.1115866499863418,-0.27175099444494316,-0.43067250666145357,-0.05833876278730574,-0.3341192086095737
,-0.5761579636966624,43.01200336784537,-0.3820976073569499,-2.6209351466706248,1.0491064502979666,1.0442793672943043,-0.7671167426791056,-0.43233891389070084,-0.34597803498460933,-0.4387071576890226,-0.6520317740893206,0.3803272265940731,-0.572226971326793,-0.19378823080928168
,-0.619767213806195,113.67485388232461,-0.34971885317287515,4.998279523713758,0.8766470648704343,-0.6468874470274842,-0.40265570104130877,0.2983401934780972,0.840962954978368,-0.0515141865316431,-0.9242299829135906,-0.14904421493971634,-0.8516649037018301,-0.009626560004074513
,-0.07850675799348704,110.71905968502409,-0.5054690987020248,1.231941865873732,4.371177514622706,-0.956138601465447,0.4982718053236633,-0.1099657186933037,0.23268067870718206,0.21353385027464358,-3.1335843836436252,-0.5496806038201777,-0.20520535183240074,0.2745936629491233
,-0.10963849725924892,45.678768573677445,-0.2795038150340766,0.5788788900453942,6.5572547825148,0.6054094777087162,-0.04795277386349403,-0.39503833590980403,-0.28055912525915666,0.5390763214622493,-3.220386698394864,-0.04699961240365393,-0.1726791151554585,-0.3937765341200793
,-0.2681784028804215,52.94660655378161,0.02333168342942015,3.3912057043470285,3.803669897359057,-0.9626987042008073,0.1923459872876124,-0.21189122069670813,-0.006005237095694838,0.9016020068811521,-0.8226930805751855,0.7313311098296259,-0.2140624359618457,0.147158466431926
,-0.7393657303083595,49.82371275741201,-0.13390237118413584,-1.0348755087405508,1.1140682271700206,-0.30996596000117776,0.9230999719080363,0.25251803941873385,0.5666256505407377,0.36155843260117304,0.02809164522192274,0.574543153025596,-0.48235018777608535,0.3618215248608336
,-1.4009159756412262,67.7937873825191,-0.3090599882612191,4.994436495862119,-3.1426795400893446,-1.8079928374908352,0.7317759962071616,0.48390759757068375,-0.21498808412738285,0.10613722249686883,0.16262101565636033,-0.5853227789286449,-0.9633932105520039,-0.283635150246356
,-0.46052496072832005,35.78598765399073,-0.28247656852674285,12.507796065239507,-2.420171093464947,-3.5254910096075487,0.8568040575637474,0.3188439163400411,-0.14477577782219786,-0.00783173662094676,-0.7038797639154706,-0.9503723930498743,-1.1672652163986241,0.18728088643555427
,-0.15294817551466994,20.611903449857795,-0.24313346724858412,5.98106943283437,-1.3848837230446929,-2.3547551521011245,1.3068740864599395,0.4997747519046338,-0.023413153256885404,0.241071313177103,-0.3411785668287514,-0.02266809544936422,-0.7357660502050991,0.5313439760513373
,0.36751947780167915,-32.34115372720884,-0.035030794921491124,1.4256747384195378,2.6832566525598986,0.9251180438208094,0.2506149160253188,0.35457714981075433,-0.07867042188480518,0.43313622646870753,0.213780935870442,0.36099110265370676,-0.740031714489198,0.5601281216872118
,-0.49091507238304877,2.3859760730738278,-0.12429464200830685,-7.458871140512414,0.584953659037268,0.6900420603449928,0.4355675113095715,0.291004891964944,0.8513037625781205,0.7201609863663634,-0.30403464674543285,-0.705711210978522,-0.6752381985213348,0.3891539338713089
,-1.1104192474972279,97.33344648838784,-0.5261574878408385,-2.954136615302171,-2.582001777745633,-2.290414163624539,0.7173755329263539,-0.11306521172136656,0.15509725904747199,0.8330810313105181,-1.7535192191383928,-0.7946524664160395,0.17196180188064328,-0.005989048334767505
,-0.4381430368409578,135.44904312233317,-0.36357344522466306,-1.913575685021166,1.0942592044222148,-2.643142836678607,-0.48473566177792105,-0.25798677925588454,-0.17605494107574574,0.15173031480579477,-1.3305004461346697,0.2961476431231768,0.00047752926188060593,0.016155437127741572
,-0.119942357453351,114.5574822908968,-0.4001561112188337,-5.602671272299754,-1.0799173433692506,-2.032686480191165,-0.5887644645652665,-0.041011337237783954,0.392722221230924,0.1330604615289259,-0.23140732599279476,0.27733373881009316,-0.9918084998866954,-0.06284986105936302
,-0.3787172622373301,94.87333191237094,-0.6065448496768626,-4.573677558910252,-1.4084506905976486,-1.923088223953991,0.3068824305508103,-0.15367342698721356,0.116799827035311,-0.09547013860586577,-0.1229717444644716,0.3510266900122266,-0.3687936679991672,-0.4982885002457331
,-0.35531964932954735,84.52668730113957,-0.4349940650233749,4.270394932686718,-2.0552206536335773,0.04931976098183884,-0.5468602112004899,-0.45400088380104264,0.1257904051972997,0.6817594272786304,-0.25844601482720236,-0.3093160964151712,0.4282317409606498,-0.2391200140159639
,-1.0556391317418201,105.16438920934797,0.05529251708855469,4.680029794305636,-2.732797046401418,-1.0734022897827808,-1.4969962680094149,-0.4422704135953187,0.14365620831026774,0.8443817654201387,0.20315989148072028,-0.3076176549050956,-0.3490144825445024,0.38033642664161876
,-1.4148721140091913,122.44792058577517,-0.17726170175463746,-1.704661398818665,0.8757379563956371,-0.9973240217678486,-0.9688551699145689,-1.2253149329078838,-0.8782753658555174,0.29242100557822687,0.03092146124440792,-0.2441087281984956,-0.4177946883740031,-0.4950121404260435
,-1.8539726035297805,75.24296967028182,-0.40427460370648977,-1.9588767593353535,-0.5898112948708394,-0.39102429453599774,-0.7465914478776128,-0.9272138630104892,-0.6847078566686838,0.8950736531341266,0.2875002621429165,-0.5487012796523472,-0.5516717878613733,-0.7484780546682462
,-0.6448344875840648,17.9910282485739,0.004212913232097413,4.175330641662969,-2.4987079753224863,-0.912787660190525,-1.120583803970824,0.039791836826957194,-0.147403770327669,-0.02343738913692438,-0.6709414866676089,0.06350818163087578,-0.171004815387336,0.6541457986778346
,-0.48289097628647537,-22.505083912167343,-0.5570605078604478,1.3210574650209155,-0.3413340757800148,-0.6320271254553483,0.46989973506602345,0.21395161291418105,0.15782825058235508,0.2468983162907543,-1.1515843554738046,-0.13548569058776144,0.22941057776791862,0.46887263771836196
,-0.5631928192914161,7.10650078366746,-0.4882179264922212,2.5243085730646535,4.0289171982865675,-1.301712028952582,0.05579230415122128,-0.48802733496789474,-0.28220305139102386,-0.03606566792798906,-0.11084791188957706,-0.385452295917295,0.45823214690618125,-0.027311972180955563
,-0.27341747760464163,-40.013600869114086,0.2017529305487663,-0.7873802824434161,3.1338964233774877,-0.16147224695362986,-0.25381156302939356,-0.4147000020165419,-0.22430822148562965,-0.5383103302873321,0.41600865625189726,0.10415328015140927,-0.132900228057832,-0.35063889027252104
,-0.7467226930410172,-22.637712709778352,-0.053597519456726944,-5.3970334780458415,1.286357065967791,-2.38241518470721,0.7147071579487754,-0.48136525941672337,-0.6069898835496252,-0.7440144564448467,0.07719921235346748,0.17844379811977362,-0.15224248940437307,-0.12096152563189298
,-0.17807580382100882,37.3466655174584,-0.5426716582440082,-3.2709461592509603,1.1032732338365838,-2.3068651022805615,-0.20527794397182567,-0.5436951109281567,-0.7731530432555411,-0.31122302079906583,0.07347037761387114,-0.708020432685932,0.27511244149256153,-0.17281782177207966
,-0.25823105248569805,104.72051876948024,-0.5111170156108084,4.699872481921924,-0.45181144466015327,-0.4779703827211203,-0.5491701387810345,-0.8737561805771622,-0.7545520132087208,0.05527373644024666,0.8826203109223291,-1.1782765483562534,-0.022849783354135688,-0.26750205547393807
,1.46910822565052,165.3163407763243,-0.16281785983062086,-0.18597380900221858,-0.5448347543460256,-0.7840979357620028,0.6325665782918984,-0.48538507202928677,-0.24400950319735534,-0.0641150110060905,0.7553301625007154,-1.0969504636499439,-0.17827095780974522,0.24783411614465797
,0.7042855864062729,42.181324837607946,0.21768511800200785,0.3719242501142566,0.4897402245372264,-0.2623482214453716,1.2333149167400812,0.055928284896821154,-0.26681087273502097,0.31623172088052987,0.797944853052859,0.1078512082856677,-0.3777796338103239,0.7983856906321883
,-0.0335771740717976,50.00869308951718,-0.04872085629565721,2.196851799529241,-0.1910355471939064,-0.7459681271073962,0.9489646825406177,0.22446036955690088,-0.6062039454502798,0.7063871716585748,0.6560693949766414,0.5923169388303285,-0.5904074586129671,0.3928620015313818
,-0.405319826579364,32.233058489322744,0.09802903339781348,3.1332952258656728,-0.04455102596980105,-1.0722750633514317,0.4440185809948002,-0.3045349429182268,-0.8450795560141393,0.5580429763396318,0.20836044169310994,-0.0988146295688825,-0.56581405223383,0.22107176968944145
,-0.2582455508965701,61.62857683190536,-0.5849750898003732,2.3910437919093126,1.071006601289545,-0.45039188943416375,-0.7242526988181364,-0.2868182937963476,-0.2662068692981873,0.596663750236377,-0.2992748401321952,-0.44007496975175825,0.4050654172401888,-0.21834327510081628
,0.16405315057729136,61.597515133154786,-0.8277459558959487,-2.981933832008168,-1.3797732547646566,-0.7626284630610568,0.12456212067869962,0.2331584970903321,0.8491456663536101,0.24180504621660448,-0.44833363857211966,-0.4949665812932782,0.9759315657983464,-0.19438585355459345
,0.3338241991294891,-19.550065992568182,-0.37537748308165847,-3.6482986553644365,-1.7122575811266079,-0.6884978417259945,-0.4691164871037787,-0.32888999562473736,0.3199732783959897,0.6337492258582615,0.13075950348930945,-0.0017874477440318838,0.11029578527246814,0.08221333980733225
,-0.7018169385841717,-38.40486876694451,-0.24134705135205142,1.5068766756792713,0.4062118950101835,-2.7580817030294797,-1.59999855978673,-0.908627471148732,-0.22585047240481074,0.964204061968791,-0.046356097301299026,-0.9907632440577858,-0.15408985320122218,-0.6231362686046997
,-0.34517513046074727,-3.0283263557133053,-0.3920727316040681,8.34626704271537,3.2593917013835023,-3.375368279985993,-1.0840159972360868,-0.8892593111035721,-0.5566273916528184,0.8968639153036441,-0.370209957634543,-1.5122262414150813,0.3357098289364542,-0.5515708394119092
,-0.5445973084091528,5.61455925897566,-0.2730134081368539,2.3186962963873086,3.377465196011395,-2.1715296000416218,0.06453353101861042,-0.723222877378607,-0.5293721795851309,0.9759751553641358,0.47384642998103826,-0.8046092634483551,-0.3124914973595167,0.039726067312850714
,-0.27848072192074136,57.94445364553384,0.011101522502982965,0.20743653148185578,4.7456648156772365,-0.25605207894142173,0.32128430598991714,-0.5125334975332388,-0.7385398323218308,0.8452810586551884,0.6875969923900198,0.06997642268713801,-0.48851263144807244,0.055045314759017756
,-0.21785445943522191,118.46165720478244,-0.6199686109854886,-1.6044548611992204,3.8252439624342873,-1.0358691779043478,-0.6301007330116946,-0.8599695300588865,-0.6028060368611735,0.07833253771389494,-0.6147937027690286,-0.4115604956961186,-0.760031102964021,-0.6203256274944757
,-1.2866018023916674,27.00468342213556,-0.8890233693698818,-0.15840345421020283,1.495675514563107,-1.2201984251773887,-0.6172353728051865,-0.8848126931852006,-0.36907300985150976,0.16085817284948267,-0.42862415813348914,-0.4736384862269532,-0.39933852908007694,-0.8254006935673915
,-1.1628805808882554,-32.77799139211271,-0.5597589439735393,-0.19148257222093418,3.351265125812518,-1.5952307130755543,-1.035232406712017,-0.3172447529404781,-0.24720267085570985,0.52665328554292,-1.348663596927176,-0.7824880633321908,-0.04214490937628823,-0.35606059437823423
,-0.24820430513462452,67.75609497219071,-0.17756555073052827,1.72665550752359,3.355529115977864,-0.9442530054144148,-1.1050070922228123,-0.6744532631435779,-0.35812587161645415,0.6847619426198084,-1.1211869388405722,-0.9504827808705871,0.7714418679737184,-0.027247724476040812
,-0.15397261043373295,82.227971550444,0.20435478093653275,2.8517843392060445,1.8468094326718816,-1.4868809904812543,-0.8949577910431219,-0.5782142601177431,-0.33717151822715,0.5708584754292275,0.09754465812464809,-0.6520006489133283,0.8300325917740436,-0.26497096313302076
,-0.03003997119911944,21.73326940956911,-0.23654417261785518,2.4232334723047475,1.6958303810201827,-0.8550524209052083,-0.060480085377832685,-0.47033087405266255,-0.5663232004649131,0.8345212718610361,-0.17506625442865067,-0.6963637791283747,0.2879701600228005,0.06680938794297386
,-0.49807232311543437,-51.78194026434791,-0.3071558927412323,9.865645620542212,2.2372181682385217,-0.40524973790401003,-0.09257791735143428,-0.4986591654924248,-0.884955025419967,0.6798956826285385,0.45976472900863846,-0.4556198578968685,-0.20393183799228579,0.73488137263617
,-0.4400811220339982,67.41795290825962,0.02269549805330875,1.2473607058362812,3.388978904108936,-2.4123376532894616,-0.18575729540880725,-0.4187534010817947,-0.5763112097181535,0.19466050712311173,-0.31864287100446487,-0.7248366697516351,-0.8676061475065664,1.4461201029873925
,-0.27757543345044444,99.44157684643045,-0.10348615406675256,-0.2215053438251412,1.3069223564575203,-3.175790311400364,-0.4246551185909551,-0.028010037590993284,-0.2759017653050345,0.21773792172950174,-0.4114762061250454,-1.1103154411953533,-0.7302397873869071,1.265091037743993
,-0.3679065085627073,2.780940652547141,-0.445807018607571,-2.0287265943499193,0.6549705746545434,-3.379331578506664,-0.3684718432236263,-0.6394580007900476,-0.1445655834787077,-0.5555575374601965,-0.04279709702721991,-0.612020770489407,-0.5643952378094373,1.051837442080791
,-0.6195802328050652,16.363176085907988,-0.04847546760243343,-3.4039674515060185,2.0527553048839713,-2.0992751304182815,0.09887618935360007,-0.5451519842117536,0.5350409436132625,-0.3477984612751158,-0.18976869565440455,0.14569259983183983,0.31993589321606447,0.16994995008321093
,0.15158539019163927,95.58482095321202,-0.3604334529004807,-1.8319320328393327,1.1397110905451355,-1.2991770510962566,0.8122899380077826,-0.65924251998414,-0.25024367948447046,0.6459523054128626,0.35797771772785897,-0.03561816886086214,0.07439076521979485,0.046647974914071806
,-0.31910534116683215,92.71410286693332,-0.08370765621898894,-0.7175173984767724,2.7412499731479785,-0.40627342755305274,0.1641482974858929,-0.6232060547591459,-0.09280615411152007,0.7468604102288109,0.3838206327668245,-0.34826961209867013,-0.11332422422605336,0.03786349994904
,-0.32131374307895966,47.90523902332618,-0.28738999836123413,-2.0746566197203498,2.2309818177595644,-0.6450321195359666,0.2019881206749534,-0.005513048757852396,0.511328784554536,1.0733089336096344,-0.4073989537773078,-0.44167987188877383,0.051990739085322916,-0.08604511665719547
,0.14557153473808135,64.61275548248706,-0.2935944567594673,-0.293689573809033,1.2869903109959444,-0.8472335007641649,0.10245675037219103,-0.08438950545888803,0.2177504753695489,1.113813614238576,-0.22436647452515068,0.49110247984124483,0.1191113862176964,-0.050556938577753265
,-0.18404091938284534,118.8116509489056,-0.45329677616769504,5.485361739774687,0.3243366398106161,0.5757864497474822,0.19565483502296022,-0.06413122949490042,-0.22845704171131034,0.7794054991817624,0.22680563603976042,-0.11502926253402151,-0.7499261120301232,-0.4593747457621734
,-0.725962749252115,73.03454960355776,-0.4897721150043944,8.309279067912207,4.151005616224366,-0.5770968060536376,-0.1565077723454895,-0.4476802827556381,-0.014713200616439345,0.22952815594543152,0.5905236142760403,0.3011195916171527,-0.47912996918566897,-0.2750245995557102
,-0.1721792213792474,91.56708046133551,-0.03540845663491894,7.033354162877965,2.0198546915990696,-1.1585199305308151,0.15489955961200153,-0.18057223491564164,0.6096818963562846,0.5288277874109494,0.7221110166157318,0.6923493540816141,-0.035935741495573686,0.713226025908122
,0.6131215370796896,69.04683559314498,-0.0903606545469718,3.046060839952925,0.9120281739130478,-0.3935372141646307,0.27073741626823566,0.005098243895878689,-0.12299016756501105,0.6470110432188018,-0.0014381684231528536,0.3869253069397502,-0.19665544976117616,0.2085753318430222
