event,eeg.af3,eeg.f7,eeg.f3,eeg.fc5,eeg.t7,eeg.p7,eeg.o1,eeg.o2,eeg.p8,eeg.t8,eeg.fc6,eeg.f4,eeg.f8,eeg.af4
,0.13521549329678045,0.15156248905935968,0.18937694644981096,0.4497330474616194,0.4955442347047261,-0.4930462840591477,-0.17876527169185574,-0.1159329828773041,-0.029766724430210036,0.14801177649955397,0.276895552001084,0.034209265823180846,0.09410298165076163,0.2647272131981654
,0.23181364754980896,0.009789104712176377,0.19330560242107092,0.5359869390749411,0.0915860683969153,-0.24937865112736776,-0.18405662201140355,-0.12019569111927333,-0.06653705176586797,-0.19135219560959957,0.3208797340259368,0.019732083400589958,0.18104273298292828,0.11903216720892834
,0.5230172921002126,0.36517040308658943,0.2772907403866277,0.7641232881453925,-0.03446224276197365,-0.1902566723731592,-0.12286738448007828,0.16991597868262626,0.035557614896033166,-0.48379515307799925,0.14040487528457085,0.07731057669556375,0.40100902631735424,0.1902606585975327
,0.45484137015903425,0.6448339231817601,0.03753482559879151,0.8166923623298594,0.14923676606764857,-0.3364317016276638,0.04194144851312225,0.016951303876518897,0.2198415424196864,-0.6451957401151618,-0.007293277171557265,0.024649533630364904,0.28282282026919986,-0.05870061102975402
,0.2716877117771292,0.6332390829121851,-0.10261913334748908,0.3743053894726863,0.4859756192573681,-0.3070858529886728,-0.08690474280967891,-0.18519531465769173,0.07659008785651569,-0.449286038240109,-0.10992236058468596,-0.17878505194876387,-0.03422329667099161,-0.23880186899173989
,0.2110937432135545,0.2528666753945619,-0.025792531887631122,0.11226004186062699,0.6348905679771012,-0.37002392248744936,-0.15621412576334323,-0.013969568906330821,-0.11073470000092947,-0.3639152593945306,-0.025051164423241696,-0.10696613056481828,-0.034319259075483895,-0.16559868248627144
,0.3227058885342231,0.0480304037303576,-0.07352569921334884,0.10765653807159759,0.2964125789049729,-0.1701671196348898,-0.004615815456072209,0.023317132280528237,-0.11392680338748534,-0.41234877834188877,-0.023525106357994652,-0.00543985640687355,-0.04887496639253978,-0.0308070998592017
,0.34302327828630463,-0.21696609512941778,-0.27114932424046867,0.06277097749460311,0.2345633603153607,-0.43785567441214435,0.009423062438866963,-0.004225047356483678,0.10331221590650864,-0.7581958142179072,-0.09971855354665898,-0.19484632356872406,-0.037671384842836664,0.011047719911025086
,0.19441663236970616,-0.5647638461624856,-0.1411652778376355,0.3298818472833156,0.28670504754122567,-0.2734780086596223,0.10609198815591113,-0.02640570446319987,-0.10744228071231925,-0.8097809668161202,-0.028440259420758687,-0.1905762428395624,-0.047050907589577425,0.17000434279719892
,-0.05404335892225581,-0.10297538535267953,-0.08115771485833614,0.551313060288412,0.3214640241424413,-0.0024565045894873253,0.09698623667646712,-0.06631754576055515,-0.2770540650941695,-0.4222638782358819,-0.08125942707382108,0.06329153820719298,0.020220159939480675,-0.029773800237592532
,-0.008796462498435924,0.2144604876428559,0.10349270160314097,0.2920693544205216,0.3129650152971806,-0.4066511012872915,-0.1093894114791414,0.01733580188036444,-0.1853251419930644,0.009747687251085602,-0.06956687865704364,-0.03257276192426892,-0.02693087241751253,-0.25431034857625207
,0.12373002932650767,0.06248885352588595,0.18557834065498702,0.3219970830714789,0.43550444292993246,-0.4381190997628094,-0.04708940695464989,0.1409117454228581,0.06731357327282247,-0.6760815531543999,0.07341035992067978,-0.09268516579109408,-0.13529670536159347,-0.20033321511914862
,0.27109286940541116,0.03550836544384644,0.2309518385976074,0.34342053047993765,0.36772516784882897,-0.24882541339738695,-0.3532593304232156,-0.11184069754725035,-0.0169760616429695,-0.9173111320639349,0.05160779929439438,0.01928907897622993,-0.030786543546787646,0.019012025272859858
,0.35495232709913416,-0.021203067280085978,0.16967806496654042,0.6177021518492859,0.1625605730318962,-0.26688064771216546,-0.20951098750364835,-0.05813867422184965,-0.0947124181505251,-0.792952019472744,0.00012561214055454537,0.05932456500101718,-0.06667015485053994,-0.05035534066487826
,0.42189967584381677,-0.11829396451595313,0.19542605013372116,0.7414709759140612,0.11737137195512212,-0.4676191566154581,0.07766681711188628,0.14997630330952422,-0.06420511581575192,-0.1801587764850765,0.2523959559636209,0.016118759401953106,0.06065616159982723,-0.3901466959045546
,0.5160770670413277,-0.3344839332032966,0.15892759605939644,0.3208440297184898,0.061025352870991596,-0.6398925036169121,0.08385332612746065,-0.06364986108617757,-0.022635741372078185,-0.86326524252424,0.22557413656142536,0.10600490247651083,0.297608192298749,-0.3969258700299162
,0.2505594251632006,-0.24263574816418293,0.11460629599149207,0.0353296027377522,0.1653619985461051,-0.3820166172985788,-0.15648281815471696,-0.1752023798474632,-0.10674138210603765,-1.0047731230528596,0.054810509644715316,0.07921945994519038,-0.10468910327493133,-0.08527028998402426
,0.2813612935456626,-0.12918402899197057,-0.18505400273343975,-0.05084656743513509,0.11456440151467945,-0.13075269650238996,-0.09802265938113758,-0.14248275870616384,-0.008833163834423967,-0.7703125816883523,-0.033547436613289364,0.08206994227468432,-0.1262568442618151,-0.021944043480349694
,0.35485050072006946,-0.07964228681040014,-0.06611883833744946,0.0037006054661691654,0.1178412747479657,-0.3760945722642413,-0.0902209420221695,-0.05523462530057327,0.09724220707168472,-0.8632097306475841,-0.08286388251414227,0.03883146662290139,0.17983069176410818,-0.02252227178406186
,0.09068353471583745,-0.17806094660120955,-0.07473823483147686,0.4125229799638695,0.20834265846391448,-0.5457836504386495,-0.002544111906076634,-0.058221349354483656,-0.10136246822194511,-0.7371813298477932,-0.05448389951670194,0.02227636880559719,0.19271129667435427,-0.05802979673958447
,-0.11092726020639367,-0.2607205247423164,-0.01874572258941076,0.13373180318229422,0.26704501994858654,-0.4393716241227515,0.2217278946369145,-0.018061933087412965,0.14495387973768173,-0.4067450480107227,-0.004239938164105067,0.07539615861002738,0.11303981718115572,0.09327027089992306
,0.04019193694311016,-0.24196918769878017,0.18953214113683228,0.050829341934799536,0.4608460701833331,-0.35641992352020424,0.10226959395322205,-0.06655501162615511,-0.05133537754082349,-0.4931197132929563,-0.07792388669323067,0.02331695174268914,-0.06489817182074746,0.16485103153304198
,0.12812272027128496,-0.11286006009448782,0.025903668252685794,-0.1091915396256043,0.18890205424170997,-0.3904483936410217,-0.05283913354241271,-0.051459841503663735,-0.11360919865491581,-0.05300559437335457,0.0936364649596634,-0.032329388927739365,-0.17440159754823387,0.0108924357550257
,-0.014376885874029976,-0.12207271178724564,-0.6412974325759301,-0.08391251265667826,0.19657832098226988,-0.37510201544377136,0.09105841485907543,0.14404342603887166,0.07064664789916172,1.024580445885953,0.16805833592091768,-0.06697169359135056,0.05483086939086553,-0.04154234206953772
,0.14233651432042035,0.20576935654173928,-0.7029523858946499,0.004652613480320221,-0.06968368816027819,-0.31955798936656943,-0.18618102953654908,-0.062470860027489396,-0.1416389915196509,0.2731408950814182,0.00534466683515163,0.020701151094966796,0.15026797383737714,0.010808161151914181
,0.22188304350772997,0.4898364053291456,-0.2613545878658479,0.122428260131727,-0.24165744386113214,-0.47085630870150974,-0.10206342820199232,-0.08585476713525221,-0.2055748274398488,-0.22621443066895475,-0.04830617625129693,-0.08292724510128184,0.29572053513859886,-0.07004545587887652
,0.07041459227445701,0.05416365876524914,-0.016523164151489286,0.4435105209210394,-0.05595021466519762,-0.5917076159271585,0.2506925177464208,0.11407348062836331,0.03543362392982875,-0.9719426538763085,0.1676744379500633,-0.3881472090475179,0.42799625864428253,-0.21458781531330157
,0.218862819590695,-0.07431043000565815,0.0832268637896547,0.06429687086796822,0.27160920385367,-0.48953954648371545,0.05774360620339959,0.21547814619424727,0.21474270261342526,-1.3657094157524847,-0.1591268749897221,-0.1285457438706699,0.02289159276536508,-0.06983821507496099
,0.08109460111207205,-0.14328442863144777,-0.0975111955346613,0.0054558653889781265,-0.10927542219887897,-0.37039792375298924,-0.14746719321635782,-0.044505480945374674,0.09695878307936517,-1.4018438011029415,-0.2122446141899273,-0.03805928577679891,-0.2115808510871438,-0.23149670692879554
,-0.16480839918379583,-0.39753300861537333,-0.2162805439755356,0.12546940785912136,-0.3197070816930651,-0.07172327843760881,0.10282666140532765,-0.06843267493208348,-0.0125897775981164,-1.3645064647403662,0.10502700645753443,0.023439424747769482,-0.09189074801075924,-0.3523661420395681
,0.06364517303132608,-0.08241614057766523,0.01594793708096751,0.09588782325808987,-0.28832077191270433,-0.16192777994190483,0.20378036758039725,-0.0277530236999595,-0.10863820202721036,-1.5981173282312853,-0.07896409279873565,-0.036855548488827855,-0.3186732536464438,-0.10084464283955975
,0.21383984777920473,-0.1442654127310789,0.07301863040402956,0.13270931886413903,0.007544742876125113,-0.25448252199676524,0.16077600770656275,-0.3020420610009616,-0.3290500965173236,-1.6252399915870608,-0.4783317830730306,-0.12934373117280287,-0.653346625619084,0.0006957027956585214
,0.08460532302328887,-0.06500220682112873,-0.16752846531504073,0.0055499516433804045,0.16132651620983646,-0.4373575555554912,0.1773399629172091,-0.290785463189162,-0.2565086315363376,-0.8954208996108299,-0.3152573504825234,-0.05205623123695292,-0.37638996198889163,0.023440987877864042
,0.07935378650324851,0.3894399205016235,-0.1675589993420702,0.2624185971084562,0.07672333359931828,-0.45743693365053917,-0.09079751827106407,-0.11605174562212293,-0.15118421349643799,-0.5520316879909482,0.1076991037071258,-0.03139512925528096,0.008100454495852977,0.0701781402661333
,0.32756905749328113,0.21226338725118826,-0.03748882580387258,0.00812207172173738,-0.033568531872321034,-0.23373479260697497,-0.22588500700539413,-0.19631222753662217,-0.24474323698485526,-0.9158862126525411,-0.09374026250137762,-0.12833456749596264,-0.06970580210581943,-0.09247460496897499
,0.34276969076685615,-0.3629274671831239,-0.07134861282358909,-0.4018651736622817,-0.17299350571413466,-0.11234244518887429,-0.07610514621870439,-0.11142691613774332,-0.10320588840410322,-0.9434667776915315,-0.058366500440138275,-0.0028705965886360587,-0.08986485051517419,-0.13992402081584301
,0.12258256754932005,-0.2808225587002388,-0.05204453802964569,-0.327995653207185,-0.2928954299451656,-0.12262264909509442,0.26175607029116005,-0.017343922737785365,-0.009182842768697567,-0.7918967270550633,0.0944421540753136,0.056803715927133486,-0.08621529674499216,-0.1733935081152947
,0.04828282148363504,-0.031589758411127225,-0.19479548884432019,0.13808584573468644,0.2122326961620048,-0.28820258559075684,0.27453606365064265,-0.09318148772810982,-0.10274215997571787,-0.3905684435458009,0.06050685464174236,-0.12486489443089549,0.05890098466511507,-0.3166868511397929
,-0.10805076097775859,0.4358666749955074,-0.20592997807811358,0.31566872319645345,0.4062827150121427,-0.37966276278361544,0.00515844717782161,-0.0870734655648496,-0.07840395085766265,-0.7949591198831163,0.2741688974143612,-0.1911666080850588,0.032630045886365526,-0.05236237507411749
,-0.01703635064630161,0.216552195103154,-0.07543438196102281,0.24401003011010175,0.2084846779603224,-0.17674589862865173,-0.27956606097830855,-0.19238700451176277,-0.08862214504001524,-0.7462146191156804,0.09112390626006578,0.005972678298221466,0.026766383211860246,-0.10294859879816597
,0.22741783609469715,-0.40132292478589915,-0.14429261532832718,0.3840273457831216,0.15726831268274485,-0.3162885595666794,-0.17460506124980085,-0.16403495582766053,-0.3360976334657272,-0.7680538200937022,0.08552005633525939,0.06642184239466355,0.23600783707198875,-0.23755510287022671
,0.034065181498934734,-0.4603027425908437,0.1107199171270298,0.4744623740833482,0.14572545501302198,-0.40303417957380394,-0.16004300538983543,-0.020404559425470425,-0.3168680800831571,0.13613366959249032,0.0648362111029715,0.11642694765826807,0.17158541825111076,-0.3922426445018567
,0.08482130689928055,-0.5524530826724957,0.055547758574515264,0.0844216877956123,0.09426337784498862,-0.41194804376094707,-0.13940097543352895,-0.05867369873691878,-0.20792070956970068,-0.27958081825277853,-0.03523316580521244,0.14231240540840018,-0.02813009209784548,-0.7404384716170037
,0.24895110909649895,-0.25102004601077665,-0.184052178384085,-0.26101767862407893,-0.012585068962325826,-0.2534735920045219,0.2633793634366431,-0.11978212489529837,-0.42861397451456784,-0.9194004589000704,-0.011714643723556111,-0.15076076336661942,-0.0002850575569885988,-0.5530598751414598
,0.22048611384803374,0.41209314316672074,-0.026817328504544016,-0.2581062389251464,0.19081026921731326,-0.15991801766665173,0.392543419462756,-0.17230112956919566,-0.36733753019825655,-0.7086656021648169,0.13188342931653768,-0.1619084254356837,0.021092807267080897,-0.13027432440479417
,0.1564415968951908,0.9024150224867097,0.2696428961657176,-0.15582280661002873,-0.03138901409612806,-0.2055068585261138,-0.0019960755589240537,-0.37442576226448443,-0.24062136582144325,-0.7448690637004881,0.05125929151952615,0.07598371861421213,0.11388098641879617,-0.0819995035569032
,0.13055915872700719,0.4530316859519631,0.1394957649544577,0.08328302719820194,-0.21076904178515304,-0.3937401148522293,-0.170218629518306,-0.23322548471535767,-0.2784108228764604,-0.8837983462123539,0.022574171360947658,0.06777656826261842,0.3396346462400948,-0.06571711429315365
,0.22079064155857997,0.3695245754302225,-0.06312432130822258,0.2781833829062039,0.0760451119722078,-0.560529708886342,-0.08793475479150464,-0.10295940354126382,-0.374828116359901,-0.8861614207238911,0.01212408335128954,-0.07207227053352329,0.23157228142472572,-0.07763693283451249
,0.2525363516005426,0.3818115989975959,-0.026688376098902473,-0.27605253981908673,0.1233854720862231,-0.3068225890743463,-0.15116749213939504,-0.3908948536548384,-0.3183043666319854,-0.968684267089749,-0.061039863343719414,-0.10767040321396985,0.13322670442780454,-0.10750122994585726
,0.2464909712549699,0.1524564224043214,-0.018973548291725546,-0.2515595686184667,0.048723704132712854,-0.17382139432029783,-0.2191373312354472,-0.2813478250531416,-0.18366551758266608,-0.6452431891003829,-0.004336065645051278,-0.0966263275527294,0.2561716521183636,-0.11883143711821745
,0.1866953174641647,0.12491037830491268,0.07633344257826347,0.16529935187009157,-0.09018019683815917,-0.0885785741227713,-0.27655787862620823,-0.36821370895535616,-0.33126299155813604,-0.21080226584163866,-0.09391617417975649,-0.04151792662197323,0.053582285887092455,-0.16014637949350044
,0.12294776953830332,0.1437977600778483,-0.009352910978341289,0.27559187560171633,-0.08621904009510752,-0.09442184503898626,-0.1914833121178032,-0.2324647302330257,-0.2190212610111711,-0.8303737920651157,-0.2707642463224201,0.11646989855016512,-0.09307845343287774,0.018015764687361244
,0.015781626027109703,0.3284833833960862,-0.17001664444523837,0.2927670515419804,0.1129684438244939,-0.13794538350589852,-0.025908446375988898,-0.06496929946907219,-0.16383976066701422,-0.9721570192548564,-0.13443112401081195,0.16611644715843363,0.11093895892518141,-0.04380639952556178
,-0.07128435398957328,0.4395567293887833,-0.05310025267755568,-0.08612087293986871,-0.08763718025556484,-0.31167752211522504,0.01758207672769187,-0.1860247059488266,-0.298109726847151,-0.7859436578865814,-0.1773390087413343,0.19918976783915604,-0.034895200134812884,-0.10541230148927772
,0.08403540838990814,0.20687783523705577,0.16255094828440572,-0.05831564292628321,-0.015768605512790124,-0.3744240523794899,0.2323710333371101,-0.08435241984858606,-0.07262874034082671,-0.37749423975037116,-0.18581873048435749,0.17225849521283504,0.18784320220945286,0.07931664917308237
,-0.05897407563163339,-0.11917939206757218,0.14449049119382823,-0.16235148781074818,-0.03555665821049768,-0.28588976037962877,0.006102237086300944,-0.1624600731838518,-0.1381061124242248,-0.14759985734572115,-0.11431534669780025,0.01840453366474656,0.15661981743728795,-0.1559618393646424
,-0.11902708268655679,-0.3055302360495627,-0.047923184603852864,-0.11604489007631687,0.06822445748017586,-0.25596937076857984,-0.06361966494425432,-0.181212074683736,-0.2666485414455831,-0.3066624264359294,-0.26325202244487234,-0.24873863372819413,0.08752427920581532,-0.2701353761590664
,-0.29809820364162776,-0.6592387896956913,-0.3660502844636264,0.15647945066065314,-0.03200392785363045,-0.320939307679077,-0.0868812610655415,-0.2063008771869223,-0.5039132443346598,0.03348686200119903,-0.5451373422466312,-0.2502119473624293,0.16473802732383536,-0.2983912658596148
,-0.249668889751646,-0.46618679872303526,-0.37424821437436395,-0.12521762476791415,-0.16377942368169182,-0.2715562973173552,-0.0017509281658888984,0.04929953577631511,-0.3701023514004833,-0.5499941264691582,-0.5104101055029329,-0.10144313388169558,0.2216724072549429,-0.23582020405071194
,-0.012697694100089526,0.3695229134619763,-0.13158087802746526,-0.42987453171188766,-0.19233559559573862,-0.16510545093030599,-0.0936707736094106,-0.10134427771096458,-0.26812302041201586,-1.0072130338702734,-0.19131978964191454,-0.2361225504658053,-0.035603859408802396,-0.18872150682572647
,0.11231872213875216,0.23350023619328997,-0.17412297594137585,-0.14928950913605268,-0.17096641560318077,0.07263016638095274,-0.15782086614340457,-0.10694263939438003,-0.2550832983301779,-0.6650563858379798,-0.48841392542147527,-0.18333554896561388,-0.18467426614062007,-0.12079316921399022
,0.20824906053864473,-0.10096323635904264,-0.10395760447649402,0.23545711844577685,0.15194742207101355,0.061945415194541324,-0.21974717421912407,-0.16332075391145787,-0.10725163333326632,-0.5069106369338697,-0.43672845638201024,0.06414653517692741,-0.28785984975537016,0.10637334741499456
,0.14625668536501346,-0.09261063798806946,-0.06952048342897318,0.11484016006765456,-0.014422617287223244,-0.011018110177598019,0.05395213120317063,0.030131609721987255,-0.2374060176339744,-0.38251462462873226,-0.22677254226799437,0.00529197314594479,-0.13253663945987815,0.08427854657150952
,0.16739890021904172,0.04869036853602282,-0.1914949888575519,-0.1343225117203195,-0.09684175380994525,-0.33660452330339385,0.26519636088609067,0.1038175424433187,-0.013595260870927441,-0.21389533815146106,-0.26835703302560393,-0.0508114886891257,-0.016425543026841787,-0.1067859821585689
,0.1447133127863477,0.08641056106771403,-0.23508684162236526,0.19075032478603252,-0.0440695787013921,-0.37434252466338896,0.012528174915628137,-0.11589820295210283,0.17342678155223515,0.2368526527755174,-0.3001554489682535,0.028790353293399257,0.0829286258534165,-0.1896083173615083
,0.04887376102506565,-0.14150556906065287,-0.028970157074257773,0.2689667638170782,0.15147940989798686,-0.053447889507257935,0.12058945771726234,-0.18834833251819028,0.07330898669532081,-0.25825464088280464,0.07736191300980014,-0.02365927193252153,0.1066633231463302,-0.09738251812635161
,-0.1016039337948629,-0.06498727782471489,-0.12447027152036975,-0.023661628767768745,-0.0381552604819507,-0.3074129343280324,-0.03388160973530108,-0.06126918243970571,-0.19279666696500358,-0.3748706671047161,0.2160239850260337,-0.039488662783622265,0.14834303030129883,-0.07351972813269034
,0.0029372867217724533,0.06951440601840202,-0.12377993476074538,0.051784323980392864,-0.06010356372347266,-0.41197035941494003,-0.027559310502885362,-0.13972453849878302,-0.2098706096646867,-0.9724597581917015,0.26693639983668155,0.04242818529431581,-0.06385912041611562,-0.07870806666896117
,0.07479758919693799,-0.010060038867061036,-0.24319748839569913,0.4641128437248865,0.053107978976059886,-0.2810744845216755,0.14397189104636682,-0.23811747414038234,-0.19209199057726142,-1.195601006887237,0.13539715541495134,0.11148635543890062,-0.1235652773820644,-0.20880576443474366
,0.01860898763135058,0.10576621576309209,-0.26068342733614774,0.01941880157132579,-0.16780584130071177,-0.48768697325498195,-0.010768702332401299,-0.1667530323032006,-0.008087006666400415,-1.1575805114291122,0.08495146652950832,-0.14529992655873905,0.08007811987734265,-0.22301508002473075
,-0.06925174777080494,0.17677063340617044,-0.07671932308965047,-0.22078815869501883,0.02179344432671292,-0.3842041370273395,0.003641016448923756,0.11103437459770979,0.06141459088186038,-0.8746752582132311,-0.03030069317089278,-0.2115007059033595,-0.3269300706090643,-0.09868950946921505
,0.1617539870919322,0.2666595771242881,-0.2336158319418196,-0.07729348930813079,0.21689425287347416,-0.33029527902377676,-0.05425789213532035,-0.021234160494929568,0.012562389418480742,-1.1814678579087212,-0.13081187839156416,-0.1301852894307769,-0.4682407006023365,-0.1315462338339322
,0.21871738492976464,0.31195142686328925,-0.3455599695627499,0.21460154955823993,0.19069851631113294,-0.11374249947324266,0.07128909573374777,-0.0055670524969025055,0.0711670591489862,-1.3372331165375877,-0.18197087294872377,0.020207982724677317,-0.06453140489419314,-0.033209525591917366
,0.17309519456347552,0.26964999706998316,-0.1430277970968042,0.3076446470516982,-0.05208978344539316,-0.14648416642516368,-0.16489321823618516,0.13064644831588607,-0.03280345588375555,-0.8225652368452189,-0.129097135267845,0.052894734584722214,-0.010577064974892506,0.05573365774839848
,-0.05360222828887103,-0.0011095592862650557,-0.03692322490634194,0.1757909666183176,-0.3186147887380956,-0.39220725578646104,-0.3055846146641132,0.03586802352868074,-0.22010760643049498,-0.6825541306071997,-0.03205095483379111,-0.10074641814706117,0.26378674127975765,-0.13676775781165182
,-0.051735298526330735,0.2065484969514483,-0.32412309700813147,-0.12865415647624953,-0.22632459971650815,-0.32963930805354635,-0.2458967556971454,-0.1814408289710594,-0.16215259666148,-0.6031260899496003,-0.11289017100565998,-0.15992741909194524,0.3291607583002171,-0.334526230013185
,0.20650335381669077,0.33088023919469023,-0.24936895064492956,-0.02400629249126563,0.18760924988837652,0.16949361181609476,-0.24945871157086158,-0.3074871029578993,-0.017158229158576302,-0.5549768696953253,0.12031101521025063,-0.013701183436035934,0.09381187365303384,-0.3355127733018622
,0.2339718042276017,0.2482224124112493,-0.24006878342449878,-0.036799446833406455,0.1563494174800103,0.1586024762177536,-0.025202015093964733,-0.17622712367989038,-0.03945794085935721,-0.45248605107956075,0.1856180067772414,0.1049581906464037,0.2266335054859779,-0.028278634222406545
,0.10731182966159421,0.600873332587839,-0.29280458265346176,0.139302500628066,0.053743043730494905,-0.2017366969432998,0.06815636702133111,-0.2972866922065378,-0.25128375554410837,-0.6577393070226364,0.21951732733460594,-0.06641583250764142,0.19250606742225304,-0.06782654648055034
,-0.04307390653801629,0.401555616167134,-0.1630136083007174,0.05087785498200331,0.2917153392187895,-0.37864744949236445,0.03867417510196621,-0.13125045881394243,-0.08407182343688079,-0.4136513655354212,0.2828185479943255,-0.10474052315058621,-0.05841697927933795,-0.11522319595263364
,-0.3095839861290607,0.2642552376399878,-0.18879021676601512,0.05030396896505123,0.3835009077940835,-0.05935923589236005,-0.07997105721648669,-0.10820349798183519,0.06673985809486618,0.23554539296041282,-0.19569442634000164,-0.10805529533342036,-0.01939718240143181,0.0957595139128097
,-0.05875233061160809,0.21251238667967817,-0.12440387275796569,0.1677274253656339,0.2455613852568303,-0.18497892192336363,-0.11945006541315771,-0.1253635445485224,0.019823805927884908,-0.18279061214172831,-0.37828799829158943,-0.011646909876901833,0.12865820318527724,0.0018167001663209237
,0.22372243497129632,0.07215635352629791,-0.12347936333870278,0.15599433026775864,0.1138006971929085,-0.24327629121382044,0.09835420654240018,0.15772462369554158,-0.0866018059133053,-0.7990469729378599,-0.2637345758493549,0.0593878993783789,0.14871310718390965,-0.05547526747328638
,0.18715663156188578,0.043300412071436784,0.017370933247739657,0.19433755888395446,0.15977598872447935,-0.09157052911414579,0.3984382396946584,-0.05537868796254983,-0.053896249491283674,-0.7840878783625271,0.003161993174437612,0.15054001915305204,0.3701387330569932,0.06068281426211434
,0.31498818456871414,-0.4236408463587923,0.2979579565653356,0.23766977235895764,0.3265655703904651,0.28075051985957805,0.30494562640126144,-0.13720242529773427,-0.10924551775866695,-0.3226954875038018,0.09852731289279756,0.30825653139213427,0.5367057723698949,0.18942637645050384
,0.2042493753773378,-0.3466593370563454,0.19836712555629432,0.0044568297876886615,0.2429502130465534,0.24669312172670269,0.18997714451295328,-0.15220118298967125,-0.11876470630012136,-0.5572533399074884,-0.036567058862630404,-0.10356568985047147,0.3199195290238395,0.04762908691871405
,0.20083014352625742,0.4333774807214834,-0.09061293997478405,0.22114930358057036,0.11520657472165147,0.11683366236668212,0.0795499329964901,-0.10249283727476256,-0.11120648852022055,-0.6197488196135976,-0.14073646472987797,-0.12168638594928016,0.07287732505679811,-0.13235452941462775
,0.16666407048775916,0.08677738689963115,-0.13502527356015437,0.4646379282783242,0.11084181118136212,0.23838612343511453,-0.12890653819482592,-0.07888555747060963,-0.19294460414161713,0.01035174513746241,-0.05358397526904413,0.03781686010306017,0.003536310112703176,0.01024382253871521
,0.024424059526217668,-0.16041843646946602,0.05601416132036531,0.46481869728776065,-0.14583077802354483,0.26811844283336617,0.06232704001154443,0.005868010171320752,-0.23207390120552787,0.21381694573963467,0.2578503705578571,0.011862319846110886,0.22981553210382494,-0.004318814628405903
,0.0800655438780206,0.2726313075585735,0.32776627138577547,0.04567687010007119,0.040471368882966624,0.17171159662874455,0.10384831948008176,0.021092822299111084,-0.14372189116849995,-0.19284895972016142,0.20241891153006597,0.056958748847587094,0.1999762839219878,-0.07705079188282266
,0.3179656530597198,0.09684408793151086,0.22406633247344437,0.14368257733836767,0.08228372981540488,0.20073985739655073,-0.15452350551256286,-0.06544101221627255,-0.12102568407978964,0.010102608278427913,0.10258521982982852,0.2394665402824508,0.16611780203634444,-0.11760787206608336
,0.34940742240343114,-0.11193409454955869,0.03709198943487438,0.0034725487215001693,-0.15056168841680756,0.2860836333676037,0.1927159976713567,-0.04293776761243548,0.009404577653542261,0.6543713913144346,-0.014105117063532265,0.0288488025518396,0.03481370192144465,-0.11272787598821224
,0.18139277474482096,-0.09160539920959493,-0.04529403282189188,-0.0700107014742429,-0.15548831686493442,0.2415955771828236,0.20207022710542594,-0.018658923994113136,0.04714197835712024,-0.037742923870370315,0.017504294161554544,-0.06975281402592444,0.00776779091164677,-0.10677077939920628
,0.006470507658330515,-0.1505567654541182,0.11471175938785094,0.054976438733634635,0.3269831970868305,0.33995358774038775,-0.13219602038019115,-0.05516535696121638,-0.08503448083162585,0.16143353820585168,-0.11274557723490959,-0.22059043782968163,-0.07924627899209133,0.023447829602792233
,-0.04744938900469808,-0.4900701791745263,0.12439683448853696,0.23051657187677968,0.31423151080748235,0.2769986316484696,-0.061900122780619134,-0.0589426964471585,-0.1936232039651728,-0.21237089556533204,-0.10510898252221916,-0.15699556795199632,-0.08673586404165677,0.13226026217632683
,-0.16823478774026399,-0.15426194666166915,0.13272666311807008,0.5066180721510186,0.27771832617265596,-0.046763092098142306,0.14350802677389357,0.15680887761107806,-0.1833253881897663,0.027178191565393684,-0.18535558497429286,-0.1925357920900846,-0.08403056102745263,0.2958672302717754
,-0.2835316370758824,0.0590412872936676,0.373328032419106,0.07713480615594946,0.04791723547281629,0.15280005947424197,0.06432008984915251,0.09265222675527798,-0.2289789747425749,-0.038360586660749305,-0.1283060290013037,-0.19279053782256417,0.031993008909896765,-0.0110116387138569
,-0.1959647129078962,0.3876189236902322,0.11504723758630676,0.07161805018616758,-0.11187058891331415,0.31857750726544465,0.0016995084231524325,-0.11808700091771195,-0.02471056349740653,-0.02994387836963913,-0.3291734832485447,0.04550758418961829,0.21321665705515994,-0.18304018891764648
,-0.17166409080870035,0.24764098604780435,-0.15987001149092872,-0.028773369742751662,-0.007232475639781168,0.08729937707085818,0.0715977027022339,-0.1087420849467275,-0.1276834831200609,0.052548593009635304,-0.3117589824522117,0.10376815898859983,-0.01158029662609087,-0.07255764847724655
,-0.1642408821157577,-0.03404975144771794,0.0016984970167037306,-0.09610941026126421,0.04488539413461376,-0.05426956385856953,0.16632546625060193,-0.06745773660287703,-0.2989711383142616,-0.3842321040163827,-0.2693416906683209,-0.03373897510271079,-0.08356837677546329,-0.05253640004126848
,-0.12352800730078956,0.11384623083520344,0.0700182504574003,0.26505057715941316,0.2556701269431156,0.009782976616620642,0.3353103078198929,-0.004221837712711175,-0.10185292610122154,-0.5407088888835179,-0.24761671979887478,-0.23392029392763908,0.11360272535115865,-0.0836058397703939
,-0.08745822669799357,0.03527480148446323,-0.06066541162147036,0.27473552915576416,0.08134831963260068,0.299774294015456,0.34834480805027906,0.15319331921154797,-0.06479421310711178,-0.6207342432124862,-0.12128597185052002,-0.0486858166433893,0.11660509353292584,0.06581541496497531
,-0.13665929344535946,-0.10314614703100793,0.0027300846803758193,0.38722706907066845,-0.07736897036871151,0.1974504085851715,0.04807628728666246,-0.23137331536863057,-0.26722103689094495,-1.0072106800357432,0.04218578672431582,0.05177436649566026,-0.0346889148497122,0.0812126680071572
,-0.45861315342665465,-0.09072265001430667,-0.13116007237215144,0.14519865771731902,0.09234518961867849,-0.04924886779481119,-0.047317466563465534,-0.2904699336343917,-0.1848538654968211,-0.34768302685963864,-0.08789671920309888,-0.1999600722691871,-0.03932286597513234,-0.06197880407155065
,-0.2825883187464924,0.02011872675304633,-0.2742079250282737,-0.2688950047587411,0.31688833912136255,-0.09204546842234347,-0.004353240422666663,-0.10563755645347334,-0.0628776434653599,-0.2804946666148867,-0.12739695261832837,-0.30987811113350633,0.014868024589125289,-0.14459276241069052
,0.17985256350381526,0.497511582353326,-0.23903959106606612,-0.2382298550143318,0.27647056168880324,0.11995388157754461,0.012348746867886973,-0.06919496311131167,-0.05098551642175337,-0.28467822480054567,-0.006455129851005419,-0.005283737784684313,0.06431687525973777,-0.05412927231587747
,0.07639870392048803,0.2818735003085263,-0.010084972604679386,-0.2353552628901727,-0.028157386990090252,0.01819897683062078,0.4683981575861817,-0.01051588384765121,-0.01804505395641983,-0.13545780788925854,0.2230840871827254,-0.06804515002185448,0.09616737085574167,0.09024835678010563
,-0.03655236075987157,0.024869938100479855,0.10374325456895797,-0.06359445807860774,-0.18336489473830997,-0.1263905393190055,0.06516808615991038,-0.13230285875845726,-0.034430211814643306,-0.18135221386800018,0.19947690203446455,0.020747916689341565,-0.04138574674317676,-0.03267076829865978
,-0.11306483751960221,0.06500351974213288,0.0915216725294362,-0.0621744400511739,-0.0303289066095859,-0.2556140545526353,-0.08924060346038348,-0.0891741518568735,0.024720468673651637,0.0026718593653565653,0.16064073681456256,0.028769993294644504,-0.04741344945491688,-0.20312321567417224
,0.1616617725498427,-0.17421690526441586,0.2494324348737485,-0.258174572502986,0.2735339101706273,-0.07133155967498792,-0.07093090217932008,0.12915463938772037,0.014804051148733349,-0.39236127057584924,0.09771832752110715,0.03600867797632371,-0.0409146795047121,0.001341770916632564
,0.31506664716621696,0.1588481358839606,0.1896751963149995,0.12519843679591033,0.09604547607741966,0.2773655783076076,0.01550555216261183,0.10139612506358665,-0.007118463213627347,-0.06079007124008015,-0.030983908417198752,0.23484148803128782,-0.04204193972543401,0.11875652633258338
,0.34161409368751766,0.35685664199927003,0.2065130465208683,0.20069570239304677,0.1981949574609251,-0.05811604142345509,-0.03787505168667632,0.023309691280996404,-0.016865090200756532,-0.33163680163681464,-0.034170808389379706,0.11791566798529417,-0.11160143412010194,0.19834861753228586
,0.07030409382854962,0.27610414132021355,0.2476823817611923,-0.08734937430533804,0.4148831375186569,-0.19322626996862524,0.05142183213274055,0.05338334378152063,0.15042378262939948,0.19283455073819494,-0.12568939891897551,0.00014905917946551078,0.010405973527464543,0.16595055362897168
,-0.1975221078791848,0.07987419884538369,0.1969537695061984,-0.0797969159211123,0.1746337879900913,-0.1721691624021479,0.09978611665592511,0.129736584126101,0.0669814690617247,0.07799979837693348,-0.2554843941724189,0.0763021379633587,-0.1979872849905203,0.08410926409757342
,-0.15482917961736045,0.03020923613410368,0.051287471360821145,-0.2793639649281505,-0.09680065118692024,-0.10480618885514732,0.16722273702802914,0.2103533764885945,0.050519258961317634,-0.3855483751686966,-0.1484785947488462,0.06838363626860786,-0.3202073652924404,0.06134666640726241
,-0.1585504892191222,-0.46693725117603296,-0.2988173603443249,-0.7418873824599702,-0.4253642453530992,-0.06166670633535409,0.005474463794235557,0.027210936619834546,-0.04353457597108775,0.14284421610782738,-0.06295824504219186,-0.02837176929461707,-0.20179859769651776,0.04604610031491007
,-0.08660996265953136,-0.8395955501418907,-0.32796870454835814,-0.5155117006555401,-0.42592492485518524,-0.2105701209750704,-0.07679135466488542,-0.15544020954697518,-0.1794172133180932,1.3029666161400848,-0.25435364310303016,-0.01525913041697142,-0.0025596585310030135,-0.12373912125301176
,-0.18714621545635862,-0.8285145172957676,0.01708868000932414,0.30499640173932846,-0.05016954910087311,0.015773088489476523,-0.2939568876890372,-0.12184689178789272,-0.1487749280322647,0.6183955555088032,-0.08107375237558752,0.06686650183967585,-0.08690310520962549,-0.21878067149067906
,-0.22675488080297024,-0.06126950075541037,0.03236045022417183,0.5890340092061462,0.035750375844074415,0.32612705309229084,-0.1526441504619362,-0.13279562053607646,-0.038447350011745186,-0.12670732206835136,0.2017516031306802,0.03322127652066956,0.2591201478716092,-0.16001865186480557
,-0.11348504101471053,-0.033305771204877696,-0.031329693034400724,0.518139172235556,0.05492389521651901,0.45765648782459545,0.047153613045413885,0.03988086628407187,0.050490929275098795,-0.4412740912019077,0.12970030599961688,0.0669829754816047,0.23961000895839835,-0.051254596536938736
,-0.13307096999785098,-0.2957539101126231,-0.08250518224405883,0.06045044548141365,-0.03219329509305622,0.03502818259822129,-0.029485143629112365,0.22451238658092623,-0.2005659043743949,-0.11718135404402351,0.10130950763115637,0.004031401231088707,0.001129525489388022,0.15833227884249262
,0.0037127057865836235,-0.0025144218547200124,-0.06476868710150435,0.24165858151949643,-0.31567099045783614,-0.02553254098639028,-0.07684580902407966,-0.03705801113865893,-0.005459417608455956,-0.32670766851069943,0.13824662664750337,-0.14301462051807792,0.07909867839539622,0.07219357421018213
,0.30950680084613313,0.44268950291349884,-0.006339110227850358,0.38129066894510966,-0.2545896033354222,0.07257082922590527,-0.14822446244943877,0.012452937876603917,0.2614108727625682,0.180349468472028,-0.032774481935532895,-0.16968999791491493,0.05986223193330453,-0.07616184031675186
,0.23205698238391193,0.4681487034517931,-0.05119713147020225,0.4088695132501179,0.0012400066319006634,0.04879457496890077,0.047868300234602666,-0.0974247404525855,0.1871705358761078,0.5461278029098916,-0.09210878738931691,-0.014678215376741063,0.2682344243882817,0.06779719109859063
R,0.16246070455189338,0.20300615443880946,0.016206575746703807,0.3414668946835935,0.13680157370896184,0.013730686079493685,0.11084851196357633,-0.18237280430154768,0.22912650392504905,0.04254409971864414,0.0014708787128622628,-0.14090616873191308,0.17947467524583838,0.06769571840233408
,0.1450477770651837,0.0745718587930157,-0.07976306794982706,0.14173682470391433,0.2509474318127902,0.33852363187749757,0.3164422801488361,0.010587717760306445,0.2721592853980143,0.100991652859039,-0.0010544809862509136,-0.08269818436366907,0.0609690523865762,0.03711242325912886
,0.15224858906195057,-0.19019812752667964,-0.05102070957897596,-0.3309676324068028,0.1411293063945536,0.07924329397524986,0.32037250195036376,-0.12130525138394947,-0.09793937739342286,0.008208489708155374,-0.09994558403254801,0.019848623078359044,0.02312722443777242,0.12161854286187192
,-0.016008891606033856,-0.17212853300092654,0.2001113223233756,-0.41784538195136506,0.3925272532724064,-0.30376174565413044,-0.056262601601382634,-0.30615834205814857,-0.364787197087109,-0.6741821319407013,-0.408658140555101,-0.023728589009048857,0.16264220850392103,-0.01173674078718051
,-0.2527649872985571,-0.41575995092965884,-0.11977533462924857,-0.46576574155813677,0.159521139461216,-0.2149910082476901,-0.03668494068317148,-0.2779199874873004,-0.3545841448687694,-0.6430694434537539,-0.4362069048005133,-0.17330847065929872,0.06394986658473409,-0.15429866696766467
,-0.24993108212597448,-0.6491452546235557,-0.2721740191282591,-0.3002400034944138,0.13253078034856675,-0.23642819378865013,-0.011666331627944606,-0.17188280253540858,-0.31260231979827713,-0.2353262799963136,-0.3466819650951963,-0.1810287739625023,-0.3206230018242532,-0.08129061436746693
,-0.09657937858581238,-0.4910505829573831,-0.251192027616408,0.006187878842372368,0.24097564409749558,-0.21880961819909256,-0.059796113486895466,-0.06368438009771032,-0.37909146299408814,-0.4221687172446451,-0.21061018423685493,-0.12040376215549427,-0.20713201427251954,-0.3307603604492557
,-0.07863278891806529,-0.5927179123102444,-0.4386092992448497,-0.15024327819238986,0.019612104193836584,0.0908198389783877,-0.012227274194127969,-0.05624095495183199,-0.258936730035111,-0.7618960555473367,-0.24576584411231456,-0.14899023503349387,0.21468068801938298,-0.6108501603291159
,-0.5401194887998102,-0.5173606856355918,-0.33903945727259,-0.40343718414860513,-0.10284352818875889,0.23472004075866504,0.04250171106249642,0.02362827121781984,-0.25999743982357987,-0.3922063373626588,-0.2972823117011282,-0.3273692875468574,-0.0037744098207523487,-0.43491605764735564
,-0.5263238763502683,-0.22911460254923616,-0.17019347396230475,-0.43094817726380485,-0.004091658180189394,0.012718151160574735,0.03766726600889644,0.079464561398455,-0.2008764626951682,-0.23570238264242882,-0.3046905921094985,-0.1491141592708949,-0.11528019609255401,-0.18007103144247968
,-0.21758327870069927,-0.013209541679950828,-0.10580459805209973,-0.23206156622398666,-0.05595034964616994,-0.10562769374875561,-0.09611180083685315,-0.1301700014523938,-0.05861834960048738,-0.23041647208665253,-0.14370833008713796,0.1543803263381698,-0.1898582971814154,0.04630511549327896
,0.05158209112860216,-0.1289252914581036,-0.011888547259214718,0.0772319726565641,0.16480593107220948,-7.571859704172369e-05,-0.19006520302773006,-0.2450976760856161,-0.08502148164562365,-0.053449538890697625,-0.029473499557476874,0.1332335027031557,-0.051267803149428165,-0.030647031410679645
,0.18043227151004165,-0.5010933879476684,0.11171155610796038,-0.10613263736172196,-0.16623746760038988,0.21351803235622516,-0.10773904115402234,-0.20188542579241162,-0.1431889561422177,0.767797570199726,-0.10312938035264624,-0.005319052684276795,-0.10870486977640126,-0.08224765731453944
,-0.05440446927013077,-0.20142812768156138,-0.15690003468267427,-0.09852695172916935,-0.052499193713803474,0.16326711382873493,-0.03892300036321006,-0.1788856899404126,-0.24143270114237436,-0.022022168157641145,-0.2636177898935018,0.17809163437889966,-0.39072752988245196,-0.1874899689788254
,-0.08304923038932434,-0.09072286732081374,-0.3693938188880731,0.1332202400714986,-0.23165765198512955,-0.152379782126485,-0.11482642522167458,-0.1609503112384825,-0.23510275495276844,-0.25357044647554206,-0.19097822731251268,0.1259319563209176,-0.44711669200209747,0.009291269317492383
,0.15976903717033675,0.42027496018660954,-0.14615575248950605,0.2117182311126797,-0.08568841798730993,0.03439697164337238,0.12492068826820407,-0.11106966009923327,-0.14141779016017336,0.1074928781549994,-0.13434996068015015,0.02877514263304949,-0.24656240682536112,-0.19044039098168397
,0.22363799750858185,0.23480032448505997,-0.08423779183067845,0.20380944229828235,0.2732419311642971,0.22181903058038113,-0.005991061909072762,-0.011201753277254214,0.14139363448622422,0.6892415899931499,0.05797481650342086,0.10147277162569501,-0.35117731776715516,-0.12970444039643433
,0.038640059897343516,-0.20858067672806377,-0.05828715464672072,0.32281035893455123,0.07415379143286299,0.07571011147773962,-0.1489215324081732,-0.0918317275774331,0.26428361801774464,0.6873289794459865,0.39699088539243327,-0.0512080013279553,-0.07975962485867832,0.1496954860551275
,0.13604509626718078,-0.3776431473636314,0.010372518036148099,0.4267364166204336,-0.3959089540042798,-0.12421208212893939,0.2781855714153832,-0.11692685072653604,-0.06980084770298009,0.18267750275955133,0.009062680449710607,-0.1805853129709271,0.10764936038330934,0.09870969174277731
,0.21830579253540205,-0.3686795747719648,0.13122020472657425,0.3465589039539062,-0.3490077365347431,-0.029151689649215943,0.24905888056630457,-0.031094622432767307,0.01975764563193826,0.1590169109653853,0.053273443292278226,-0.23079780967122648,0.1557468473955845,0.11670352181306774
,0.04234140064373237,0.019505701387300605,0.2543479608381997,0.298673156143481,-0.2133052903707957,0.2282088143489258,0.0337637622994105,0.0856834076999204,-0.09059202139719708,0.45466303199379615,0.2915252259296291,-0.059021265105573886,0.2819849758892642,0.18702741701950953
,-0.07107836029917423,0.14013598290584986,0.15915635260414857,0.3284891771693531,-0.24731644139232753,0.15252083185282286,-0.2295470684368271,-0.05286122523720188,-0.19703613466989703,0.1348190320263973,0.056936154186408225,-0.011414747027966998,0.031734784812534146,-0.12687648371889174
,0.14258988588769317,-0.047029065156673364,-0.15859216674759977,0.16255027548268977,0.05357744401385769,0.0915648239116324,-0.1926767439879177,-0.13836150013071366,-0.14883566309322058,0.14076253130614846,-0.002584848229788902,-0.02619237758029302,-0.04631599458900141,-0.24024933073110452
,0.2733188709927891,-0.43970784139954366,-0.29902353123415937,-0.22446103473844126,0.0595480696692161,-0.0771051616318237,-0.10239975426089193,0.053078159391297494,-0.30453231845950157,-0.13505785991327787,-0.06630601875917791,0.1610764789747177,-0.1623732442136591,-0.23310221138405696
,0.2945124469487378,-0.4513070154192055,-0.054958252377697,-0.5706242140664964,0.08495546245059284,0.09611724687181973,-0.13822810295242516,0.2378560978564005,-0.1762478220530465,-0.11391903458503563,-0.14235548383789168,-0.09955348213825845,0.021379773064119364,-0.11660602733665737
,0.2198958941773125,-0.09437848127898203,0.12451920033519966,-0.23405157237468632,-0.09453362256873961,0.48413443737686146,-0.03188075202208045,0.21040797266553024,0.1889265183592197,-0.07954075583319066,-0.16531862693754712,-0.13287652627554677,0.018466384148142133,0.053706794605199025
,0.1015448662089234,-0.12768018281836854,0.19686319812446285,0.40168852669512445,-0.29217736424963003,0.10620033150487034,0.23637909832043882,0.029312021426049245,0.2896840649374854,0.06528366980536694,-0.19212161906518402,0.07949878611195658,-0.1303553406887656,0.07788995268901965
,0.037152960829604835,-0.048947706679501136,0.15102862557326696,0.12861657639696636,-0.15875061766018975,-0.0888871881691742,0.11380445240427549,0.07338987195081188,0.09325393995523606,-0.18851507260390452,-0.10544959333778342,0.038793597245076736,-0.38736450266387695,-0.04398998143500885
,0.15674788386152383,-0.29762735579297284,0.013914576373146196,0.16139497134185468,-0.013384311918791912,-0.12995993702938516,-0.011870303422656792,0.07120632410692244,-0.16310123642741706,0.29182348422028764,-0.14559461359036405,0.1402631569979303,-0.3264837460601401,-0.10940706168230749
,0.09390139755519865,-0.49415250165687985,-0.09006863380103178,0.2504304506637615,0.10657370072768335,-0.14931623405298375,-0.09617543052107944,-0.057612726631573595,-0.04587557379439276,0.4996086363651111,-0.11394907784005727,0.13400332406156157,0.0247096905212989,-0.12101537140549118
,-0.029598481626202742,-0.28841314212869973,-0.09983395471427317,0.2798534009735776,0.2010138769887165,-0.04298009626721505,0.020579951591786536,0.1542413171894955,0.2676950879244707,0.653023534935496,0.03691073876614798,0.11010127311760418,-0.10080843922301784,-0.047376741830375324
,-0.06333318228708804,-0.36415057611876833,0.01588827408225659,0.015716047466580143,0.16202740212441014,-0.22099994928954855,-0.01912798373901083,0.11279462212780635,0.17000411815211788,-0.30635457635454827,-0.04632028539908163,-0.09929685378749671,-0.05803960174052702,0.01345494742913157
,-0.14918576445312987,-0.3244841125000821,0.12929194942984154,-0.1435606848065858,0.03132684253966362,-0.21043457716771352,-0.005552086502842378,0.19317258600304485,0.0001792419262820722,-0.11128483412465591,-0.11953512308802827,-0.19106401706699477,-0.08503417998468529,0.15917636590594056
,0.04774341651323454,0.08996984794388958,0.15454726551672415,0.04035894443561636,0.04146664813717952,0.13350916247233055,0.3674125096817061,0.14821208593604523,0.22576417462026632,0.11108738565392509,0.06024000102439825,-0.00020408566406163948,-0.0742199611624055,-0.12801051462944202
,0.4091488692248516,-0.058189137849956316,0.1395783684604285,-0.17524362805496294,0.06077497630567575,0.08617067319046601,0.13081251663953436,0.029896563261468806,0.34846304179832555,-0.06241013459033059,-0.02987838160604363,0.025951681149525008,-0.07702369941295147,-0.14306502124669418
,-0.005310638537236227,-0.20905725013289728,0.03726561519798837,-0.16743302650915207,-0.17033887038151313,-0.1092132003323949,-0.13574229326960446,-0.21655259474556462,-0.1795180035009908,-0.302022167271799,-0.026106023762869617,0.12947373543193236,-0.13788710780839167,0.12917859712711627
,-0.005313629586296878,-0.1605419627755578,0.06835468739800307,-0.053416506723648366,-0.1451683366657795,-0.257723849047458,-0.02114208403285682,-0.16188720653712918,-0.27700372484391206,-0.19638732546674925,-0.003586878922571665,0.25324731796404026,-0.49049805691035603,0.16905732526570214
,0.5313576499135736,0.02239610939452137,0.10447822621220178,0.27109809886921216,-0.15035106640853657,-0.02775823248121242,0.11665832851153642,-0.17185901644707718,0.12194050239336333,-0.033658793419191764,-0.004609535522318185,0.30486450439939977,-0.30937393312300765,-0.07714205126885128
,0.49090058129763725,0.06902895004496848,-0.026209310303035215,0.021495114322086853,-0.15058274673344424,0.33556880958818996,0.3882345031983106,-0.1517518554365644,0.27375809144691193,0.03590172807666314,-0.017955403890234128,0.23940525056435122,0.03655475499087824,-0.18280587186260205
,0.26144231781269206,0.15200978910738172,-0.04334454174530812,0.039766455828179156,-0.13727831623122796,0.3626707873434273,0.17030606898343278,0.031053144335318153,0.2597341906897136,-0.040514276603276875,-0.05138259485667285,0.14601619275988773,0.47024132640433597,-0.04453716987216812
,0.008210790233491388,-0.06677840522067557,-0.032465500906392976,0.09022052620436367,0.11366221780707096,0.2505920260801351,-0.0041327669240188115,0.0779738869738411,0.07440913370075114,-0.2581385816343498,-0.18295534563375918,0.12551837948373706,0.4812383133321811,-0.07333973475425415
,0.05347755829913715,-0.08435869415903323,0.10154062726729979,-0.04120718952354442,0.1456273561929803,-0.231650526651976,-0.015429723558690902,-0.06379229138032612,0.20087241057749425,-0.41182909256678507,-0.2456647080864583,0.05620140538841952,0.13547346488815318,-0.056675811794693894
,0.09799889753613321,-0.34490762049434665,0.22189265516234913,0.0029174791694847714,0.14874539101147363,-0.18529741274272182,0.02961004436030056,-0.1337101486455635,0.08807905186723282,-0.2885326546776825,-0.0878927042258713,0.034970171980967094,0.17848792937409055,-0.07018813952756606
,-0.0798012653403577,-0.29678960024208445,0.11833094969186154,-0.2416383625952702,0.06598581433823433,0.06912192051849463,0.11460466280722084,-0.10801972769807218,-0.02202503198533577,-0.317870924803392,-0.010083270615333846,0.21872391639006067,0.011706789100600561,-0.059412487669862075
,-0.18209844003565206,-0.16723504027248523,-0.14874077505176322,-0.019186529249008752,-0.14940216886774355,0.35518949974935016,0.21514312272044522,-0.12321346277617494,-0.050962995173900696,-0.8669056380444586,-0.12323156893677241,0.05148058436279676,0.11584981397259092,-0.06452743046816528
,-0.15757183713504355,0.08934505176681425,-0.18261147077387366,0.3328874241757286,-0.1731879703736426,0.47766403945636843,0.0928205956623204,-0.1257824124775981,-0.007231037700089636,-0.5564320576823794,-0.16638630830155854,0.08320718663280745,0.06641300278888126,-0.05521148003701417
,-0.2859950291603561,0.18285917294723164,0.025426459320616674,0.032498451763466434,-0.12392087238625554,0.09466655545649783,0.038046808204637544,-0.2506898414295028,-0.005762041881963713,-0.11754296111150332,-0.051756467517813466,0.026937697698806124,0.020255917405898514,0.12216867371870285
,-0.13899024879957508,0.1727126813992304,-0.1836621651980076,0.0176436074500415,-0.04425539135105884,0.2545579493986903,0.13124753469072922,-0.14789627513516276,-0.16703186958785052,-0.1803707894532345,-0.12037675466673046,0.0331518644784267,0.11349410240663994,0.02554312457384276
,0.1892180698505777,0.252809644270122,-0.17521938992807856,0.06398072695997793,0.3634799618693629,0.3189151798678487,0.16499880797669614,0.03332717606882141,-0.09521570948730829,-0.0001456444679426472,-0.03500983203207505,0.04678276400740122,0.11519440420997162,-0.11261303077098142
,0.36411082391890937,-0.19291619183498007,0.025410176318985338,-0.126317286655671,0.16653076085879215,0.3380069399904208,0.310284893036822,-0.04036469235997247,-0.29262666702226653,-0.2958064680761675,-0.12302645433402075,0.11147809928020676,-0.06562785615489411,-0.09077429450024771
,0.2337193316312854,-0.08621027306424173,-0.07235504066661809,-0.2739682797217441,0.04062776882793223,0.09617874922040037,0.10238395280050748,-0.1915839025160212,-0.26980829210394797,0.2705168653710474,-0.05315107741357965,0.017246641232251614,0.15462370608186476,-0.1506283973463625
,0.08517386088185398,-0.05626185399145708,-0.06641872788653926,-0.1838864231559866,0.23119798277765602,0.03503432918985046,-0.001953715235246541,-0.08146453522683891,-0.04696682627078342,-0.32527674016571245,-0.047657785475345826,0.02779428607481544,0.08099431919520975,-0.07799499170048309
,0.05987044726484658,-0.28109671563034755,0.04172660821417793,0.32368584737280265,0.05535672031586443,0.06572347990511714,-0.24910603907742307,-0.04530220787664042,-0.039136697319921115,-0.4243248505776593,-0.13128188984857844,0.01554059126787708,-0.14391916008152378,-0.004304385198307024
,0.008996720362452991,0.03205456367833207,0.04285099586625642,0.05944953709861562,-0.09778066266084326,0.16452647698746228,-0.1709498732635309,-0.10214515469538996,0.05147099754727516,0.12103145449849152,-0.0884266668638537,0.08295452463273265,-0.26440583677952645,0.04198672248124243
,0.011322509610657852,-0.11060847552414205,0.03030293386876452,0.15736793419213874,-0.12154674070715696,0.25201781405037404,-0.13706491351610275,0.06353016583702627,0.14803924838460986,-0.13818170495058243,-0.2144305916302863,-0.012647792841358666,-0.05250792606793688,0.21648795236685903
,0.2485830763734491,-0.11096788291881206,0.21352889742999584,0.3755012128021697,0.04862021146076784,-0.14454521842895723,0.06707474681204882,0.21431790014664848,0.2037442232210335,0.21942489008629942,-0.09738572142416989,-0.018454270358639165,0.2470748284751479,0.33883873991496405
,0.042711365380287795,0.03273205887027962,0.16182557359054098,-0.10691791670991703,0.3019302664156018,-0.10163872267581457,0.05633429148408473,0.07750821434014019,0.15213664581521233,0.706403490018667,0.2633405204335951,-0.0009222337253762095,0.5229305672621896,0.13932559034466027
,-0.08838420828091167,0.0054797019222204155,-0.0926692202992523,-0.012924900215272416,0.31758002239908856,-0.03576988015766613,-0.041081394719600275,-0.04301622131510772,0.15349680480083727,0.5198619022834778,0.37275243380578443,-0.005073600668373259,0.10504782802843143,0.1890866047154838
X,0.23190187543778118,-0.27867993717859413,-0.1900651146336706,-0.3117279220855196,0.37247158282456183,0.21279374664349962,-0.08781207863495019,-0.16269521661616543,-0.04574363961764586,-0.03938872109278317,0.3130071271281687,0.24259523918233553,-0.04939824923961493,0.26878991117096623
,0.4885773876521591,-0.25138302294477377,0.16005165204801675,-0.36481076989471806,0.6375685253588533,0.18633567128516426,-0.11763117680332745,-0.24881921468814927,-0.041979191212344405,-0.103297629184105,0.22782597834144053,0.032144151276354366,0.2930102495593486,0.11329930053963927
,0.27783253933487423,-0.3358094157389111,0.07790644171658563,0.02611820280192318,0.5333152279541621,0.119818124540876,0.23756192183995728,-0.05745334800429382,0.016960492653393174,-0.1144687503831934,0.12045754371608029,-0.10836291940508372,0.2742533663619016,-0.10868858498133539
,0.018435514546606472,-0.3404762886418615,-0.038284659839155466,-0.16748293423248847,0.24016038089074546,-0.02064068677361646,-0.052271410952498806,-0.17487686046420217,-0.3190590718047248,-0.21634247496903636,-0.1863027101827397,-0.1990751117805332,0.08487612861649872,-0.06006049116576989
,-0.08775482855049026,-0.10202202591799814,0.03824576279128374,-0.24242620492239922,-0.03868489099696849,-0.2701744296515178,0.05899875007130635,-0.15394006959172654,-0.14424773491298276,-0.1606744180125543,-0.2184462736866106,-0.2997474215942912,-0.18691959184618276,-0.08051538139048567
,0.10985884233399965,-0.4480194556186027,-0.09292023936864337,0.04253524360935066,0.12548576105154255,-0.28577724250546077,-0.24504239627212002,-0.01605725600729194,0.016427205840370433,-0.28312088187499,0.10883775985460677,-0.1512977441718027,-0.2724741253928926,0.04581180130989455
,0.1709953955459094,-0.31165686332883397,-0.028089738583537232,0.16393210633274088,0.3004517090088689,-0.14096882937397653,-0.1710759438073278,0.06925044479285299,-0.15235808953165264,-0.29919748972793814,-0.07838418272856278,0.10368988754407413,-0.36134111358742144,-0.06045193533897645
,0.026619586552690554,0.12243390046696162,-0.029357694518504507,0.0621751388198115,0.14860846441964504,-0.250090077455069,0.17797413685849364,-0.0933877593692044,-0.4008188303907645,0.29580831710058786,-0.44200297970571,0.18246324150434148,-0.0816787444520979,-0.13336998889083226
,0.11744557282498722,0.3174997891176751,-0.05046694675839702,-0.02516284421620643,0.006359750495039054,-0.3234149959334851,0.27304904739843505,-0.10752957599430003,-0.3520541563565891,0.17000013686467189,-0.26113680954158053,-0.011275718852157028,-0.016819848309243282,0.03953614174099759
,-0.06077104953331172,0.15690560931026984,0.13438228980077196,0.03897425455620754,0.11303996138588948,-0.30980043505203336,0.08709557692652937,0.008679457726700401,-0.17897800296339356,-0.16168826376608625,-0.05951956831568224,-0.1776639216359422,-0.3228461429882073,0.17447997200488571
,-0.2658164234980243,-0.2204770626226797,-0.03204207456650983,0.12245581716045818,0.03690383197572652,-0.15146655631531447,0.022410545802315173,-0.30571150792371016,-0.398996748620398,-0.2535074939983716,-0.166261197010884,-0.15897086762003151,-0.3516006799727327,-0.06769549141251953
,-0.025056090276517423,-0.32059610209583456,-0.1807718859967704,0.5509354359768377,0.01106187201212273,-0.14158202144805845,0.18068787769760322,-0.2705653199358272,-0.3176600201606372,-0.5728876733800983,-0.08190628548143948,-0.04080677786837565,-0.08533939189224313,-0.24588540427206051
,-0.28026258518689207,-0.11787940382790695,-0.2143814655070486,0.2535975057919727,0.004813214826205719,0.05955518419310655,-0.0749542634685622,-0.15603749942378897,-0.06761359586832909,-0.1362152214218544,-0.08400356584780852,-0.25170932224260234,-0.1415891149341561,-0.012666598500687718
,-0.2740005121001981,0.35237324633417855,-0.1662731728461618,-0.10195637050078743,-0.1600853290591059,0.20883845277438426,-0.035734307969699224,-0.13636698833000657,0.06673809816309048,0.04652456024829871,0.015280951219221362,-0.11504982888944339,-0.2042391451152171,-0.09472824966706822
,0.008707025409313413,0.3886051132782875,-0.16594430545521405,-0.04914012129375125,0.13769309664398457,0.07854115457906952,0.040539530366367975,-0.04229437498189987,0.05979039383625072,-0.3626885585663981,-0.18667891393728447,-0.18001146138349683,-0.1462600676898238,-0.054199510880819105
,0.12937837878348676,-0.014085372019833437,-0.2803232667466092,0.2449508389572667,0.19758083740021046,-0.1643538706337213,0.21071384802757434,-0.043908631846247846,0.05312636107020628,-0.9191526967237144,-0.11681570440522979,-0.11893908520287559,-0.13979924863479787,-0.010291578260297385
,0.2037169163820381,-0.059532617846178505,-0.2966572595930733,-0.04003489117324616,0.1772675318593233,-0.22660553720243878,0.2040527139302565,-0.11591527215158476,0.2679841899436075,-0.004736962863042728,-0.04930036425377036,-0.07465431577102172,-0.0001356269531124326,-0.03782042242447039
,0.3224085043236394,-0.014567657989983444,-0.08429239553326848,0.06040214466273327,0.5755278782829927,-0.4094055920661394,0.09052896150872233,-0.03573185746361977,0.2636789093404298,0.6157086215879635,-0.19011610497464607,-0.054526049119424755,0.001274794173817911,-0.026690677822115545
,0.12734618794575692,-0.21531253353287153,0.0640685531219218,0.08191972276642386,0.253161588205928,-0.21092666633517254,0.29377021557271116,0.08118075332410785,0.1886718625871834,-0.14813512033702841,-0.10946774328397099,-0.14004895316952104,-0.06139194404156259,0.01925814192493805
,-0.1354979351270185,0.04889853177250053,0.0943349733465283,-0.17453372438016712,-0.07620891204725493,0.1051403516932046,0.12987064178086755,-0.013298935357195335,-0.17358231462436458,-0.145489066161901,0.1176133923474367,0.02750307974841846,0.031457671675596335,0.06945467796464332
,-0.16688714125545825,0.16936959608143476,-0.136358179040787,0.07758564626449643,0.32919547262671955,0.05125653985985446,-0.06678167693883422,-0.12729827582721193,-0.3058497902427902,-0.17915149907351077,0.07473007354305346,-0.0548018896017232,-0.06413086971056293,-0.1430929396339801
,-0.14531203401855486,0.2371189918776724,-0.17188684607302224,0.007413658489832323,0.4560004341519662,0.14812311653062227,-0.11390248826198783,-0.15784773147871015,-0.06338556988598304,0.2268271663176164,-0.0638756446912659,-0.005826296540760905,0.04711196034268629,-0.2506125605041822
,-0.04390044572320658,0.23053967969520628,0.061530153185401025,0.14660676537459902,0.14844879547783724,0.19970893383520144,0.09192236730112037,0.006994143883489897,-0.029362572612108905,0.7122385775627188,-0.036739482527524535,-0.06419591153672541,0.08915902921852259,-0.1456899584737978
,-0.026598800653070683,0.30128287104936824,0.12111917073205081,0.04647481282120088,-0.28354691775301155,-0.2403226621262885,0.02094111820791436,0.04462047988231777,0.016839458552034108,0.30425472050734026,0.026878024998170363,0.11525406076484504,-0.19118968144396617,0.04383210015726536
,0.005061331378033325,0.6682219082667425,0.15239039155310963,-0.03416927666536274,-0.3252064246943927,-0.33751684734902565,-0.11917806972091124,-0.1783339248682021,-0.055022730945437366,-0.28422009400384,-0.10842226924290259,0.04520186836521464,-0.31103552812820723,0.12480575170586256
,0.17981751087706735,0.031769444562831546,-0.014911522678187236,0.36950237169914174,-0.025951392946329033,-0.1393193408266675,-0.09221262385651907,-0.22380836509779983,0.11335063701535511,-0.40433515047292606,-0.18626162903221544,-0.059936652686377434,-0.17727231623744283,0.2172033000406391
,0.5715227976719821,-0.04477756711708011,-0.08518254540661774,0.05330889385350414,0.10816640896814803,-0.12852431890622482,0.010531344439589878,0.028222164179289484,0.14837113818262448,-0.3104746071377819,-0.17350781871624996,-0.07530616522745408,-0.03987198912741364,0.06982370252143678
,0.4677120048024677,0.009891564536368922,-0.25017981684083357,-0.22202165152138575,-0.06208752853425118,-0.052756389385221994,-0.026372928144894385,-0.088955890345497,-0.1299994995973834,-0.5365694771795564,-0.06816086414677895,0.04477952426333131,-0.05732981536418223,-0.15022693363048711
,0.19586397011586876,-0.1024221276269567,-0.20557587275956718,0.06414916866807169,0.3965444559591206,0.005186688808090774,-0.09431070962039251,-0.141982172727149,-0.15079597786193683,-0.2427932376740802,0.002689203268604513,0.11675632224652557,-0.07421230460810964,-0.1281339085765677
,0.059985612791698145,-0.11935922937355009,-0.1408624616121961,0.10169295864316857,0.5465344129282348,0.004896148504558319,-0.053682137085787555,0.04655187671171126,-0.1609823566728872,-0.1328726269243924,0.042922043791631274,0.27426162642132446,-0.22713565977725864,-0.10283772539766768
,0.08697100857382152,-0.4208824468122426,-0.15142418993245357,0.24247775018061013,0.503486812137688,0.18918430964813798,0.30098333554593965,-0.1921790782468424,-0.0013973695376283805,0.03375855499013463,0.13041725683278602,0.16015838874043187,-0.09984350961668573,-0.13358343720951488
,-0.005384766658424968,-0.1702270407445107,-0.0771979913998043,0.003366656678593452,0.050023662632917756,0.13647969092681791,0.305717784192451,-0.2216363398847981,-0.0014664617006654795,-0.14456869622428128,0.09785772468320084,-0.16067179430553216,-0.10356189322876265,-0.03965434667080758
,0.038568560553657504,-0.4237159841903929,-0.008616476867011003,-0.1740268501891607,-0.34437527418002706,-0.22954595716223383,0.2511315066663779,-0.13168761494755518,-0.22746088263258982,-0.36699007777595877,-0.057382361855026445,-0.2013819497277672,-0.3343656573500596,0.050527689185852834
,0.16360327384281448,-0.32121907627080565,-0.03170286182485633,-0.0021654371856060987,-0.2252464795233945,-0.18491838269148425,0.1773691168625122,-0.12730861264111795,-0.049114697520688755,-0.3368157684454863,-0.13512249360445372,-0.09222960302266049,-0.2612342221604917,0.21949113490027372
,0.1194197434164835,0.38649040225809866,0.0220916563842617,0.15532245400812342,-0.07304900956809174,-0.16842965463037016,0.00730955121855958,-0.03265797694443204,0.09908567815350622,-0.44768305381989937,-0.06422750688433222,-0.13681085149825895,0.12466411411739431,0.026236331485091743
,0.11639976205474166,0.10985737027503144,0.08693871539440266,0.12715587556336638,0.07977587087698315,-0.14279815301098212,-0.1953859616822496,-0.034288205556882605,0.1592945725620093,-0.20800711260015467,-0.06577485593704516,-0.17913322980219196,-0.1661456435233083,0.0835638617312286
,0.19494097169478625,-0.04550839688363397,-0.043617947736533984,-0.10064926445700446,0.17359342921746054,-0.006088294817089182,-0.0633783205420835,0.10154732432343717,0.10704152140232139,-0.07355453684467542,0.10745075466737444,-0.036633196167621104,-0.10599972643409636,-0.060618674265344466
,-0.0003394990055123444,0.013091329352817826,-0.0714998265285133,0.17543525789009973,-0.07579306725037707,-0.007840034825256047,0.15907413057757386,0.04813604028657083,0.08659880960514789,0.06860778089511574,0.26896441456272635,-0.08280979291213231,0.13983657825841292,0.0022130264360673054
,0.008877708269960203,-0.2558370457637291,-0.038039424405500115,-0.048130994967919914,-0.1161303875570186,-0.2894798153251461,0.47225478687191713,-0.07432690507703257,-0.02205082438523411,0.002314478495170091,0.08583290952398101,0.09143457052252767,-0.04894315022710153,0.012127602115818042
,0.15812706572664348,-0.30490329289057083,-0.012087607751225981,-0.061431997923193524,0.07999886346353419,-0.16666493186735973,0.21461623103162225,-0.11265032799540718,0.17755714962462996,-0.3925569898686488,0.18621148357529932,-0.05043881134992636,-0.15017624077027447,-0.008554699488811664
,0.07689004822997834,-0.36993263645596675,-0.07148560006435813,0.2762736814418568,0.19492884572410407,0.03858898166683033,0.23582005872562975,-0.05825002410392374,0.1608973547769055,-0.32302794108878224,0.14620983106779878,-0.20356998707546606,-0.006679134020075194,0.03546476118195111
,-0.004822013453418781,-0.013220519871667424,0.07948186401636273,0.39905732422987444,0.6275915017986251,0.24483315964447983,0.17119491658403346,-0.050016893570946415,0.025120564480203326,-0.1889200691421674,-0.009829842847787469,-0.3340194817407511,0.05808057654792609,0.1742210332778823
,0.1244062747796046,-0.153910547212411,0.09388650833435934,0.37992344074188866,0.19516054296542168,0.31855428784437845,0.07794887108295571,0.032811205660519406,-0.0060932292372402564,0.13509391728055603,-0.1347072646439947,-0.11477203828585994,0.5081780252470351,-0.014083069586131
,-0.053898311312528376,-0.11722041366871064,-0.09681658114292145,0.12012956827650828,-0.08615671352249782,0.010221190214359596,0.04992263725748146,-0.030406463651893485,-0.13420440386490073,-0.03354646859867261,-0.0759041002446213,0.05405970848967056,0.3471852662935341,-0.22096603320491076
,-0.027555397818458102,0.23188980192331193,-0.10419376280940092,-0.04130159214461979,0.14395398902063028,-0.39223671516918257,-0.029625767693912685,-0.08177676681089635,-0.014776168846805087,-0.04267506946112625,0.14067491214919606,0.08666718147628526,-0.11330765742388405,-0.29319046239626056
,0.0985177068768174,-0.08054909595632331,0.03742792675180366,0.19650855884221496,0.47311197205651756,-0.06025176797035471,-0.18477583087572363,-0.08535928316968439,0.1078629791037864,0.30095114271426593,-0.09292539478504296,-0.09876479525385709,-0.2969229016515301,-0.20474246825973974
,0.01759693517569695,-0.08740181578952665,-0.10023522226734441,0.08915448853554227,0.1280802031662288,-0.03440976295821043,-0.11329515897058705,-0.10998003812498071,-0.05337858937706275,-0.13696916675377493,-0.08769025104297805,-0.028382750108592848,-0.20231508527388126,0.1233712316848212
,0.043106192856261896,0.08540615370784814,0.012566330470138847,-0.4589509938315031,0.04285263886731392,-0.11565821003332216,0.1344139783854945,-0.05865681998249228,-0.0795622896117285,0.13740161819722377,-0.1707974019958022,-0.0804248611566747,0.06442739006702392,0.01036363652692895
,0.12302605279456319,0.1565832691756996,-0.1237171226748645,-0.26244605852400216,0.007868537148175628,-0.16541892430845206,0.20966148623138978,0.04172615462396199,0.04841561329651943,0.38114646508650685,-0.09423249211083755,-0.05196920315161223,-0.051011508968147184,0.0903801661515734
,-0.014509678113860754,0.19968114139407792,-0.08946487368287263,0.2418208795084413,0.3062290175445701,-0.27606940111862016,-0.03581237892741567,0.23613878229075042,0.18779899622722876,0.32981268747990733,-0.02521761565856573,-0.05008093814316134,-0.1572442471006156,0.24184176501373666
,-0.1773543157724366,0.09037369429192275,-0.12103408203328951,0.2034061125728971,0.32729990630483435,-0.18090087724358864,-0.07693616333484325,0.14187759303865463,-0.04635117655750686,-0.1853635816339303,0.09560667476660906,-0.21149444260139993,-0.375653547105664,0.06424672061088267
,-0.08942443780071367,-0.4926684548855516,0.03747331938511933,0.24792847730495338,0.04861557581856544,-0.23872635012273968,0.036144101659897565,-0.06540327665895944,0.044264401202744115,-0.956292279574267,0.28344798607972643,-0.04057263463879581,-0.2739623214577866,-0.13164086115913035
,-0.11541766989846071,-0.29067612696306155,0.0707349706345823,0.006418603601274408,-0.005866762612381165,0.05646162143742295,0.1389665406240829,-0.20993929390933358,-0.1016853800013319,-0.5036091318850114,0.09615878731948801,-0.04512109921654618,-0.010743844096796337,-0.1085380640588304
,-0.2212836872001772,-0.08522020499383144,-0.05714421250383412,-0.05004084202838318,-0.1684224310071476,0.09127122077836079,0.1903617790373777,0.028170614292075607,-0.21875833153816937,0.1266783737842864,0.15833240066949256,-0.093550327876838,-0.17795998473200056,0.005419927407145957
,-0.15375254394283489,-0.298786349090208,-0.078697156082415,0.06234280274443718,0.06425221151909796,0.06372361597783417,-0.05809485095421334,-0.1672146832797831,-0.07898907759167272,0.009938539938801422,0.3473481442286306,-0.11251236064827377,-0.28122751109235034,0.14966888680846505
,-0.2663696226242556,0.11552286124486993,-0.03893770852628487,0.11223300537795598,0.12890221485279574,-0.16037101065219053,-0.019230164823457477,-0.11684725541194317,-0.08887791031589105,-0.29606480087026443,0.3592765688709842,-0.13449083733045253,-0.03624563049326569,0.09787784264164265
,-0.151631064546342,0.3257669533932245,-0.12148509652362081,0.41641360791330245,0.11932413441113707,-0.08956470012741435,0.2870385605529365,0.160657957906819,-0.17271429186599613,-0.4124574370830884,0.18984337825234704,-0.06551959782505413,0.17684671475180191,-0.13361379273088847
,-0.06668580645853318,0.08974756574846988,-0.046778137560903814,0.09032139840161384,-0.09966603444797165,0.12291521993188845,0.3722302466929251,0.1699362822863241,-0.16958482563872174,-0.4871544061577801,0.03903627634820061,0.021265549261468824,0.07099215226729198,-0.07791601697589741
,-0.04019275946343443,0.36238258020898445,-0.2567779970712627,0.058290509659847695,-0.09554314161160983,-0.21719696336487263,0.07676610734436037,0.1615282335763943,-0.08023286391540678,-0.46375860990811885,-0.1911056115719428,-0.06889419202731147,0.11019889491733766,0.09356070310872673
,-0.09859088585833942,0.6456418872763335,-0.2132673642167579,0.10322890940456812,0.1919169450267438,-0.4276930646152772,-0.008825624599894426,0.07950497272533771,-0.04091184411815779,0.2801828778007287,-0.11548592912240815,0.2104098994258755,0.15113697576363172,-0.1718234060479231
,0.15129242549337965,0.25344444720945786,-0.008567592023955113,-0.08313973317829283,0.02753801687751081,-0.45905004535754224,0.12659641612254774,0.21291952242045384,-0.019861617023249793,-0.017609201461148784,0.06903304957041796,0.3926121576415534,0.24431780270148357,-0.2356075909632687
,-0.03364597645601228,0.07454079882822419,0.06993475179272605,-0.08550279686139778,0.28555768650564295,-0.020214342258683023,0.25869064064105446,0.1786863430016916,0.0717978997744456,0.2449315164621451,-0.10531206145350987,-0.18420538815269583,0.14772888656550884,-0.06024433359066607
,-0.2835402046774438,0.18402322395776877,-0.10920984375869776,-0.07221992719963019,0.273000041052764,0.0854912233132108,0.06324704316303323,0.09185037444782554,-0.0978483233902493,0.4983205135779429,-0.06621952127926699,-0.350221369509985,0.13106357951245207,0.11747513397073302
,-0.2265424358776289,0.2823273067527399,-0.04101403419356839,0.0580772432379213,0.34473628929964795,-0.057932967684404174,0.050514134009161465,-0.05672708795637029,0.02333507093128749,0.20535936449735323,0.1006060211500838,-0.17191859724111833,0.1426914724512588,0.10096585719336094
,-0.1740755739949845,-0.007210975648881708,0.18542660468394612,0.28656610082013534,0.42551781469050537,-0.10825276654063043,0.1820170328452778,-0.20279752611910354,0.04325661343999142,0.4234205783925395,0.090712028692042,-0.13314785231247186,0.06574226298926715,-0.03211940886133874
,0.017961722840176546,-0.005825498909909015,-0.043692021145254896,0.010091074755433527,0.33257336849636704,-0.08531741338851141,0.026885898663921177,-0.10899289936754866,-0.06152605264937028,0.3318731602139648,0.06312457067321357,-0.14425020716925505,0.052620244780513636,0.049111808367221906
,0.052955048625673275,0.1334065328381717,-0.14465658302843343,0.01588564262686152,0.09576452721288717,-0.07015010471899945,-0.05650034225941426,-0.002551494275901388,-0.12346452816782964,-0.07592682316604245,0.20977326336424504,-0.03119803509583852,-0.02909256710040126,0.0761694853989893
,-0.000971581317243557,0.22345984746884076,-0.04784241153398328,0.18039431248397728,0.16846708204819652,-0.22123960877335994,0.008889297407594398,0.08454878839532409,0.12680205541224904,0.6165122887065485,0.15959890703527466,0.35786728370441595,-0.03726620234980053,-0.06460675304768064
,-0.14302259615016255,-0.2828659415228568,-0.03285017364809216,0.1183285841144401,0.4304162375392139,-0.13775792795629438,0.025434978393267974,0.17069416111667587,0.11030848348772199,0.6118782610221933,0.141656154666828,0.11822577009614761,-0.050744684623528206,-0.18649677736866654
,-0.12031509812416001,-0.2930676092884167,-0.0054789511392350524,-0.06087299935451058,0.2954363626272322,-0.13129232901203347,0.01711026024467964,0.18109498551927972,-0.026828428615202023,0.8699564257955783,0.04866018670419412,-0.19173152486489572,0.08402674056732697,-0.09307957971519622
,-0.11202489792474321,-0.36688614779895085,-0.059236710242096056,0.05210660448847749,0.4315323169967366,0.10626852279134223,0.17632678160529758,-0.07025391441179339,0.05836230023588553,0.16892572260414304,-0.06837330394650232,-0.23337759321183912,0.05140144909277903,-0.5123475406594419
,0.14051799760998152,-0.11791695950920375,-0.14761402610835994,0.1765637518043569,0.3329743602654954,0.1514414864527967,0.11700485920804161,-0.1476005050839445,0.2510762969005806,-0.6021050570245421,0.006859956150608898,-0.0012036780376064888,0.0196362396436245,-0.5619876121878173
,0.014256537243305816,0.06867847115223978,-0.21283684970815486,-0.026964019429754002,0.17812571108330177,0.08183143843262669,0.022568578715570074,-0.07328992124483698,0.1856985469412266,0.24562570950577672,-0.1181290692446003,-0.018709655334268962,-0.043406127962139766,-0.2843312168899787
,0.048197908667548556,0.3921888662044974,-0.30569055015536045,0.16754333531454602,0.12624993438052318,-0.07254436425040008,-0.04879691709713522,0.09355474134031859,0.14157680275934736,-0.04066888329278843,-0.037991501691666485,0.0311291262078042,0.10422532184743856,-0.15559002180370674
,0.38125671118913773,0.037521569096658595,-0.4175909866601538,0.39149745785475354,-0.09008076825189469,-0.1473330061592097,-0.0015827643792594712,0.052659951743380166,0.11379489407953056,-0.5178762843156203,0.07252407994594662,-0.0860152009036341,0.221848023575948,-0.336366998185186
,0.22027816347288992,-0.11556385549105988,-0.3468400123697567,0.008910339288646001,0.07568342188071939,-0.10010294009056718,0.04256951008117917,0.017801058281509262,-0.027030865865725784,-0.43924342904548913,0.18048358995374053,0.018614925949299848,0.058520947794651904,-0.3057791261420458
,-0.07475344000957476,0.002682893773134052,-0.18198255772346952,-4.371266013709827e-05,0.37073421967778336,0.005044596607651615,-0.10515858440854212,-0.020223875698995725,0.00936615394191414,-0.22088773311138787,0.11326038110607294,-0.09612038457773908,0.03968607160489481,-0.110595358312748
,0.21704586890858926,-0.26250057085066275,-0.04975055447478314,0.1901918449765494,0.2511875850485095,-0.05680126252391123,-0.07073616148704454,0.0028253047189687147,0.003030288575449978,-0.2558124481844247,0.08785833308610472,-0.2046321529766052,-0.13423248443895622,-0.13912222312296116
,0.21418974034633842,-0.007127038891594444,-0.013115993869016821,0.1038564332636342,0.03061681243513827,-0.12136044820999503,0.28529697293752204,0.07336863692158571,0.12226706307893835,-0.038226166675936916,0.00020037195556139785,-0.09499294267291385,-0.15632659085423353,-0.08843532161769993
,0.04550307359558589,0.5494499463244843,-0.27721665967110887,0.054062277776736736,0.2260074960063804,0.04386557952423416,0.21845096285550217,-0.007974816698652437,0.15169497327811618,-0.2286619160905517,0.13731926819086612,-0.034762578764777674,0.16029987057449047,-0.4275496360825626
,-0.037174534193744446,0.4414977365354004,-0.20285115503030915,-0.012690435022728885,0.3799809754215469,-0.005119817923039817,0.20076002897703407,0.18619992098532998,-0.06954975304523028,-0.13856726633258495,0.19320604293806223,0.16260502161372814,-0.09749532797004501,-0.589613119199369
,-0.029738616033052435,0.15013051171583777,-0.1540278814167403,0.3519596292508551,0.4749524270082934,-0.018678258307339077,0.22239372202975344,0.09728421071118193,0.01859647110254183,-0.12644704329380044,-0.2383529221878595,0.13655748154542088,-0.12855337275885423,-0.18666941512294627
,-0.12059758955951466,0.43585993535980455,-0.10458329388604626,0.060440388213487524,0.45991010031700075,0.04822521803652412,0.11168487357961844,-0.022447508746182173,0.0864630787238257,0.031230158589466483,-0.17652649401474202,-0.053097882539098584,0.0362804268989834,-0.13324602339991934
,0.03299699480382832,0.15384735957524978,-0.0658515198915855,-0.332273017152705,0.23466491071516493,-0.027425453768401876,0.13312777592678426,-0.09278969231306415,0.05073004037514695,-0.25508810532540477,-0.059454033721825075,-0.12369542081350311,0.028837510465800457,-0.15583698896238757
,0.28313269300828603,0.07899097999192015,0.011849840070858713,0.04383472337766828,-0.00927210459060865,0.22981736526305177,0.09600475323769678,-0.024581787125363495,0.029817559296087252,-0.28538570900768373,-0.0651695564662196,0.005003018588001717,-0.06735262565013253,0.07002557941526726
,0.009973995988610537,0.26994830183382107,-0.09415094456586373,0.44042974841493393,-0.034109448878185886,0.25398943191560547,-0.2053762916432192,-0.020803920285789475,-0.06801286095648439,-0.39177046252444625,-0.03910436679489175,0.24681769010830187,-0.1992076302124132,-0.14364210624104995
,0.1978763326528789,0.031109359105330733,-0.11258536531935275,0.22065905200172375,-0.15684523064444372,0.1414030981115641,-0.31056050924337325,0.10159501382569211,-0.013596252235663282,0.19790772711054852,-0.3113766605669772,0.09241751406528266,-0.1408429186832772,-0.25737108537832665
,0.136856731500948,-0.11989347131972992,-0.03411521540148432,-0.041576389277575405,-0.1886247294592946,-0.06435723186236544,-0.1027960040103607,-0.008474066018084484,-0.024179491899786406,0.758461808409415,-0.19275043826751334,0.1273601876983007,-0.17181132020731169,-0.0565584112575598
,0.15893236727065244,0.04548688142868495,-0.025405792337428963,0.04790660715562883,0.12014276714612933,0.09627438847117785,0.10123126689136504,-0.07740031314778378,0.06009691393165591,0.8277554280570615,0.07728214241912203,-0.11742093608106818,0.012188326919240195,-0.2272477326518938
,0.22122491923215204,0.23371988656416912,0.2419793779439707,-0.011458350689169804,0.12838629789034997,0.19212381485898825,0.007482604748106365,-0.17942017118494524,0.004999818878779079,1.353055436621014,0.30113066189851806,-0.15877361991583747,0.15604629001592007,-0.10455322157332897
,0.3025025279526852,0.02567688915419622,0.040961626948086,0.06542563673216197,0.17839395772501113,0.3876313895579731,-0.042384357803424366,-0.2940147379314728,0.07394416543291038,0.6962823339201332,0.29784298139857257,0.17411736459588617,0.22305562749775107,0.051858933934256564
D1,0.1613311836660994,0.17116812832283035,-0.004839048149040171,-0.17178869403146005,0.25331456030705607,0.329553385733057,0.19960271794260998,-0.26657158499716727,0.0928587139990366,0.2028974963085249,0.07601694506134543,-0.0570747717174205,-0.07693453059143444,0.02160687456169165
,-0.030852436592279785,0.031825379672377384,-0.02711804973963565,-0.07359034494128337,0.1843067186308034,0.23275652937281338,0.18673825464439198,-0.05542460869109367,0.0739365128449003,0.5748299533566458,-0.10275063700978723,-0.09589518900623374,-0.21395291427128157,0.0434692911137237
,-0.0034899936915679325,-0.3422654878566209,0.03568413161899878,-0.09732128901077364,-0.01320103278989853,0.3841394185832925,0.0380872376256089,-0.10170361576409828,-0.06467744112213852,0.8421766084526209,0.018498126794482886,-0.0009012972617508328,-0.06496753529046874,-0.060152405325712185
,-0.21473105036918014,-0.7705376596991087,-0.1278265993938662,0.07313134840909448,0.055328900649961876,0.44537264213809746,0.1887777493841704,-0.10045787233602047,0.008506431874935265,-0.09289014473374488,0.06520376223665615,0.08916598115716459,0.11073881826609062,-0.20650682706206555
,-0.07043613294722845,-0.6789273075234353,-0.27445311863392763,0.1169592448641859,0.1341984268496056,0.07930269558820113,-0.17846800045141392,0.010500291215506934,0.05219935877016608,-0.48854802773694306,-0.09644852189162474,0.1240261889174498,0.050184555888334974,-0.2345864657481021
,0.10378593446652,-0.3154242114554897,-0.3033248602770366,-0.13884671178716815,0.29685186676696773,0.13223314512408121,-0.12186690479980271,0.03183128981614064,0.1362372194716602,0.0649069064636882,0.04580914681354086,0.0667412018257186,-0.11883913339635736,-0.1660545320543905
,0.17896447772162757,-0.25815676320504377,-0.14754146329463094,-0.36631271848834046,0.2685328580852139,0.1473095928279654,0.4321154155070012,0.012867851937012068,0.022334473083342514,0.32233156852189615,0.039638392509332536,-0.17745536045994162,-0.08541133326155244,0.0428311766650378
,-0.06296079282237547,-0.16815709634100495,-0.22670380028756676,0.22351104930503735,-0.0004656675779648529,0.05465123712376978,0.43701017273891973,-0.11028511606450912,-0.045865887796449865,0.1786935749522506,-0.08647069275020872,-0.2839112035857053,-0.0614468220571525,-0.04769194989270164
,-0.003307345362565207,0.20325175646078622,-0.35956202781259244,0.3320484894358979,0.0029404231881945304,0.028356464873927234,0.31607015126834875,0.05356942786415028,0.13828884989634452,0.3489282476963229,0.20542284407810033,-0.0497441630007214,0.004930570503835101,-0.157151839463404
,0.2423719144052238,-0.16705644243298137,-0.35474529804391836,0.21320751068644644,0.3384695908974533,0.26076981703977337,0.2280006958078194,0.03767375177892122,0.17417253820299258,0.27732077266153343,0.2764629847660414,0.08558030035031394,-0.0985588486878926,-0.18562724772419378
,0.47448256520174964,-0.05255541235851125,-0.3808930291518021,0.41569333009663895,0.4319283744234967,0.058793460647037714,-0.3121714289793663,-0.15026476121981125,0.010963432660838967,0.5687024847346825,0.24715730685896453,-0.05335433240953195,0.07322398294673832,-0.17965793203535052
,0.2871423400099127,0.43154254980173784,-0.13003904332711175,0.16602718159852403,0.32428137492154196,-0.07812290103757802,-0.2867455202930715,-0.09255668058540092,-0.051066890746937224,0.6947632847542019,0.2800858694245124,-0.08468020306519626,0.15390272814704625,-0.06300320385606319
,0.17680583280123588,0.3115278036994356,0.07172006803326157,-0.24878560328798616,0.3853740908671669,-0.15894301257711216,-0.03937980771082116,-0.014611328769027196,0.24786160111272684,0.5113639713003335,0.20283638310431013,-0.09600049576215984,-0.029974493296406255,0.1472292143751071
,0.028384492389379377,-0.18441891205292882,-0.010030067807226513,-0.0953818244577915,0.29090438654347,-0.031238585209762325,-0.004362565750714687,0.0928271672787319,0.21079872686992987,0.6027010444258365,0.1348492385541775,-0.013922495269718959,-0.1610329931785,-0.023829136222765442
,0.13725116661193537,-0.24792410738885787,-0.0915931812277218,0.13898094244999154,0.13927614375811206,0.47036877752045025,0.08462377993937215,0.002420227007614436,0.014950305112997341,0.5333664390154566,0.3526763825080499,-0.028139010887251303,-0.16790665364677287,-0.09372408488681366
,-0.009171882831359966,-0.042180941546701586,-0.3917514374145938,0.0710917895473192,0.2847083846067263,0.16995156866809027,0.18997635130890328,0.027702158266548,-0.01908724994835829,0.4227586936497882,0.211158420104408,0.08217471027031988,-0.2101005670946706,-0.054727037465515584
,-0.09812074165555343,-0.058486423479278085,-0.41919306091929137,0.07800229735280007,0.2867888197411837,0.11315595703416718,0.22987041565040967,0.08975930073140131,-0.0017218894894334758,0.47585001884410705,0.26232299373121787,0.013259608231463044,-0.24961466636924412,-0.03977181170572051
,-0.07448118887330678,-0.1841333266461225,-0.23142507651834793,0.30711614216855243,0.1980878781250878,0.4346078309414405,0.17053698506488157,-0.0966682919549112,-0.0803271146911648,0.48291272186068757,0.15588878227603056,-0.11311994128192486,-0.13730360077217305,-0.09300729858571896
,0.011699720616458225,-6.176086381959748e-05,-0.047257288650623265,-0.002717524789967825,0.06720167266498021,0.3306738886125984,0.2268695511548033,-0.05779154804930537,-0.02658920144520136,-0.1415229215184248,0.24669396903133228,-0.012380358594465471,-0.027069097640510402,-0.061838022849879055
,-0.05963685521185561,0.12016234541285102,-0.03081294992089137,-0.2266847950577852,0.08256809107827195,0.12126890338161597,0.15432789039316525,0.056505717565017315,0.001641451720341318,0.05477521461532612,-0.018978145864191463,0.007239186006833409,-0.12066775560488574,-0.14601349581679685
,0.06553108804886061,0.11461538456490178,-0.24038138281516253,0.25247147227195643,0.23648659612641154,0.2880937648613712,-0.009167629363914158,0.09039274694787712,0.0753473345362114,0.42688591527019254,-0.07239636921801898,-0.14935689965978438,0.11359246297859214,-0.06464880244924144
,0.205675078336255,-0.2428755819710035,-0.1909457261155401,0.6158811649447086,0.3014617744094554,0.177491690764002,0.018156775233625133,0.1856405051186408,0.15848762373243405,-0.18242308975503224,0.004100487660594671,0.02455867182663423,0.07057448332924535,-0.12045870479137492
,0.14365180012202325,-0.0690533507002482,-0.08844597306661885,0.3257365445275225,0.15174615924604987,0.14850763305771078,0.12643579056181092,0.008890505913399432,0.21206088019535055,-0.2755625589014998,0.016960430750963224,-0.0627713098001207,-0.12522120591354768,-0.16826567089269123
,0.13023791221923725,-0.13281830190184007,-0.001745090938531109,0.1797766423756044,0.19682438397860788,0.0781963090990085,-0.022738444683732942,-0.2527952604966705,0.24246239726136504,-0.24308197506250723,-0.11949243928572263,-0.22614804531666682,-0.19675990265232,0.05310900170907587
,0.33054594388132535,-0.47364860736884973,0.06123146566541601,0.08942545059534242,0.1639557561827331,0.13846284186181718,-0.0004108278984684755,-0.08373079692741522,0.2235849034378317,-0.19607285005547484,-0.027643882490805773,-0.31403291923600557,-0.06546257429729292,-0.09054453621948327
,0.1402732621165952,-0.25235419220672445,0.005596896959589136,-0.010467830563804193,0.016714569119644918,0.09304260383954413,0.04317238701970538,0.08849153161293843,0.20823526493392924,-0.4939910049776278,-0.030501500242716938,-0.30636911536823486,0.10299447396701694,-0.15547777602848983
,-0.08712926253075458,-0.4571245898401225,0.04408106220510489,-0.17199672958728054,-0.17540209608491947,0.18091345531521588,-0.11101052988086607,0.1478101682503492,0.20702668259912205,-0.4250971350597872,-0.01201864343519324,-0.3148783335448543,0.02100841487160866,-0.001720941313626547
,-0.02785050888179905,-0.2650397288693116,0.06251080771377636,-0.21880514970443687,-0.13825303199126038,-0.1328210044317863,-0.09193590906115125,0.15480107434197843,0.06664927498096086,0.19540493945969697,0.005960164467808707,-0.04150005214917452,-0.05558398857157357,-0.1700949707988287
,0.1225572625470094,0.1254709461244461,-0.046113089823481355,0.13583462651156106,-0.011982345935963503,-0.04287435437343849,0.16196711924318613,0.16275574005796464,-0.06876794814531582,0.686664866415507,-0.11143859955043392,0.14860994828768767,0.2260473830403914,-0.10542332283339304
,0.015774289381096193,0.0997274190660767,0.2269004628973529,0.30060863634400975,0.13922123777903664,-0.09672728823285395,0.1929350333529884,0.025806896362139755,-0.03418114634962066,-0.05115503593046002,-0.1349034858674515,-0.08159725849638266,0.22936718177954676,-0.03108294496177574
,-0.09544985235550876,-0.27720049015719767,0.24245959889978363,0.16029595181233322,0.3190251046278743,0.017613197747884616,-0.10034017604918448,-0.08246588224807477,0.016677404014161415,-0.07104589147438367,-0.29650134690064056,-0.05211411811340186,-0.08445712458781043,-0.04180026994477529
,-0.04543600199964917,-0.44869473207963445,0.03323854875689544,0.39517286946039065,0.4214977599056373,0.33075114224964025,-0.023816756970039682,-0.2012501282013817,-0.029550961256104846,0.11904108614137325,-0.12806046017891606,-0.09979290474389109,-0.14676656462162552,0.06018487246560048
,-0.18221683810127925,-0.8982048578191835,-0.03584423482113617,0.2996433455029249,0.01219141883836286,0.11222187981275246,0.24099029688777915,-0.02523942334047494,-0.22236805988792083,-0.1820874808007462,0.02952365164981304,-0.33560664962814296,-0.10026601867471172,0.18696462676607567
,-0.093189194287413,-0.8555037552499467,-0.017926790725053755,-0.2751587567458568,0.15369083112611842,-0.1745797044849627,0.06846979284890906,-0.06771912602377778,-0.17288483112750483,-0.11009552718734622,-0.07918557834075166,-0.13775251686009513,-0.04486455363887175,0.05250772571437481
,0.06683757508609375,-0.4706417428350012,-0.22664940231281924,-0.5775776935255428,-0.11029878194429242,-0.22961182092655905,-0.13427119626058856,0.09374751668892026,-0.16950575664914536,0.3924462220010147,-0.0746967065200064,-0.012391450000151351,-0.18593039263942945,-0.18397254039454997
,0.20414854292037962,-0.7098815425225317,-0.09281650036972759,-0.30993982084698607,-0.1947198777492461,-0.19400746413090433,-0.15693220179638256,0.006461482101326926,-0.10048626549703307,0.4521771231244535,-0.2203011880832736,0.006480017951555009,-0.05081021213917004,-0.40382527378011096
,-0.04990183054509695,-0.12841756825636116,0.017488346444862742,0.2696640148575166,0.12431256848710118,-0.01949426458143319,-0.01278528350019329,-0.18359835271397007,-0.19311729879413372,0.393474381870835,-0.12965200991847584,0.21087385690209098,0.26350876507280024,-0.2301812396828196
,-0.1911891712725595,0.08353976605702008,-0.08133375607553237,-0.17048904001548518,0.06095910778663869,0.08214119093283159,0.1734998527201534,-0.08986118938407643,-0.05870685299318263,0.20538002505102596,-0.029253166273036015,0.2030937591546975,0.40060733047527336,0.04977770868488124
,0.027147622372931658,0.17303579217235704,0.026414217239822697,-0.10835244760825517,0.2788878325827389,-0.03304421979968623,0.10552675396265322,-0.024445284254884417,0.15614789042904306,0.5209226348247509,0.03743399445768792,0.12865659781662572,0.06271737483011673,-0.16596077281278293
,0.33072518419299257,0.35922652029794244,0.21496689318231538,0.24905512599317214,0.044039025924583794,0.00771657587732879,0.12897367137294835,-0.03872221603905504,0.03554329968976773,1.4426554903159696,-0.023829551222511083,0.07037336039067044,-0.10577004713057095,-0.08009184008367293
,0.09555298139724597,-0.19354336208305342,0.2613469554964116,0.07729287010557087,-0.39288466757419155,-0.00361330806117923,0.01170293196434206,-0.021255268745626985,0.05658222666631465,0.879998331631084,0.20844004865252336,0.1103350305507749,-0.1594679860240203,-0.02216001402912868
,-0.3116135100100306,-0.19052693276198143,0.07956512039652577,-0.08618177318671896,-0.17897081539907728,-0.14780223955639776,-0.19367330983010697,-0.045948685712957245,0.09955018441843128,0.6925275098560371,0.35395558016871315,0.13033982398183208,-0.14353406834808524,0.07508014727894245
,-0.07635718172662827,-0.11541962616002774,-0.13856027001028143,0.11323701648794145,0.2831291729461319,0.17745449049116238,-0.09784429689143383,-0.06877905598895194,0.04924158416327743,1.2629389343503872,0.10895059235999877,0.021211439302450757,-0.027332910742439296,0.14772199403105482
,-0.004533434464905497,0.10116220880653924,-0.15988064738035357,-0.005900370509471187,0.13481010744795172,0.4000277031507673,0.14622132963069984,-0.0225823623813565,-0.04298408878518536,0.32241412890745047,0.026626849619153282,-0.04323590959489363,-0.16435705778863344,-0.013059002836478378
,-0.052498878060981496,-0.29743159275314285,-0.220007206307944,-0.15118982413710738,0.24969035181448868,0.051425887129686834,0.156639710400738,0.044555222256454224,0.10282151278427237,0.5677294875838186,0.0753953091480035,-0.00684522634816422,-0.17950207416853944,-0.12650430650795053
,-0.07891941261007569,-0.4680707516668602,-0.3390954382776473,0.11922532409666078,0.2575208311402457,-0.12362399411474914,0.015002695782577277,0.2212022168822634,0.34283610062556047,0.2975552237772009,0.037225598576188644,-0.03037435541067487,0.09476912061066285,-0.05976993738276709
,-0.13126678911828776,0.1252996815214518,-0.3332075302935848,-0.04901352432654075,0.052614326738848936,-0.010443827217104134,0.18283211408390027,0.043091652533360565,0.10723547460723702,-0.4382983016722094,0.06335075374540028,-0.031972877331102066,0.28051450215554163,-0.1872990784035665
,0.09490650282980091,0.1445082321385662,-0.23092327783034727,0.01673340766869237,0.16566250526713816,0.10220267230501383,0.20289359594554715,0.04098662575356313,0.07054358788225422,0.14292879673063968,0.09003013017285309,0.017227925496944567,0.29320291426232103,-0.1742713509206232
,0.16368414263223247,0.3069307351152189,0.019094245404406567,-0.11529688243979717,0.3367989806323243,0.025466331002585215,0.22945105720329725,0.32234442350698955,-0.031545640167866776,0.7795536469104282,0.3240930997871537,-0.10388791272390792,0.15949327999770646,0.05267099053707804
,0.007480492152941039,0.2547063548172807,-0.04402652584785072,-0.06296136945095748,0.26529371688281694,-0.07166167592994359,0.1234486969410981,-0.023097990778736484,-0.06980769639748693,-0.1713012716254037,0.09427062255638194,-0.29889018486860364,-0.025038660908853337,-0.05173647642582241
,0.01717558417693657,-0.05615534608314789,-0.32187119837725936,0.10609958945637611,0.033047454896857203,0.11872162900794908,0.07029921719064545,-0.17679395028302644,0.01769490650108011,0.013128812621429894,-0.14425408199391374,-0.3967429226591741,-0.20733120841967978,-0.08429654884926066
D2,0.12692705625745312,-0.1345398745530237,-0.2749342797120651,0.06485270850796242,0.2549619914576002,0.26958605397304114,0.029067125921431586,0.06933157254109448,0.10620782046733723,0.6496489402371082,-0.002654220246254293,-0.2648148656416977,0.0015924469692600535,0.034661156091264925
,0.39481923474732417,-0.01697903602739157,-0.030638985039744843,0.34577183999458927,0.5053199187590349,0.30899364800422396,0.1605225485951334,0.022163912576058948,-0.010327013198507248,0.6068014196018627,-0.16508253093121714,0.0967311531899695,0.11490957591616673,0.19220976214344482
,0.23109478806362313,0.28227195410601197,0.18268260398706945,0.26673718138136626,0.21519315321058624,0.10186370721071959,0.28694373451447874,0.1309526324971996,-0.04012049299348293,0.508574123986877,-0.14473200905290057,0.053295801833683265,0.15618058178522476,0.2713560980088035
,-0.1011200366428486,0.7027452376554221,-0.05979656630374878,0.06116554360186537,-0.05878992984671715,0.06475759076745567,0.15371074826989806,0.20407072987803215,-0.10117523817748493,-0.46601931339037406,-0.02254057929709452,-0.2105851785578114,0.23755029938016,0.006283437358245521
,-0.23388173014882466,0.0078101887490763765,-0.14798572463278867,0.17372439080457333,-0.02283024930119652,0.07118339208551172,0.10817488792454848,0.0886459892577072,0.0768002515019639,-0.13391302211144082,-0.00956278906056114,-0.2910750569445977,0.03066504594770519,-0.09480592261631061
,-0.08134277725655618,0.009017442744288591,0.11089855174654567,-0.07610851141960502,0.03753511365132234,0.2775566880273909,0.26120204236592487,-0.09632430794069392,0.21975118958119325,0.4512532125223785,-0.08297831007580164,0.014639955984657149,-0.20600585382498063,-0.009454035479816294
,0.2940300061975907,0.0980574444180541,-0.07769986571053988,-0.07412161770759743,-0.21935752256573304,0.10364203420209311,0.10959377149575535,-0.19284077545985318,0.23523543698801502,0.6238193828439184,0.034659704881580176,0.10736226586208283,-0.11690400026276498,0.0028118362654024204
,0.4716796818395319,-0.17029015369062278,-0.1530770600206127,0.11846984398559952,-0.034627892949384884,0.19766054432531202,-0.05433083845500345,-0.04324551602878969,-0.17517526408454284,0.12065367281284158,0.25272658726566694,0.06092471314877953,0.10171719336960851,0.08524460715894572
,0.2316826249995017,0.11364373478363979,0.03933353535893083,0.24937368966799534,0.11352721786360691,0.14893800212584457,0.005015663545209534,0.15893132369172422,-0.10142738062953893,-0.047864477329804665,0.3681685692981764,0.09481046721754806,-0.07709222148710337,0.13755930518405013
,0.1811996079283141,0.39322092643223633,0.04689222285233518,0.1709773773343942,0.11115713173597513,0.03133417939572362,-0.1122477305069769,0.14364043031818755,0.2222852513023345,0.347143288141019,0.16275795298147996,-0.13393526511052664,0.04418698733479317,0.14076521317403734
,0.27165797102074146,0.21500758087521107,0.13540339207871424,0.11841514479291851,0.21104727869917905,0.039802269784502874,-0.02007973917606283,0.07881776421397371,0.38631801529498794,0.16648531141742479,0.06713632029705652,-0.047396173485175656,0.2390358868609577,-0.06223075750717943
,-0.0886596658030111,0.08888457446328576,0.08514698441085373,0.20680995737347238,0.3033758955811191,0.14972786331477286,0.41070013918866083,-0.0832135960059931,-0.043713908695572984,0.25086646517387684,0.09566867113627446,0.05204847342197315,0.09239354865286134,-0.1844765816577542
,-0.17638014723781933,0.16598319612375875,-0.17687159271474284,-0.17073402505220003,0.10982384929441275,0.04203674629709486,0.07201784708159138,-0.22844577899545973,-0.12469445741707988,0.37292021995240476,-0.023028541446927245,-0.16086696518948362,0.1278037676205152,-0.13274778692266478
,0.18038739356810787,0.23450044741788925,-0.2949032052527228,-0.07398857954418243,-0.020083058273192508,0.059546179856341745,-0.059618886847689574,-0.14002936879050293,0.04447430332845654,0.22538258920831114,0.006195282083315977,-0.16798636178321527,0.20124667890436365,-0.17436055476369716
,0.005210364356950522,0.43276052661258585,-0.33596635131170094,-0.19455296291714805,-0.09975606216975462,-0.05731284267746061,-0.0002607188124300946,-0.059530131108387216,-0.34860120475682704,-0.6179146128639765,-0.23789547206925046,-0.39750700703203407,0.21109392481312494,-0.06356465920607055
,-0.15600959291010133,-0.08672312251645523,-0.18089023360115133,0.07502121507329215,-0.024604953709777357,-0.1467483582681988,-0.14328303701172831,-0.36444997064651175,-0.4851373660517703,-0.5796322726229657,-0.09494706408805761,-0.3266489215175301,-0.047956340915196134,-0.06551644609345014
,-0.10111754412984722,0.007590191639244439,0.05958944478057553,0.23961667682342094,0.07272612186862559,-0.10138559294705729,-0.3031095788465775,-0.3555343692123908,-0.23112251877372214,-0.3867183940429701,0.015020850301447102,0.08896697959520583,-0.09097182971849732,-0.09944271175412137
,-0.14877676071882664,-0.052069856286408166,-0.1828290300168947,-0.3146916576946652,0.35537482821995486,0.07188393955142561,-0.16935122161140814,-0.22991268829730818,-0.2258652610257444,-0.17235942085802516,-0.15014384414272702,0.03985020534031744,0.10101290005085173,-0.4288664448401538
,0.08242472880637072,-0.025022808892059312,-0.1989712003393991,-0.1916846910623416,-0.05520788194666215,0.04962658692993849,-0.12645642461282863,-0.30829737471628077,-0.1181310356900999,0.31289313294226234,-0.48990985435507717,0.017185055352814897,-0.06883495382352084,-0.27952464505948516
,0.2752321089044768,-0.1342704854334203,-0.0707988600893718,-0.07124613377410384,-0.24290030582192568,-0.1813240703761204,-0.06271483580284011,-0.16727950226727215,-0.12151044545934099,0.6385997841107635,-0.4299446798860368,0.07841485327284299,-0.053172542928507156,0.0388172310318268
,0.2531811649290263,-0.13536245165343835,0.061291557729014484,-0.19612749632706047,-0.10807158677862291,-0.1054815046127665,0.008865529229049944,-0.1654948861635344,-0.056038385818339025,0.9761774004629764,0.06925153101846171,-0.03377857644965822,0.038106152408226936,-0.02069991393404176
,0.23030984376517152,0.05587236387829451,-0.10579250443224286,0.0521160602133469,-0.020644852732166444,-0.13547275234270761,0.06821120220199145,-0.18527812626626586,0.12092689746056993,0.4615902825493532,0.1352214542254832,-0.215827954916667,-0.20129317773237454,-0.0900851947128767
,0.2801970110169248,-0.3134455557622198,-0.2755553092544621,0.1295069086340672,0.09396727055921902,-0.10861334240446478,0.1400237765529725,-0.04919884238707952,0.06535747544605999,0.08882284095148492,0.08403979509695322,-0.07821885838730265,-0.11037156106488416,0.11892305225380621
,0.12203441346831503,-0.5646431661201399,-0.2826763696664963,0.25519111419606155,-0.05817797589060554,0.11217147262117946,0.19297802249783572,-0.18807070831797137,0.04833053032425135,0.07179009504565068,-0.08494837258459625,0.07551172725350012,-0.17837482790081652,0.09124213282116667
,0.1716682831397486,-0.22662091538005066,-0.06880553378656011,0.10664583141237777,-0.1283916555065409,-0.02249827460879373,0.1709045978758007,-0.1738653485510573,0.1042363542377946,0.251057011014735,-0.1073300533887668,0.04504162559550491,-0.018552384804415484,-0.1149261732650252
,0.4137263190450083,-0.210456505197652,-0.23008162263462412,-0.0008727061371028805,0.022561302556559932,-0.1488979213625024,0.04630196168441546,-0.13565845871557186,-0.1634321772390896,-0.3695730840658773,0.02411613038771529,0.08705478042328425,0.0016611343708203463,-0.18285503071246942
,0.2732183812854841,-0.07134253347128847,-0.14923079874734466,0.041638116365682765,-0.03320357504343516,-0.19369846207976654,-0.12421982873874089,-0.19794230468512447,-0.18383555879628793,0.035996320754047545,0.035558049378744745,0.0356091236602392,-0.13517245989734197,-0.1957593678538489
,0.04777993182783801,0.05471872478293484,-0.16382763786826285,0.29906253913874487,-0.08774312210001073,-0.2657939897250996,-0.07005446226868466,-0.04876532163756207,-0.07634360489541384,0.7709035904830823,-0.10030179878596408,-0.039897408407686526,-0.15350017860723308,-0.09007626874605514
,0.2628729141311962,-0.046917994930651324,-0.2925208209903567,0.3750949716979,-0.3588273672647679,0.044195279474356725,0.08313100892652159,-0.04158470367323511,-0.09491661601495967,0.6191195443068569,0.020520642144750613,0.0077064293046582855,-0.21354040984084413,0.02897621289329997
,0.11533390948548125,-0.5321856087571466,-0.2746484922189323,0.1986930645637387,-0.26887596887026055,-0.06084924901891151,0.16085576858894254,-0.04084145576854717,-0.0022447185429285304,0.5781130196606462,-0.01177097121029042,0.04233190084871587,0.05478332602754416,0.0022599980891109986
,-0.3302481167576515,-0.41941174585437785,-0.16152719190170245,0.15655545618809588,-0.28911737139464283,-0.23373310182751345,0.3460134722216276,-0.28604890337089034,-0.34688752170598613,0.5648776548075348,-0.07102561316668814,-0.21086252043381426,-0.10000387705195367,-0.08734263493792299
,-0.31163586286252654,0.022339789659772142,-0.14833759155322193,-0.09382277345627404,-0.09651826884507542,-0.06991745130657974,-0.19639406880354474,-0.4564542302608702,-0.3391336653349203,-0.4140013068557756,-0.21523664369361717,-0.11035579109802471,-0.08018546769899146,-0.09403148052676719
,-0.04989025479717355,-0.05868226110808269,-0.028081329361550625,-0.334620513024621,0.044775749237934925,-0.15823665285191374,-0.23253928540217184,-0.30867189034738945,-0.27705016686211104,-0.6168127793333218,-0.025279134247135605,0.13823410112575021,-0.049993376665203135,-0.08214101788843808
,0.14411969235789207,-0.01715352138762891,7.638614718220473e-05,-0.03551936854847931,0.018487818475057604,-0.26390063452308543,0.06877984507545869,0.02623341016110199,-0.20852224515653414,0.2172166311984971,0.06661973040149484,0.21048566564548254,-0.12660550220470268,0.0341382804819139
,0.19165139034043693,0.018053452466184405,0.25551166998603225,-0.34149809729939673,-0.2200514171991341,-0.11600906334613786,0.2547189001361551,0.05674235241495242,-0.04607915364554885,0.19531793961844723,-0.012603197730887363,0.17558178602189428,-0.29563525684085906,0.028155552508193588
,0.11790318237984351,-0.0589481450501803,0.3241505479057739,-0.23512700447372667,-0.195311682232923,0.025306689546312745,0.19721166451241842,0.001677729496015433,-0.022363690181652823,0.25747353847093485,-0.18646307399468237,0.10879352994573292,-0.20331912719578354,0.05080272135075009
,-0.15760079343184016,-0.1081329929195805,0.20634941500661566,-0.1458901283799599,-0.12755053710390568,0.15418066484560808,0.23703015436285935,-0.20612802922505563,0.0424715894637939,0.9771710523069994,-0.18889302386338913,0.0761437691937832,0.11560957506163955,-0.022105439968428398
,0.0019426544226186422,-0.20593967335781319,0.1266969672517592,-0.08558962369327602,0.23361151217314208,0.29415443924915957,0.07980789224789456,-0.2946819893700045,0.06166581446346326,1.1742170329741952,-0.025262261362399552,0.07623848681740969,0.12729155614536988,-0.11354122157212578
,0.16244673539823498,0.06697184864690033,-0.057979777287876365,0.021768664943365445,0.2205693876846303,0.38590511976069264,-0.06141751742065153,-0.27495772995777684,-0.03074295059564254,0.48105590158289624,-0.1446671981371581,0.1400004616655458,0.13126914815012863,-0.1396061516443958
,0.1061786398835571,0.24397634787778397,-0.06017606391959109,0.3736361348063488,0.22526478486451582,0.10290272548026932,-0.11483975397264874,-0.016117788633887287,0.09540440455706506,0.23679580973260744,-0.009105914791635415,0.1158881035346312,0.03153197520817115,-0.010581443820347555
,-0.2055398602589595,-0.0875845977245822,-0.16789933949568553,0.6050990786878703,0.097345422732388,-0.12959494592044915,0.038720351852484,0.1050251172437846,-0.09599180808650126,0.05931957981892613,-0.03972505873831938,-0.1514645332152524,-0.053682721378310476,-0.11617021677260217
,-0.28253376170163896,-0.2555361796055836,-0.1253118902665349,0.15532949506912297,-0.16045761294724606,-0.16383674624838812,-0.02675939013352599,0.03160638774535448,-0.15832992145641955,-0.06179129226921517,-0.2612704178111689,-0.13185897016153117,-0.07862057729613615,-0.08493291069954427
,-0.12378870014573967,-0.3400120116532725,-0.12881044535035815,0.28654335953758,0.28928641005048994,-0.10309169659188276,-0.03160697283908685,0.03453446673641195,-0.12358084772950542,0.43588250605456585,-0.0035949863314498304,0.006050508828468256,-0.2622584732505198,-0.06735950988525971
,-0.05046001823870381,-0.29010027334543287,-0.16835983418602948,0.32429162095423847,0.034691150566620414,0.03301219957674154,-0.010495986988396312,0.16398930581059656,0.10587252091578878,0.32466896446801424,-0.07431021764392913,0.03433253059089954,-0.18011378462061312,-0.26143606364297106
,-0.09800373090146806,-0.4048833506143696,-0.23639478883171725,0.24707644809683918,-0.024078540843547734,0.2608253816384686,0.0021756402838872067,0.12134556955459218,0.046136019927775745,-0.8753603014990449,0.01953827856748304,0.009223786711508641,0.19915163234815542,-0.23371989415680336
,0.09479838150103953,-0.2642430974551428,-0.31510952691496585,0.09565209971797141,0.0018196429320814784,0.18436170390654563,-0.017493225187373285,0.1386815517544557,-0.1555231447279661,-0.8457111848554607,0.07787696891589165,0.00933886462172389,0.17082201252963114,-0.04792811010653613
,-0.14893418230827327,-0.0741294004940673,-0.15668329618937912,0.35120181125354716,0.1684296300508047,0.3269635873777666,-0.025000601395184965,-0.02160124268906254,-0.2154816733878739,0.10771755658373734,0.07966245343800608,0.01226679452062511,0.0787596213081979,0.0853114396726842
,-0.03809949516719976,-0.20475115791327203,-0.1564512989811175,0.05395193096516831,-0.060060960586510934,0.18397107302000065,-0.0705450352817665,-0.15137611073963997,-0.10232195896719118,0.07634786951082446,0.10071320076862275,0.0536768636279361,0.11086703568125676,0.07947048072912354
,0.10266869684498442,-0.1463923407004445,-0.15506463839200788,0.010039805844962429,0.0012017283683026317,0.21570308080024955,-0.10597556323198057,-0.03684872478137657,0.16577333430149246,0.2728625646235921,0.10078986444016023,0.019942368081977437,0.40136107985959985,0.11862660161834801
,0.05395755831746901,-0.196997306028085,-0.1794873188392786,0.040690282297601015,0.16643886063919358,0.19518591399150145,0.10510129000124252,0.12076643078654152,0.26520740083498634,0.16238218435282764,0.1803360725624822,0.1392473052714307,0.19217474487142014,0.06178795926126689
,0.1467645217059627,-0.006083277182117157,-0.18550191969321436,0.178107507189464,0.0054708210134330314,0.1413616674463468,0.06957988571641666,0.07885216670948128,0.17049682524435006,-0.1375937445961577,0.041483885415570694,0.09483669886094719,0.13047515613723457,-0.07928461451757512
,0.018759784518871375,-0.07220253204522697,-0.15245188969737078,0.19368016416341158,0.007346771988318339,0.03060711174639525,-0.009774773504772953,0.08821446706012508,-0.021803239174075326,-0.16823152919879256,-0.24054211257646602,0.21669516916519835,0.023894664191755503,-0.07305562017704742
,0.18840821788671067,0.016874155766431524,0.1215222483740299,0.2143690857951445,0.04850701806741055,0.11299459144347204,0.24096968441281663,0.1948891361402682,-0.1438471490274953,0.3741308997270515,-0.03644189214528004,0.3420403821225452,0.08782976412307007,-0.06306177753169025
,0.0695805205038625,0.045730023151334766,0.289784695179614,0.17927781540763962,0.19832648015838275,0.19121719696290568,0.24156877432684415,0.15140031672754609,-0.1497982071388505,-0.24084159524075177,-0.008616246335285809,0.2708673635558707,0.08414376140621858,0.06513552289124244
,-0.06841054257901721,-0.0036393244216324384,0.16011489983158708,0.08369071434444199,0.5115099268676088,0.20342156919522372,0.11160326490201501,-0.014433017000311011,-0.11286422716249143,-0.9960458282226251,-0.1792937568095388,0.058223358997617165,-0.06982096676668173,-0.08720578250579913
,-0.005018410117711912,0.1350281409598582,0.015843160889318995,0.03421915457087469,0.4589973416883023,0.024511813232516923,0.09375944775430832,0.030769800505379228,0.06272923967603014,-0.5342098377675688,-0.018786790371704,-0.06994006744254086,0.02694819078141995,0.10423698080639075
,-0.04362150294289814,-0.184740398178251,-0.022909864673776814,-0.12325930370195373,0.19261829124578714,0.03804491079316006,0.1730631165014372,0.1480171006874797,0.2528410445813624,-0.048856147260230146,0.1390366033987101,-0.13527814928257653,0.17388783181778691,0.14734086846596342
,0.19676386552554445,-0.3582421651096666,0.016712333976784045,-0.06289649996604565,0.22310140047894889,-0.027218668386725674,0.11287166923188047,0.08264674024465668,0.26316481435121725,-0.1541492403756103,0.2724571180328934,0.03172357214435471,0.16994672953898118,0.13605147160543654
,0.3926543221458745,-0.03311300254178119,-0.137202372096692,0.5713387656139892,-0.041027987995068065,-0.12513233933035325,0.13384365803011047,0.1556624270511116,0.1565119101322396,-0.2633061111082658,0.21951541792109025,0.13852951602987304,0.2035716132706099,0.14528190287730827
,0.2265653216215822,-0.19165963263637328,-0.03311951607263254,0.22648813055203815,-0.13232065156445136,-0.1661193518442,0.23489039094772812,0.17575826684266,0.09807332624399767,-0.19483028166689242,-0.08813117837649204,0.20570064728926415,0.24971173148426537,0.10010680860651204
,0.21639308929998133,-0.17852633181945274,-0.07709568825464845,0.07923603648182037,0.2846113242935663,-0.01918518636196462,-0.14801094037534343,0.11745371289266049,-0.0107159524418338,0.033754967186848055,0.018855794337660076,0.23491067143662123,0.13389705979486574,-0.09521706833362327
,0.0996939936647745,-0.01539845540222492,-0.036210169475191185,0.42785113228605426,0.3477582607106448,0.3286331976896685,-0.15316540004158408,0.12050259675342746,0.04556655088727318,0.43942202467026026,0.011870534779608267,0.11741513804079762,0.254950807766084,-0.11263254670399407
,0.017347593191550752,0.04288970798559766,0.10459786335130158,0.23852003805886257,0.33678316458618807,0.4234455035282257,-0.004304322404494798,-0.07665668057695912,0.22514632176863067,0.5283599370795223,-0.11519630396931858,-0.006547674507494116,0.1769401917130705,-0.11929514380289971
,0.08925914752041345,0.034785212473148044,0.17852217140997334,0.2889057548085033,0.062352255206094914,0.42572655413419963,-0.043095438709980616,-0.272589190345437,-0.013514589875024402,0.14678180019078768,-0.12546761862888461,0.015766891744062324,0.11404295904627085,-0.13785366676314328
,0.05927038858407244,-0.2025354626135972,0.16741872626313625,0.3956189221120828,0.00811246607865663,0.042036584448490996,0.2371327740258013,0.05494559332722808,-0.06905038363316232,0.8042389640617682,0.06673768579754362,0.061894139329459634,0.06999422675885163,-0.17788046268369473
,0.19829520811336993,-0.08107021072263848,0.05706077821013584,0.4432586777719869,-0.011871938320105182,-0.15077391584295943,0.5610142976402873,0.11554581557751484,0.11977303981543114,0.9131717318276888,-0.01167466470707387,0.17564415720888302,-0.0858171131822764,-0.22500699536633909
,0.3355050630398109,0.08905639619020564,0.010146991073571003,0.2552544850427833,0.28515614138802675,-0.27241607112744815,0.30759042381372,0.10115736985616923,0.18534898271913386,1.173274783985931,0.08857484862305451,0.027598755189812696,-0.01840640368585181,-0.10612837311885757
,0.21273805641339952,-0.15038033021342406,-0.1635111678907821,0.19823048743921834,0.33238690896654094,-0.3237757122091114,-0.04607056668010274,-0.25711933081576077,-0.08417490619198206,0.018152603395533807,-0.10488570642889428,-0.17142433886927794,0.07661825034520019,0.0317357406388561
,-0.006414229733526428,-0.6413481928629536,-0.13064668069636312,0.036551780307017376,0.38927990913028276,-0.1572435943543096,0.08114644054661467,-0.2530224066165202,-0.04353089943073086,-0.22564822803745932,0.018872555084576755,-0.13983039454648236,0.18981737976990334,-0.07678899750154013
,-0.4286568809635714,-1.1548319086469414,-0.14397251985879514,-0.19255886087784724,-0.016557954359430044,-0.5289048763057409,-0.07078877481548214,-0.19476100739138688,-0.1831383878074049,0.016709095530566317,-0.07525462506645729,-0.0867245898948101,0.012662703146299213,-0.25775231971739143
,-0.19073630554344176,-0.9411088094672638,-0.07490226862273112,0.19337833794234469,-0.2635245321098026,-0.6225720508323513,0.05577998919977489,-0.009641383815738704,0.0331278511902974,0.48600505026020974,-0.1475570943839046,0.020943237244553912,-0.10756733602499856,-0.029813951495486306
,-0.03457110901269117,-0.4911514393018875,-0.05897718087299539,0.3060108765920006,-0.3490724711597769,-0.3286282121218928,0.1641465828763089,0.04093980707782943,0.27990825000095243,0.018525673139617307,0.1346030166282158,0.04685049735446025,-0.037912596578477974,-0.04202433247745411
,0.06864009419058252,0.4092650819248175,-0.14307728816439325,0.419152553426647,0.012330693649030156,-0.27677673735069674,-0.0769016070511445,-0.14592704817497468,0.10624790425723929,-0.3260325355354868,0.011180334258140603,0.031719861453966915,0.28994587945867417,-0.05089329943897585
,0.1892501307660404,-0.0005863041415384418,0.0708206963907042,0.4857876866625371,0.12735243562206264,-0.22559009876840042,-0.09272509621280009,-0.09498842077327617,0.3003441855827697,-0.4087327872820999,0.05376507523786582,0.2582366090006728,0.18572148662769516,0.19909223965683479
,0.05305083177835915,-0.3638487774563435,0.015045925894285932,0.3261485643260321,0.19610296095904886,-0.30221403508828115,-0.06337943670219597,-0.1796929780241736,0.294247329298551,0.010619056434299334,0.12878102499253918,0.16612528152396425,-0.06759062504295568,0.22575586735331135
,0.10591160501848061,-0.23728653223615956,-0.12314631340844921,0.45152610368587437,0.24355883444304852,-0.27209363624556615,-0.17765868537513993,-0.20850986727085827,0.21097932071676836,0.16971599404431972,0.16439126618906538,0.07697729271491693,-0.17501492278704758,0.18691857127008452
DR,0.15618172746007672,0.012532968269012575,-0.0633106579218264,0.4335710634092445,0.13097452682995764,-0.2421944200974407,-0.05914727568419485,-0.27626336576015936,0.11939387241873513,-0.3123466953447394,0.1611206724026636,0.11209966497600636,0.0016899183608654644,-0.007860409294398444
,0.2941466785267346,-0.048315581507832696,0.07505105970781367,0.3558217183430357,-0.040019718790210414,-0.25260158327428667,-0.1189858393661817,-0.1971759450855811,-0.018752904317767067,-0.4424909943218692,-0.03753034659769502,-0.043127170875300797,0.1036312024793018,-0.12661925886977518
,0.1270756900321174,-0.5096374755413463,0.007918704303524024,0.061561832631902964,0.0345679598443843,-0.30669712538340743,-0.03600070679274402,-0.038063762960619654,0.24486660864370996,0.4873419030631592,-0.09371645785809427,-0.07195608623676199,-0.02315686717343661,-0.042417898790560876
,0.06893822211564746,-0.42586518140718016,-0.05102860032580921,-0.05855777705464491,0.1456398087083049,-0.5325623952701652,0.054371689772181306,0.08853669114275005,0.016694118622911352,0.053145136226295756,0.0896102598474761,0.02495889930955053,-0.09382917934490755,0.049421113170570054
,-0.060242294170606434,-0.25975814669482256,-0.11409297923727853,-0.3007597111033784,0.2150466555393044,-0.4578299155024991,0.10073665823362897,0.055979594655365915,0.003398850825216689,-0.5754626323213342,0.27525216123221674,-0.22455172435218096,-0.09811153935189887,-0.06474226962179817
,0.0019152808911465941,0.040056070282277784,-0.09180233066558945,-0.020122615650601274,0.032206167770143554,-0.17247319916831985,0.47572116899500494,0.010363233979639227,0.28793818957583983,-0.3515077230118467,-0.26899009490239856,-0.2973705301405493,-0.20096641960149078,-0.2555801525448223
,-0.16836536226022555,0.014399595507431329,0.1645427555518513,0.22150269518270393,0.07472429531514876,-0.2968085105501278,-0.0031268982299264194,0.0013052596811628351,0.06184479047466556,-0.32636327204799825,-0.36667652397987427,-0.12253157164989,-0.09739650313542457,-0.07740507472655887
,-0.17999118445159887,0.18131345622984604,0.06185341834341916,0.09415121840736769,0.16778262049576753,-0.21813554473556435,-0.1411599434259611,-0.062064453602314516,-0.044952578009470646,-0.592642270849427,-0.08445390647058464,-0.013772109893215588,-0.013180754863501822,0.029697641769519233
,-0.037612379130559405,0.024888988816964244,-0.18017361963438708,0.43894559484263806,-0.10677735696795877,-0.24944245896684925,-0.004797204892886104,-0.08697158951515307,-0.04875760026279752,-0.8409287198860107,0.21670030048354955,0.20870379719874307,0.06548186979197018,0.06183249043773984
,-0.14888055657085883,-0.30312533388354235,-0.157117863588995,0.359699784557131,-0.16938645740057995,-0.27017048370779867,0.030003331288638482,0.12031887151917332,0.21843541475011358,-0.3167842645570618,0.22267192542666933,-0.05576073693245982,-0.01537898291990086,-0.10677598091513579
,-0.021096097356860025,-0.12510160293088526,0.09389831719610921,0.19953719613081303,0.2667994623732013,-0.19412548015175476,0.07194740017468344,0.08355877230712525,0.2651471846601186,-0.41303762021077306,0.1592711224918548,-0.13929107367641302,-0.1433461626074367,-0.0807525854499144
,0.0812650944517832,-0.09997684010040657,-0.04584881305355345,0.08018464602896948,0.19166508111954333,-0.00783703848435309,0.14444953168937233,0.19056933336400442,0.10548355637601176,-0.6424816870743086,-0.01428317718202078,-0.16811029575411474,-0.12722286745508565,-0.1294253757182804
,0.05648942969849574,-0.14853030091553465,-0.12565666230508388,0.022865726407429607,0.17427325364378998,0.2415763540656127,0.027036447602076033,0.014697230301993791,0.08916932955761984,-0.2515729091276277,-0.10798947071447662,-0.24837124663417143,-0.16020153078306656,-0.024648839657811047
,0.09492414373824333,0.23673423271834823,-0.13117251122217477,0.21162346431759158,0.4125181302664821,0.16236412208244524,-0.27678964973459197,-0.21135928651266464,-0.04009876697988213,-0.2100604764534849,0.1497561226932694,-0.028119107330626347,-0.05037581697474432,-0.05311417861673668
,-0.01348441310714039,0.1299285195539023,-0.2715571954605122,0.042882337962707226,0.6280526388024545,0.15267121638568884,-0.08246780240470322,-0.14023979838700557,0.08941793218819429,-0.5110528623598949,0.13870017016458433,0.3737272077301924,0.08086382335176885,-0.036039787104623126
,-0.0747976875649097,-0.3398313495685963,-0.46838148886339265,-0.06689162133229408,0.24011981152033482,0.007442669514156784,-0.08987275554903029,-0.08132850340668772,0.03734737579494697,-0.7843851940014159,0.1688205977732222,0.19950233707288692,0.24714725858426323,-0.05186684280032878
,-0.1664537698454561,-0.46411965864851634,-0.25381857536593894,-0.12735681470768775,-0.018733514517099016,-0.2197859899415824,0.2535741216451898,0.059036624930624455,-0.004845642787964946,-0.4945107128468271,0.01886381584447776,-0.09863303529716343,0.014103937374995722,-0.022099462587763324
,0.08046902224242013,-0.24185970635701892,-0.029343229143656613,-0.18621950547189456,-0.3266316955574451,-0.3316269666036235,0.10373963627658907,0.06774161518207397,0.054517686937120224,-0.4357241934892429,-0.04399592249264766,-0.18442931359898543,-0.05813099864921501,-0.08383672870535465
