event,eeg.af3,eeg.f7,eeg.f3,eeg.fc5,eeg.t7,eeg.p7,eeg.o1,eeg.o2,eeg.p8,eeg.t8,eeg.fc6,eeg.f4,eeg.f8,eeg.af4
,0.1073088366407477,-0.1177964551269952,0.018361273456779872,-0.057870899107243794,-0.07917639370571525,0.1667472422482424,0.24147797858243913,-0.13866693581430273,-0.21419664695138257,-0.2257301092396509,-0.13987779582967544,-6.417237272549772e-05,-0.19372112371229483,0.03244673392611856
,0.2335691282567032,0.09306902357511326,0.01381827264772781,0.04544642317085796,-0.22614762902209004,-0.3040160548779353,0.006597564122968877,-0.02775555925987425,-0.28414912246224455,-0.35813707156276536,0.002027711616896446,0.04277868362145638,-0.24040007831646618,0.1346705487122959
,0.10274192141068428,0.05412466676906362,-0.014924000275905826,0.08805932225551474,-0.12524760455970665,-0.3546192485440607,-0.01864294598275355,0.10324777018300445,-0.25170053211194054,-0.3495183238009956,0.12291970025820025,-0.1012947800871714,-0.24506639468930522,0.02471951126379346
,-0.2028188127833887,0.04908301455129942,0.039398949955199034,0.24457818483272215,-0.17523583035201656,-0.2231366157961297,-0.13361357548810554,0.06333748840270184,-0.3621898695489364,-0.07598639189418306,0.04633485180146284,-0.10618631965169763,0.018075331402029104,-0.057706399934103036
,-0.00994303391471291,0.10820757563394467,0.04646307446944545,0.49588638136339325,-0.04205195502479488,-0.19314505075315966,-0.13770879358914617,0.024688995081740005,-0.32435069663454746,0.13411360899833774,-0.10600650581397343,-0.02593525507368495,0.05814926543182491,0.01958930429948374
,0.1257709802086157,0.4005258238555982,0.06051891051950557,0.28623418551079294,0.12994705490630531,-0.2118559073211783,0.1453348687973709,-0.048147770271143586,-0.20024773075949817,0.19026039663757643,0.06460392307176928,0.10032783699711394,-0.06159721186506425,0.13645328095352147
,0.19537190439597238,0.4678227578318496,0.17397140676112274,0.30846385715370617,-0.22866810031616708,-0.4456219987402669,0.23086327130872059,-0.13149474222714133,-0.3024939892624516,-0.6447392064938958,-0.07147976533795726,0.05215511727647221,-0.19828720259071722,0.07833024599404444
,0.23635524915915296,0.09572487754573022,0.04376722329297022,0.27983800577903983,-0.24453861399169013,-0.2648031073598227,0.1980004656741417,-0.005576896364090172,-0.3933293066310295,-1.130449685794721,-0.17934245359910408,-0.013256093586502853,-0.34288047396502963,0.1157129043790907
,0.24269772897815997,-0.185289754882694,-0.03287954629171511,-0.017041974323561287,-0.20155692569160052,0.11814734385078246,-0.1821130442435846,-0.04357259943335727,-0.3233725969713904,-0.9846831791362664,-0.20220299452069626,-0.14112789843276685,-0.2510786851803407,-0.030544869698983384
,0.14776531143228913,0.046987851440806076,-0.01156378618963099,0.15990419857506244,-0.16245796510218238,0.24713358736303365,-0.08573599712067653,-0.10194718652028673,-0.14694992148319103,-0.1416096173434592,-0.16124780035312822,0.009424817719838522,-0.20337116613136413,-0.0834524124534815
,0.2262335571290602,-0.018411078962999202,0.1934490328939248,0.14467665294057808,-0.19409629865235334,-0.030574791421951537,0.0728949029148752,0.03511186026971891,0.0942949612277534,0.09298918386949223,-0.010584606200672196,0.07431844945605783,-0.27554544721144836,0.09440426250597654
,0.17845785738583855,-0.015278966535269552,0.20889520141402898,-0.1486404645671995,-0.04916230173099891,-0.1649840538493182,0.16323846235143133,-0.08844764588807658,0.06087502486356698,-0.5896313897663679,-0.07810025968426895,0.04157316984036757,-0.11627161544820262,0.07817661123518366
,0.09579890724972365,0.014008392178476386,-0.03465244458863006,-0.016164013214129136,0.15944719287194706,-0.23777891631461276,0.11399990169922226,-0.13858329801499672,-0.13963072475357238,-0.11870942095922535,-0.06640089279658867,-0.014193192931359039,-0.19072379997940445,-0.05506739773983928
,-0.012556430677943908,0.0004654046394401247,-0.19160307151319442,0.21663517632514062,0.022876221247041976,-0.21347719139085033,-0.11879461406707435,-0.12311306087181544,-0.19549132253547472,-0.2901781885706924,0.07781914277042823,0.058348713090022854,-0.15714714705781524,-0.11082661901257852
,0.034960264573529236,-0.06548682488904262,-0.1673269263258583,0.10192905003811194,-0.008255098405871646,-0.1570084225411534,-0.1290409837065249,0.05835568351818395,-0.16530375324918029,-0.2632036274617202,0.09618589874805902,0.3194569873148023,-0.2584487974572176,-0.020597096029492917
,0.04136363097136355,-0.24292058325465932,-0.09971794440857625,-0.030828039764522586,-0.026355768394027188,-0.14020375613610495,-0.1285583851690908,-0.1053280775284945,-0.23765298318571695,-0.029720521942491116,0.1293595966299285,-0.0017639583692752542,-0.3716051505158006,-0.16416534581190678
,-0.036754649444815796,-0.0274899941285351,-0.06158804680457942,-0.1508870564338296,-0.06422377656961897,-0.19139317861212174,-0.06562039844631777,-0.30360428151056157,-0.16583447176076102,-0.40780738020446783,-0.04591389805852978,0.008255219561941094,-0.16062480202664492,-0.24478647877365373
,0.1413692477698427,0.1762960686557103,0.0013011922778708722,-0.16333488073947103,0.03958778776760886,-0.0558465396994049,-0.09072932064958633,-0.3154204776936612,-0.180423347491136,-0.07995711341032644,-0.13299540158143638,0.252014312922166,-0.030828314746752766,-0.10581079165171893
,-0.1073781160063083,-0.041618617509913726,-0.11315571974071931,-0.05529430989420658,0.1598606814838343,-0.2644812587669667,0.04030205718328948,-0.0661728773069237,-0.2099738778458382,0.18473448096212639,-0.10546310108755343,0.36942818097338903,-0.33260923876388204,-0.1454507546605773
,-0.16543482603795132,-0.10399970184056931,-0.2957598735404632,-0.2597473680254159,-0.034094838514732474,-0.37341451248860885,-0.03618616589943566,-0.007673940610555592,-0.2882786982304115,0.14370429879972427,0.21688366780432725,0.03857091438528538,-0.18654743080450012,-0.02340757423746442
,-0.07348182857226797,0.19091020645533932,-0.1591198042603699,0.007301182531521326,-0.16138309484206986,-0.5246729714987418,0.09339725681594559,0.035051713620889755,-0.0700359890641618,-0.239217042100119,0.22949374521803528,-0.17963800417081446,0.017791157113566786,-0.10239200958408619
,0.06992326945637527,-0.003049267770019096,-0.12086077880079622,0.6366443142480722,-0.16911564639855187,-0.35333114015513095,0.07029712868057991,-0.11961470078276143,-0.10761783961342172,-0.22395687284657834,0.037091161566712695,0.038224714877952384,-0.21192109567249892,-0.28228470846043474
,-0.11226831949987484,-0.1451548741825714,-0.09078911762157671,0.4788925024806749,-0.09676037611250472,-0.14122053098050924,-0.09885750087479428,-0.23320185108493988,-0.0911801660471323,-0.7536221601141733,-0.11496280394006292,0.03522638909998681,-0.13843993741086547,-0.4104361087380213
,-0.09587002032668272,-0.17084319554614485,-0.1328172389645891,0.36940360698789887,0.03361036665682573,-0.13688056257345174,-0.02489553627066672,-0.22778040020886342,-0.11213186965107437,-0.5535337381394808,-0.12291844116673036,0.15387886582873161,-0.020381976263258352,-0.3840652898653441
,0.2035708206924347,-0.15033152256086912,-0.12434696195469697,0.24783388143590732,0.05432145919927394,-0.09913732990236875,-0.1563373570654439,-0.11201956697748776,-0.012573501198082628,0.22213935067209367,0.028497535967302652,0.035877450348655256,0.1290126499712474,-0.3237294646533699
,0.085206172719507,-0.024778846851349776,-0.019036890975028153,0.17893174661697572,-0.06357369880998942,-0.2208172485600379,0.042936288715074225,0.25939679649129754,-0.22741827098256087,0.5264649185329527,0.16014612176799023,0.13603022602177622,-0.022264179228347822,0.025427581965811696
,-0.02719580599010507,-0.07842348360491966,0.004599427545103391,-0.07968072354822361,0.011215941764941957,-0.01751113275214897,0.005601415452713911,0.17823705446496607,-0.2785487643276749,0.5859866246493184,0.25324868174018045,0.11020678225856664,0.04067340183342565,0.28856039306089787
,0.057362879501206124,0.14189060891635893,-0.026192003209059497,0.13177309753208416,0.0755082275967732,-0.04383417284222819,0.13291011423039423,-0.03255114329617457,-0.13559660038644936,0.8670643470725037,0.16182270750820985,0.10806286518264566,-0.02771767608250475,0.3115949509218502
,0.12330845193663613,0.07535450360968528,-0.10281728740322733,0.36963236676390626,-0.0383547134322802,0.04875529379312321,-0.05172281779969808,-0.061817165253015484,0.04617783188851663,0.6581952965672916,0.023566983446914855,0.0174153487750267,-0.14027110957196934,0.19887116123481038
,-0.042435145678986694,0.13838614837725008,0.00543007308126905,0.19528884211122285,-0.044015032948766276,0.003365077193638157,0.09791057180651767,0.04433881262438129,-0.01948808524823987,0.13770965803130725,-0.04815335163014649,0.020804411649142936,-0.1863877435297407,0.12825449408180153
,-0.029535648758442626,0.36196736685956493,0.13433280995633057,0.28015786728626646,-0.14011884421643353,0.15758712222149143,0.018727930410685465,0.24097730379989424,-0.002651781635986356,-0.3408007343884658,0.16614776414912946,0.03559944311738827,0.1315376304179115,-0.03571652022717148
,0.07099598541140316,0.2733328581743141,0.1847648863334671,0.242405208474832,-0.231657362189512,0.09527039835855781,-0.2612542201673129,0.1579248757826933,-0.24116957471315265,-0.6379758709714185,-0.02292477782469217,-0.14310145957640222,-0.06886588572149759,-0.0014461513116445415
,-0.11814845068346176,0.002693299992623229,0.17610828614971616,0.02966354735575537,-0.3128493405356002,-0.14824000795425818,-0.24870957034836486,0.029435226124597896,-0.16920822750980327,-0.423558607955851,-0.11904524655833042,-0.15654434644502976,-0.19708968424679288,0.0860851877333478
,-0.0978801301687377,-0.22460927177692763,0.05370218527868861,0.05029212975702948,-0.32636031938272747,-0.3373315168331319,-0.12221846507137299,-0.024895584942909447,-0.2290344062813085,-0.21368962436481032,-0.1503366488651257,0.08025006012668688,0.0073920482010657275,0.02039223549289279
,-0.17650255163155434,0.038527172309793106,-0.29716541718715905,-0.2711829168385029,-0.33329129833013876,-0.3146213233390991,0.11042407714301006,0.12193447705208726,-0.38210431053423716,-1.025903792895739,-0.050708794243200725,-0.06824850321331365,0.08126677845509306,-0.2691527850010751
,-0.39596365912172676,-0.10090275028612979,-0.4727992993392924,-0.23082504583473634,-0.33531499874490434,-0.2585100513934827,-0.1360651022308114,0.03046437028917305,-0.3608328536510303,-1.249143088352779,-0.08406215798681746,-0.10587045362491018,-0.009762476121828772,-0.4833483067459187
,-0.3566777524978597,-0.03984845898368174,-0.27841869010849646,-0.15147119742367068,-0.20223058461066798,-0.4270073773538949,-0.2269657036469594,-0.0792068477247573,-0.4565531996484063,-0.9847910263466506,0.010894385483138858,-0.1780773314369253,0.19992125366527785,-0.25874912778169007
,-0.14152203934741525,-0.1364004491845647,-0.0687935317245341,0.09973347883786395,-0.1686223027791046,-0.30975947928226133,0.10243901742588289,-0.08794539299607437,-0.42162488329428105,-1.0168752362525946,0.08021727551421533,-0.31388144226966963,-0.09263065271623468,-0.00469343594571617
,-0.1564045798838274,-0.010170459817317989,0.04498666240622115,0.24829162875100588,-0.15662826077916014,-0.20602589654007783,0.24835428045545718,-0.0025272243190384005,-0.32911443459279766,-0.494060687034229,0.043815339692559095,-0.07405281029542433,-0.060432852063822116,-0.09640917900828448
,-0.24422162783657925,0.28004650567811634,0.07223936251941125,0.33195928144408515,0.024457097090659238,0.005224131875181958,0.1551493703253077,0.040520056060464486,-0.4606427484648072,0.8814647910423512,0.1144227411178516,-0.09258138438503072,0.176321323418668,-0.22916997551979898
,-0.1376730458990258,0.2660982566868674,0.03863656742965052,0.3437139645164272,0.008473934559580962,0.06212932008243777,0.11041119389767425,0.05492751350522986,-0.3556645453142858,0.18172109882706067,-0.10606427523195273,-0.015605199980125191,0.12419882369021498,0.07846856757361498
,-0.04257013887210586,0.12409632070302369,0.0030380463584025927,0.26743007804247,0.20190760655048648,-0.14330289643574537,0.13877795089719192,0.014688749016693639,-0.28768195144070985,0.0347555356469791,-0.1139162795614158,0.002132757050750614,0.02611016382100667,0.02009573770464727
,-0.09079719808467702,-0.12932630044830573,-0.0038989893241600767,0.2616080544178427,-0.2719479143606969,-0.28203658077299293,0.17447181416836116,0.0261792379415569,-0.3020815694291181,-0.3631639700494868,-0.029518670537708448,-0.026197223877154875,0.08843596602747963,-0.03379604668974511
,-0.35099111598084265,0.20091232318474647,-0.01384345737540536,0.020675387591334568,-0.4987899806211763,0.1188259594683995,0.04201754659598346,-0.05685193912179475,-0.25878743143927213,-1.4666669151214027,-0.1990464866388721,-0.05740619404534895,0.19140887364855563,-0.0017152203541191601
,-0.2471616575459281,0.15012765665472833,-0.0812855393939211,-0.14019723209283708,-0.259528506481785,-0.21006292987631497,0.08280800506172616,0.13685797056381807,-0.14839809889722091,-0.9591606182954194,-0.08943032462660709,0.0729294119801793,0.2018203684166643,-0.10995247235832119
,0.1196505020933512,0.09199198315821865,-0.2545670227488043,-0.0836866531008889,-0.010181893299228953,-0.3475512968278112,0.1624163928531132,-0.02013399226154919,-0.30381963448840066,0.015828854434919357,0.03141132215732564,0.11402102433114127,0.04419241648493204,-0.12026328824144439
,-0.007392782904097186,-0.13978935177998045,-0.10791736213398141,-0.19838963371725502,0.059189972948667964,-0.3767513347919928,0.029449963165428604,-0.20687349015661943,-0.10646120041788336,0.13251907835001495,-0.16083830278007258,-0.03493845485905694,-0.0752079129306666,-0.1067103984437262
,-0.07051557675592128,-0.15070223497501667,-0.2165693257380416,-0.24894074392157228,0.034805579971886075,-0.5214648137665804,-0.004816158084353821,-0.2478482562173398,-0.15483237888139872,0.05807864849914844,-0.35427412903199423,-0.09963048859173593,-0.24969016412780248,-0.11538150719068208
,0.03932467751582722,0.26751475221563387,-0.25160453719567266,-0.1714783876429698,-0.11205228688925749,-0.24381129141760477,0.14290433806741837,-0.2357043059904245,-0.08260321678641806,-0.48805102896614255,-0.30304991207572757,-0.09011183187772699,-0.06879580709591998,-0.11767364546655971
,0.14155076955094145,0.3120690133750656,-0.16637025812880568,-0.0090950255137565,-0.2006766906202241,-0.1306206139353639,0.16144633300143552,-0.318367728919663,-0.26829115131888087,-0.7493604028213571,-0.2921514768867717,-0.06719854217405123,0.024071184899738512,-0.08790657106517866
,0.02495864406241556,-0.3710590510996978,-0.13900782026897038,0.382071010467563,-0.1317458527183896,-0.2999135090640361,-0.07104795647947301,-0.24078873832673356,-0.2740499662438941,-0.5309395429967055,-0.21482394361431315,-0.23858099843136402,-0.22643378646125548,-0.09674969143003538
,-0.19184873682104858,-0.6056574656580013,-0.03929434572987209,0.20816230046819953,-0.23803889789391297,-0.20646668244334415,-0.08093775533033283,-0.17154816879086865,-0.2607008650043725,-1.1412619835646234,-0.22817199392105172,-0.19995577427385247,-0.2450089616615236,0.037872754582394856
,-0.09477967309526926,-0.22061551294116696,0.06071751545437062,-0.010531802309557498,-0.2279058484911672,-0.24541009251376159,0.019521868026156568,-0.13223118112893345,-0.33851881251683386,-1.2307662827953618,-0.25769802754576415,0.025342527762300684,-0.17721878837813693,0.038454457513351165
,-0.1359031084927327,-0.24973350125249696,-0.1033941117899723,-0.03261688704766458,-0.007556875667936067,-0.4861785338894675,-0.22070183141995633,-0.13574279114455776,-0.38804311556238025,-1.1582464521140665,-0.0027013037464963577,0.14466134046103532,-0.3108307349879826,-0.06934875395870706
,-0.24620809993516282,-0.08240260600740644,-0.21282774430084958,-0.0038063515553725604,-0.02968137682135627,-0.4419314161138942,-0.16450213118979015,-0.20703052363369573,-0.33118736502869606,-0.5720333830194836,-0.02564687501362034,-0.03574353276264665,-0.13213305874055065,-0.0973568465486771
,0.09289535832509174,0.05428059126478692,-0.1654481762334702,-0.2236944726111424,0.007822584411600098,-0.20802927247186923,0.06528674948003223,-0.1537888737242269,-0.4219919499768867,-0.42673080294607674,-0.010050537308866124,0.03958809505447968,-0.06652296191063706,-0.08273685842171365
,0.2790891339865359,-0.24925056238114032,-0.09413716967793234,-0.20486733453963668,-0.16097977286380208,-0.23292990706041392,-0.1140101258276544,-0.22774808260299573,-0.5133723061640423,-0.8606684255381689,-0.12886266362422055,0.11713886821974062,-0.12807830681805973,-0.11443301732476407
,-0.0924620797259766,-0.13920430608320145,0.07474530878986327,0.0543856806728672,-0.37246346302114547,-0.27881017250392975,-0.08141590367773692,-0.33487272545198765,-0.49065172390141293,-0.839960895814862,-0.06174132208910646,0.015043703174855474,-0.2802681291997033,-0.16627905297666806
,-0.17161530670103411,-0.12334396938404701,0.02623074639175595,-0.06590381000135288,-0.3761027060474318,-0.4021272023402918,-0.02414114825475665,-0.3748750839130812,-0.3831748208785078,-0.5107587393241613,0.17752243485988076,0.18703719978291994,-0.20368492159119908,-0.1245295379928318
,0.03520045619486109,-0.025919970661453007,0.035412002164159885,-0.03866082557224537,-0.09618579378877393,-0.23584634255188694,-0.12732102930824898,-0.3146859053693546,-0.264593865345517,-0.8783242226798305,0.3206983160834616,0.5067842357322048,-0.06987414984620721,-0.1664193476052287
,0.0925251942352888,0.22777440642693747,0.11952099907414684,0.09516070673423012,0.12909608380493368,-0.20900272036864426,-0.10167746798485612,-0.08982452724960568,-0.03664005448465232,-1.1052252569658512,0.286287142515674,0.2676035348377608,-0.14310655145915088,-0.04331039169436755
,0.09706221780597368,0.3046431032098645,-0.08047693061873393,0.27442137776059916,0.11381632255717215,-0.11725393704960639,0.08110729139382282,-0.1944655476661875,-0.038353780785554896,-1.1887236651321016,0.2973447631152115,0.1824401963151848,-0.08476172739691512,-0.051530431637873866
,0.12812014875284491,0.526582644926574,-0.16253075912573126,0.1879552443287292,0.01125785859289035,-0.07120168950806305,-0.0015616219210083976,-0.09236263351554597,-0.2784644431603333,-0.1984291355662575,-0.18648406791139882,0.23264133258873435,0.03820905387312153,-0.06344729459351066
,0.1826389361414079,0.2700582821697113,-0.04172476957368627,0.20635195530490202,-0.028890254277802254,-0.3819105473871838,-0.09663886370378252,0.12514906901953812,-0.42736713904131063,-0.35243765801778476,-0.1905350549461678,0.2334118040824058,-0.06457830334097771,-0.09279452055305035
,0.3334784686363989,0.40552601802251587,-0.14092980939629468,0.20950582766271472,-0.03869674144229074,-0.37476049431715386,-0.33081185105555844,-0.18106495498570727,-0.5562086310898894,-0.29608703449876667,-0.12482230748545482,0.10014364209376683,0.16637148335394802,-0.3225025943866484
,0.20907275485872392,0.1539740497307175,-0.20212169256602375,0.11927702905895267,-0.25908694790757547,-0.40383677234600696,-0.34604320474314176,-0.45915300759697814,-0.42089612589185776,-0.8090967991057116,-0.06780201871331738,-0.13234212109943294,0.24657856680685983,-0.14377605952625655
,0.027474724642345193,0.25774126675517417,-0.02538665500477175,0.19988285163824418,-0.20630874385105613,-0.20093805038782583,-0.3041453138384578,-0.2589438063939028,-0.16620959709101552,-0.6426061196004418,-0.06909538169682543,-0.16246023176020824,0.4560954729555399,0.08205192098306778
,0.07583041442292135,0.2387875537823588,0.09366319112035217,0.471961645505404,-0.08761276571858063,-0.21974789452939483,0.18219742048485255,-0.00888749642722289,-0.09565164119427608,-0.8818913254032849,0.052370803756729235,0.023695358109936684,0.4012515559723125,-0.1586937130976261
,0.05187576526050134,0.17874281437702774,-0.1269123335900931,-0.025824848533765855,0.024603912536273136,-0.18506583011381303,-0.04420591370863512,-0.1500155476010139,-0.09281277148262258,-1.420123736767237,-0.19627888498591306,-0.08647360250672514,0.03055103853832557,-0.24878509740773502
,-0.19642948626189327,-0.5116948873271709,-0.07595541507489517,-0.09879950250085173,-0.10631363623620624,-0.11605662844309667,-0.03258806268587765,-0.03950477361049975,-0.1417271366672776,-0.9513528079070882,-0.24910653553996565,-0.2868590462818236,-0.08998175515612966,-0.15619129948610952
,-0.26126234103515794,-0.47071683485436056,0.001291773611483325,-0.01697497314735461,-0.07231417682885245,-0.25445824831287983,0.0005457192630168616,0.10114923964029512,-0.20691391064143425,-0.802296452565002,-0.2087508185007105,-0.27041758472667304,-0.05283254209450513,0.046767094829783244
,0.11276933658768938,0.014384150697116408,-0.19425020376115953,0.1772640470063682,-0.046159536566908924,-0.13941658603998963,-0.0030528872493849643,-0.10876619073937087,-0.3467775561388719,-1.0104079019737042,-0.18790858779176403,-0.02540481925492113,-0.017811870432724704,0.007869307002966862
,0.2224519881015527,-0.10632974124688682,-0.21343287223580926,0.29419092860682,-0.07981290267363413,0.020579461344722164,0.11233401398552043,-0.1679419811437025,-0.3355922711269471,-1.0682864958501201,-0.09563121550507069,-0.02526499379506924,0.053984853741422104,0.058981127773242034
,0.22371354678646935,-0.23656297134760154,-0.13811056991271164,-0.15466120991257556,-0.06914420413991725,-0.17088877965467672,-0.06155543953632994,-0.15015198969671076,-0.24813747817396148,-0.2618411909670259,-0.02017078953424843,0.050558841145300286,0.065801604653795,0.10310004030619309
,-0.08965222223921138,0.3381464844803644,-0.0849443952007436,-0.16977643905975245,-0.36485180027650355,-0.5265106206168028,-0.14639959071597902,-0.379266940408258,-0.27623863515688496,0.48509063106973815,-0.08424331874483679,-0.17827782214477303,0.09008303627588042,0.014756602289093645
,-0.12338293456199449,0.3750053024172248,-0.11785449951946292,-0.11878091804774768,-0.3552490167620756,-0.42217839641095695,-0.1485027213147558,-0.12074567148663488,-0.22465564621173809,-1.0376090687458346,-0.09056168853709737,-0.09716782182235868,0.2196702946626539,-0.06970826333885963
,0.3192702376156862,0.1580797032907455,-0.1511691136788755,-0.6113999262992756,-0.2398363248633424,-0.32082497781586916,-0.10116766132703991,0.08609615245850967,-0.2880328660713505,-1.7405920483921284,-0.006803994203133973,0.16524624397659624,-0.006072239645416144,0.1450140397231263
,0.21274724968045877,-0.06242969256771058,-0.13840318908475524,-0.6660448018813443,-0.04130830475496677,0.0638608231517764,0.05834945506832495,-0.20677581292253117,-0.3388008382587786,-1.3586931429806193,0.02419469663009446,0.16812482995519243,0.08911849889723211,0.07541188338361357
,0.13355234442227082,-0.17278146921689805,-0.028752517474590383,-0.230347849088278,-0.24560307467020195,0.05592554154508877,-0.015225560329774474,-0.3502290513701279,-0.4275483299085431,-1.2372742247277886,-0.009171663944287547,0.10703022663817575,0.06934824028080566,-0.08882222642722026
,-0.045792445899710266,0.08631777712192004,-0.1845961920778982,0.027054419024167227,-0.4857796869107155,-0.4539309213799063,0.24720208112142275,0.03128088173058634,-0.34427773954857555,-2.0612035920594534,0.1796193799328867,-0.13499130714438576,0.09622154345342873,-0.12312769062357347
,-0.08893841856564154,0.10491382942105258,-0.20626814283928022,-0.01020940472501007,-0.2635998386001388,-0.3379334184228031,0.12017260249434296,0.10907425852587942,-0.4382209568021816,-1.486805773726572,0.42631688792388056,-0.1534720822173616,0.10735135457899929,-0.10348733667533065
,-0.18422468968272976,0.08629550670309483,-0.14833356534798714,-0.06369586316519944,-0.2198106046314663,-0.1551313958105543,-0.16835709323889728,-0.02123625251160785,-0.2348233957248893,-0.3353278059244491,-0.08169676031012597,-0.05337652230735981,-0.0978867642954945,-0.048075628287899436
,-0.18218101680249718,0.05385780566066859,-0.016933071092871912,0.09880159432688447,-0.20482148095240704,0.003943273391586058,-0.14133691317624233,-0.19496768745201845,-0.1305132926940352,0.2840253030915291,0.033917351897016654,0.08414424553394032,0.07446523166727907,-0.008991869743063928
,-0.10991944973778434,0.08934935887943707,0.0012737915215040316,-0.2870767361087174,-0.33671089402620785,-0.09042334697579092,-0.05795224257351701,-0.21020632310047652,-0.31446134656168806,-1.016054242736128,0.12999816026773056,0.001813744992787278,0.14879977531404204,-0.0948203749845182
,-0.07096823051599058,-0.3590510260569841,0.033241431904066275,-0.391344139356605,-0.3159377250951002,-0.45207438855024273,-0.17618821739736787,-0.35180174338320797,-0.5868212256844049,-0.39108140667004054,-0.021542749814298743,-0.05569054812844288,-0.26196954054811544,-0.15539145746261204
,0.025422781516649496,-0.29898902927071,0.10049431156230756,-0.19503132025852832,-0.06349700046351871,-0.22424240390137426,-0.21108890221493698,-0.45224130868997214,-0.549690926570467,0.29813197073746994,-0.12246360937576156,-0.13269313345585287,-0.2678464692659492,-0.2713699576172322
,-0.03454712031973792,-0.19445336013562955,-0.08559595246336642,-0.22911704730728857,-0.00687301679532962,-0.1347459226739039,-0.09615871414199152,-0.3792639295276052,-0.5042110971363053,-0.4232335175433772,-0.15265302862727873,0.061006518465505796,-0.03748489191614478,-0.3591999505262348
,-0.2309574233160413,0.19365054392725384,-0.2856685349880098,-0.023667830221786233,0.04374809926934218,-0.028277764360957414,0.039065417404894824,-0.21040236047377797,-0.3112194017524732,-0.4530572231889039,-0.15020819658883633,0.04160212160591442,-0.09977564522001053,-0.19536570297871247
,-0.26393877431532226,0.012565830250365024,-0.18395324043077074,0.04654140787650018,-0.35915800720382174,-0.0729848350732152,0.08272349984946155,-0.18904131475067398,-0.053855016308146965,-1.2455996790009995,-0.06017623203229725,-0.09500046108130883,-0.062213454055397535,-0.21868093019675885
,-0.2835629542041246,-0.5581096207438647,-0.1627802941786068,-0.030400038564706425,-0.4980563676302365,0.017538814830770792,-0.04387680068195911,-0.11926091292822104,-0.1760182088430155,-0.8005365594431699,-0.2894855727307572,-0.1425080186376942,-0.06210588176808698,-0.1966225856173089
,-0.1858159556320593,-0.21771696584775374,0.026750899540525536,-0.022930442362240216,-0.31105782744467436,-0.2657771966629671,-0.029179319712144408,-0.030746604710581302,-0.3105615114103741,0.46159873087383524,-0.12476415787847328,-0.10349717091362642,-0.21943168553350587,-0.1779175532792877
,-0.004767736398561553,0.0030818984918726503,0.09763681510605264,-0.04885232808822599,-0.16350724108822778,-0.18628748751493368,0.04309697280620082,-0.1451369322671339,-0.4083535903322268,0.9854127678827898,-0.17937372439971108,0.0010869011209245056,-0.06953711946022688,-0.1486231267596896
,-0.14376005217597518,0.09926362023424723,-0.041814410367730856,-0.18862918840128828,-0.29693675538240344,-0.1810128149642858,-0.012993783514092293,-0.10022367300119306,-0.30631718807428104,-0.1999276383881005,-0.1588568714885879,0.022653988087428783,0.15259818196233652,-0.13219381322865567
,0.007108191813075083,0.21020805228492817,-0.23854908265387403,-0.20694648621639167,-0.40137001824372365,-0.11372626716492307,0.01469111111168556,0.07474778655314986,-0.008716303118312821,-0.45092805994613383,0.032024120473597636,0.23901365313486445,0.12813600150468935,0.03557616941988867
,0.148610902832198,0.3717682281746847,-0.3245533242832838,-0.1519629785246473,-0.23665017531583826,0.07222305028069718,0.012913112181324429,0.010759307373310826,-0.08856237312874565,-0.10544205303066437,-0.06183817654247993,0.02863583751273728,-0.039756388698105494,0.1112360155813662
,0.04644521218498757,0.27536246938362047,-0.1869787923688764,0.008372032331018766,-0.08166457114869427,-0.062358984935286764,0.1809046091602747,0.10110016320084862,-0.11814064779514902,-0.30412348797163585,-0.14578904612011157,-0.04127065214643911,-0.1401898486816669,0.24546196903624973
,0.14276536008177662,-0.25713407751879264,-0.25174382839703396,0.29786863608153225,-0.025934582342399377,-0.07488230042021954,0.0701723692568278,-0.08127195205176645,-0.22548552232938357,-0.32320831977148945,-0.15712640220894555,0.08214655821592588,-0.058972356682558305,0.1237621836820718
,0.0987752035252361,0.08416795923647159,-0.07173518280191073,0.3480130744972334,-0.14890371162004193,0.018836785744706656,0.040927951877488475,-0.06977975381738197,-0.1776172910020989,-0.7763013024673816,0.03163556551893275,0.025353177209784222,-0.07592419737235251,0.03747099680743382
,0.23031092477573514,0.48776415221982106,0.04507371913697587,0.13012050840506245,-0.11117004069588413,-0.06831970403526615,0.04665169370073305,0.20929921123387835,-0.09715944080999173,-0.3858684532057326,0.13863414671401633,0.08085013583426512,0.007280630183379766,0.03393462060284693
,0.22091322249135623,0.09250476292333716,-0.02215696836489333,0.07553740055219678,-0.08912753992970884,-0.29110510539913115,0.15771501484308337,-0.16903777184169547,-0.056623945567050686,0.1555363757587399,0.009718607893738932,0.06288859909885784,0.3708680961968645,-0.041845873373355526
,0.02006631821727664,-0.1523868674898086,-0.23178237353925213,0.10225365815802934,-0.16158034727380025,-0.42338658893371545,-0.04881431023916537,-0.3644250013577775,-0.11284220904025685,0.11436926777046727,-0.32382077286550043,-0.3711372943292738,0.2578142163086271,-0.2111839638781583
,0.009254539266320722,-0.33279712268368716,-0.43712788400148855,-0.1462868248403208,-0.08031509888908524,-0.23033287403096459,-0.0751380855228311,-0.11273724544144198,-0.21124868481819176,-0.4432625825188856,-0.11975154107531794,-0.4615104945375732,0.008070204814267505,-0.1861075525414319
,-0.059462468748232765,-0.04249399602799674,-0.2252376631565569,-0.14995605006172014,-0.10585995120102258,-0.06372318314610788,-0.05179592626027718,-0.11583270673089348,-0.2450917692641023,-0.55367907413523,-0.05877527278895164,-0.010947105659252315,-0.11104212642416743,-0.1342320623036104
,-0.1397581710850903,0.03624464428907803,-0.04088685724987732,-0.3049882386021709,-0.12095590917930954,-0.03746552121444863,-0.23738289213556077,0.02318148744476935,-0.4351651428543119,0.32438449349741005,-0.12835168442938386,-0.07403369884485135,-0.029819102900478327,-0.1775075950418347
,-0.2211647715647436,0.07910442253479588,-0.11425632376379258,0.04000074792069125,-0.1698719408365917,0.10164499880777082,-0.053995327123362996,-0.055979035486567484,-0.47271836290930325,1.038621092720412,-0.07113806588566282,0.12607572261191974,0.09520000395176756,-0.13965235432840103
,-0.12526629009951684,0.11220011205937695,-0.1222134138976391,0.28767460189526456,-0.24145842333809028,-0.18007925399747512,-0.02435557538177513,-0.06403807474724603,-0.29377446095577153,0.681863494618731,-0.06863335825574578,0.05401786487286818,-0.04123150900813201,-0.045561451541457354
,0.07511671498320947,0.12025079081767118,-0.07272096786322958,0.27940760908212703,-0.48182965071800776,-0.35703351867754624,0.09379225720693944,-0.2485492723786112,-0.4157223919448455,0.15386555629524587,0.045450541305564265,-0.06049201631706783,-0.04627756630117113,-0.045209581184382015
,0.015236935661325736,0.2151879785354132,-0.10096494534293406,0.20764155364413814,-0.43300183137465126,-0.23901073181609306,0.006347906584702032,-0.32235395755836943,-0.4274348186477692,-0.7197307433165593,-0.13869332568738105,-0.07617791294459302,-0.09302717433497407,-0.06299160979755805
,0.06111339383521622,0.08534377929354807,-0.1449322395225983,0.10171656794528079,-0.26751431108750473,-0.2929256212481712,-0.1690105030310216,-0.1875888306571317,-0.3184668527828728,-0.06503685639619104,-0.350696859739492,-0.1030122027127644,-0.14687481012984088,-0.1279023407002999
,0.18309746450995742,-0.14839625948161908,-0.0694857337795814,0.3391303042159377,-0.33546027204978585,-0.4198342011746138,0.2682695316981266,-0.004004204914753801,-0.2663189093375995,0.5946724369259819,-0.33586751631862327,-0.13682525295101572,-0.009452408351135692,-0.07879522453004818
,-0.0038715562822761776,-0.17417367895297875,0.1042074214396255,0.17298145652599672,-0.2512177430885907,-0.21309828205213882,0.06048550034124975,0.10003363838054637,-0.005829612385311763,0.2881076354282893,-0.21136082878117016,-0.13441010398029163,0.18076592843868647,0.06059974000086086
,0.05430648252602082,0.05279408474947437,-0.06110909657069293,-0.013505191988378872,-0.10945971973452778,-0.15190481413381673,-0.27422811386220863,-0.19121054630181214,-0.15921195745246536,-0.2202161645916577,-0.16006203888932244,-0.2554348214132353,0.1145040395825809,-0.005122008934230284
,0.18175436134927292,-0.05865961774989848,-0.14612310889597233,0.0916098645564839,-0.09941438421888942,-0.15550329851199793,-0.14986409761061856,-0.13614600669477905,-0.2604166914094405,-0.41167629496256997,-0.32377084834504033,-0.05105978602804372,0.020333266363045416,0.20545517676678435
,0.3439256839845223,-0.03614688805116154,0.08561773310965137,-0.08181770594871103,-0.23822820974391637,-0.22628071455100648,-0.12133977366356669,0.0631319637871342,-0.27029007077657247,-0.043764996867555486,-0.1556110661211367,0.1360351220382389,-0.033135254084585036,0.04667457703573165
,0.13612409959695748,0.16807208236807258,0.0505841122359875,-0.12431725964444322,-0.16231928187885977,-0.21082320917174982,0.1460178886452804,-0.004458890544333021,-0.23462525714030696,-0.2792780220974714,-0.1259081820018049,0.22045217786724342,0.128224037851952,-0.06805674077062734
,-0.02377083097933326,0.22352682869333332,-0.0710073309586731,-0.026437189300090445,0.061730229133683596,-0.07267545471112441,-0.04207610406686888,-0.004686176087306943,0.00846969747853829,-0.06839228595093963,-0.038364677604379276,0.2459661288645775,-0.08200383907767828,-0.017243013787269397
,0.20104149625494808,0.34672963899784176,-0.08076211130296941,0.2093592396770211,0.004782458260179065,0.06908226927590785,-0.06882241588047663,0.05260781854174085,0.024835546180646036,-0.2494106652717919,-0.16739268020528955,0.06816450824565913,-0.08550112731064759,-0.10274464535274114
,0.10938768711578827,0.19039560827901061,-0.055037834271822156,0.19338714622413572,-0.04820277272505569,-0.030124345724256103,-0.19895926567060987,0.00016872692943421471,-0.17127815626833112,-0.08300541490914698,-0.2571897306920682,-0.08841716082459879,-0.06726047912733893,-0.17236460888867727
,-0.2936452715534581,0.023771682962459652,-0.20257969754484284,0.2875149892734347,-0.21396965903875517,0.021031473193320764,-0.05435530519627122,-0.12104166308738855,-0.2253775383964134,-0.04889263064199327,0.08204819198202132,-0.2103449622576137,0.09097408835853768,-0.24880313212829153
,-0.16079900296597635,-0.09466580051394806,-0.027690576661994818,0.23639229923161237,-0.054995614905487926,-0.08544101221046144,0.14606015877485914,-0.1953802859455624,-0.20062185995388676,0.24831283310840446,0.2444588476876111,-0.045489312310325165,-0.023309558289330918,-0.10841186157177451
,0.028639501062534368,0.08599890293899512,0.1487203378457951,0.20025902750528754,0.008495966562719516,-0.18807407176332094,0.2215803560631862,-0.1638438817152463,-0.090891762199832,0.6550802146168112,0.05902516556295703,0.2655465752368031,0.014758513327821712,0.04842497984689159
,0.05757458326419647,-0.1649358396102291,-0.0512374183715522,0.18772689129576212,0.09327678329567159,-0.3702001949234358,0.1032416024136977,-0.26306990613506676,-0.07160565788899914,-0.12532571641533977,0.1564011751621687,0.2096605612002601,0.21922055865990997,0.20187912419330406
,0.0974398596939475,-0.22338105288268956,0.006643251302244909,0.06883176880853772,-0.07505351292524945,-0.2218747761130114,0.27700368653444274,-0.11904776980090903,-0.07157072285614556,-0.5796776820986078,0.1859856834529275,-0.12771504704600323,-0.0006699507785010644,0.1060785422854082
,0.088265046688434,-0.3341622085741743,0.07208327175301801,-0.22476415858543236,-0.19268672743152745,-0.17096529740549538,0.02251507319777031,-0.027123551402387137,-0.18693256493132285,-0.816086318772113,0.134251446730945,-0.1758374697641477,-0.1253675298202503,0.12811198466979246
,-0.034729006623995994,-0.1974427589923262,-0.08638726428056633,-0.06642440668199258,-0.2987019571601939,-0.1397480972180241,-0.16803674628763893,-0.021242236605182405,-0.2745299340217796,0.12427488355789773,-0.014749884149707973,-0.06188215596711934,-0.07898750829443447,0.06926951707815523
,-0.18551495334977466,-0.22957905060548922,0.030391495431601342,0.1610420632668297,-0.4661899277278765,0.02613203736898165,-0.22977138422624066,0.11159925016451548,-0.1203171587536528,0.4457923864923245,-0.10899932074656,0.07278022981991313,-0.050095791923925395,0.08060057191338697
,-0.12592651272320507,-0.14305208076034898,0.0014509446273337865,0.01527761569839351,-0.42815556333468274,0.0010578394671615348,-0.13731309306175596,0.06703624865467364,-0.08498996218718431,0.0026146590757648515,-0.028003523675846992,0.00930653052872545,0.10417518689428965,-0.025300415152557404
,0.14758343593079049,-0.09536445040474041,0.024290407258104163,0.023433273319006517,-0.004293638161108769,0.06604190916272563,-0.04078089921612443,-0.04108893320578533,-0.0639788555397033,-0.38561469191587705,0.0083492616584969,0.01638921426348988,0.2019806091808905,0.05628075111773355
,-0.06425174812645842,-0.091696161295739,0.1078161855914584,-0.15137227921254295,-0.08180543717029325,-0.07713369702477339,0.017355690289094054,-0.1295210600329509,-0.07177628891951636,-1.1256910816035957,-0.027744274147792593,0.01381120879450065,0.09993537498390094,0.021515962777543904
,-0.09947040169968265,-0.029049331653552047,-0.007630583206417707,-0.20294410090786175,-0.31386106271298236,-0.242558911303743,-0.002331042881036981,-0.07728629704410249,-0.06459989593614067,-0.5518802451292536,-0.0015696597851944244,-0.13868505251081317,-0.0927749651155934,-0.09046015042977468
,-0.0528251846415772,0.1815437294858228,-0.058907312377645,0.0921570550041421,-0.06038485033227122,-0.02891459956562579,0.0007891221359786378,-0.15255700835932537,0.12633991147186405,-0.22597331754304395,0.10293921392625978,0.10448365531723443,0.054759938530507035,-0.1244448274936685
,0.08201962266163562,0.6345860654482748,-0.10679655965086736,0.4609732245382415,0.3206473094496156,-0.09766540442671547,-0.07229421802094214,-0.1928266022835787,0.23936278501330321,-0.36202921069555855,0.0025664190526968763,-0.16350382567779276,0.017569706339757553,-0.05929256074652378
,0.1099679998564123,0.16422870872695136,0.011673249554261933,0.024529928519239574,0.014854663207542551,-0.10389297163970083,-0.050563033703053255,-0.23649791415323773,0.046082868461359824,-0.2996650813413123,0.07977265080871504,0.008930754253254158,-0.08228197022241675,0.03513388598316529
,-0.12475268459976,-0.06718515658454582,0.022543467508122604,-0.10266132405533285,-0.004522523165070918,0.040573490222526876,-0.1821659961321416,0.06904483926487565,0.10705075806652724,0.14285924155243146,0.08396639242030214,-0.14420126297323055,-0.12547936630442072,-0.002499682180027665
,-0.17706971358497725,-0.6244865157706148,-0.0897463483380501,0.16895980984077216,0.08986251410287875,-0.22107884328301936,-0.19060603002416274,0.08246467491063185,0.09779381928596817,-0.3571197255609576,-0.0760367736416016,-0.3189049219295813,0.12712643467526627,0.12472775536231473
,-0.08991121265349608,-0.41777701100338455,-0.03365683066695326,0.0436242123785952,0.3223348639820106,-0.09915497029791402,0.007995803665389116,0.054959963543682634,0.17951548849446186,0.09362337973671006,0.026163211937952978,-0.05978759198538034,0.037563158787460776,0.19021322866101942
,0.05112433401739433,0.15855002020597977,-0.0314336826458819,0.12242885198989868,0.3545713227860641,0.18801914868334008,0.06690665608342254,0.021997921095499928,0.09219398408109153,0.8179874366282981,0.022061184580338414,0.10583484131160933,-0.1325258985661967,-0.01624979551297032
,0.15011877933116066,0.18143956514610415,0.13552580783455598,-0.1267927587763215,0.08456750336905634,0.2255214345315449,-0.23403724169044243,0.08195672631007593,-0.0732170566257714,0.1344803301832244,-0.09404433459182436,-0.06840858967769872,0.02904175772150267,0.018557239956949394
,0.06273950445406615,0.27059812444587644,0.1071276721875407,-0.06501967734475682,-0.13306876202206713,0.09287143027923453,-0.02365547053842327,0.13485143721532764,-0.025081079412656818,0.05695658946308906,0.17944499168830969,0.012374485308296877,0.3033637454938412,0.1617580891187622
,-0.04846951807630825,0.11610090643974283,-0.005955286945761982,-0.23754334880098735,-0.09692403047967815,0.0914086360177077,0.29223104397896993,-0.14417201888840836,-0.21622256464987732,-0.011264693843503152,0.19730535790735718,0.007186168628664332,0.17274778067149177,0.11050288499848436
,-0.126814238058544,0.08127442282869893,-0.009113562090926598,-0.5518470855010713,-0.23933603720236446,0.004156950288025594,0.29678865333943755,-0.1845309834052851,-0.18417549712668232,-0.014172887964524367,0.03112053403129846,-0.02631451982900594,0.08342037660060939,-0.08605431130943449
,0.130842355809435,0.0519564731053171,-0.014291271224082953,-0.1834827196324802,-0.3861063594753503,-0.13613110058936684,0.14218381508352557,0.14268891065443295,0.047788897212416394,-0.8386654287356925,-0.045300846043912726,0.10975922059402346,0.06564508329013832,-0.002079990437131941
,-0.053802738243304546,-0.49600447426548966,-0.1363737479849896,0.2034872025043349,-0.06987058037397112,-0.173916186819891,-0.01158879546580437,0.23019386684980597,-0.0038775495541058065,-0.8543030955376334,-0.06094476161721626,-0.19024605055104746,0.05153021102575348,-0.050970081632092296
,0.07569751683390175,-0.28260720123161626,0.030999407370130502,0.07196388819175668,0.15964862277117492,-0.06645685656370723,-0.07925098884762195,-0.14567203671606874,-0.10291569418497455,0.0023496944695005607,-0.2294194564576797,-0.3836774378470919,-0.02722402246166705,-0.06089335226369693
,0.1025548073324846,0.2941454204556325,0.0927194251946935,-0.20485396799779745,0.19188012369881938,0.09473765226228589,0.21315187216456538,-0.2256842061550592,-0.10962490048564837,0.05408702123765228,-0.13729065326033954,-0.0821833889480601,-0.09171935112279747,-0.07204584965161483
,-0.015346885814253966,0.1032557596486297,0.1008388253371762,-0.23242173896222706,0.08045286441145019,-0.07566500675228861,0.13064709673576075,-0.049395911712213796,-1.9530038476383085e-05,0.9030488456287955,0.02650879414098958,0.21854691101822535,0.04388779817632,0.05205942846812396
,0.12088513382147978,0.015580079705549626,0.1227302188205896,0.0275274718156062,0.11373519355643583,0.010959133896101352,-0.04089506947272236,0.09402238251260682,-0.05810101164101496,1.0197751584128683,-0.030090771297392682,0.21552131433808133,0.20182169867026709,0.007478554699256825
,0.2504225528273567,0.18093461367631075,-0.06700885273516462,0.24405420879783346,-0.04779805280308489,0.08650775502610046,-0.0034387377449083983,-0.038750275690085864,-0.026008419966221254,0.21242400321355157,0.0015259906175933609,0.20698365050664064,0.02720257119003558,-0.08995559885710477
,0.026835185580329483,-0.0631675497601016,-0.11604144102820302,0.12682920883364832,-0.18295912672477196,0.08124739668780122,-0.05000111295792889,0.022234149958198682,-0.009682538763036867,-0.14064728243347072,0.014329975495343004,0.2174758731528459,-0.22683109299416201,-0.15098368827576578
,-0.26292990526043686,-0.24774712368746024,-0.0384285920712241,-0.021722951487040162,-0.3273777993486186,-0.008629158349026072,-0.036157965008150154,0.1291071014269441,-0.011742087940156815,-0.3198721039020844,0.007725593615954655,0.23212626865585378,-0.2514443744828163,-0.10875602829963642
,-0.2641108962345724,-0.05367512752985079,0.024688101575038406,0.23196756514808325,-0.2445917097400714,0.06658747082695936,-0.175250281444772,0.15400797526185342,0.010879329773498621,-0.23985219051138476,0.0006365006131153571,0.10248810165139344,-0.22341424648796818,-0.0006501280820769617
R,0.10833979985637915,0.01187349697894674,0.028562911105494315,-0.031230515871798006,0.1973397828523421,0.21675888507260468,-0.12138729367292776,0.2291150662489672,0.11535240477518115,-0.024255879805165047,-0.020628964671914246,0.00299294261104818,-0.3083117071427393,0.043126665372991535
,0.03564564220141203,-0.5042209666811782,0.05925794604308927,-0.14410329657396725,-0.23476428338893357,-0.05854930742226722,0.10211095201801225,0.062452942014517676,-0.12338254399822789,0.27464802800063,0.143388476502665,0.2042426622580629,-0.1211481541323363,-0.13859747812470427
,-0.013669808688774765,-0.7343816602925519,0.046420585503448866,-0.05424203109811063,-0.44989045249252435,0.020314427442040737,0.017939809473587278,0.0857534222305248,-0.2390939384906347,0.3017893068708154,0.1120955833488829,0.31008577363899503,-0.10541386024993035,-0.15126837039317137
,-0.1003358242871224,-0.35316986245425197,-0.18277950316540562,-0.06945997231964955,-0.28264923166090944,0.020258082834137922,-0.060230875795668305,0.04562562686862175,-0.4587402188072857,-0.03434856470981666,0.09703608357781589,0.07868606838900244,-0.0127737215668211,-0.2334401806835742
,-0.13272326069343895,-0.02313652833343213,-0.270434135687032,-0.20599147283399036,-0.02699533024306369,-0.13171841426806066,-0.12995371856888288,-0.1537858579248562,-0.4689093730446054,0.17825473514437395,0.1958802177247314,0.0301859086597701,-0.09899848028347555,-0.24182726730991752
,-0.05117307923346301,0.050204383029526324,0.04936374065327866,-0.07858929208916808,-0.08990676137485615,-0.1757304785516828,0.27136841283802254,-0.17712872794377707,-0.1957560434219531,1.65975741927229,0.0012193553384760385,0.19985165240198324,-0.15956226224853148,0.08728648197620968
,-0.010494888023783963,0.2952988554623362,0.06418079579797466,0.1707089275874192,-0.11712695710665187,0.07022313702203185,0.1543870317606553,-0.013552593601150584,-0.018922775879672567,1.1027087472905066,0.03260902688050129,0.07299269672924928,-0.11654435281834707,0.009842093362500253
,-0.1512627478844324,-0.1484338491749078,0.15123743264739986,-0.027299257146435985,-0.008038343434516057,0.18387155378770623,-0.13476681010052072,-0.0026658993056682704,-0.06912775660521771,0.5119399779330807,0.12204296211225268,-0.06954965458045367,-0.17204319464379858,0.04289835701715497
,-0.12297547366265295,-0.2109000166850688,0.07920004190761838,-0.20703073613899983,0.06313579379671368,0.14999854987877861,0.1672353733069615,-0.12042055448908431,-0.18106674803075082,-0.04370373673843301,-0.07460288084340151,0.15472428380789624,-0.1302143028701582,-0.15193784134995195
,-0.08230114403263196,-0.1747714809514607,-0.048725192976218794,-0.17130120886364558,0.07945254217867374,0.05080807781187987,0.05654731355475737,-0.09719421975170854,-0.2643861238919668,-0.9687513325699659,-0.3422070916594784,0.40116211671490937,-0.13190839125043421,-0.430344413850025
,-0.12308897613961424,-0.09085624175769766,-0.08145073046583125,0.07088401491387077,-0.16589456088195773,-0.11222561307736552,0.0370551083196245,-0.2077538325418321,-0.27386237826357807,-0.4053796144213261,-0.2767175469721454,0.30023414155747047,-0.1609254941128426,-0.23848150476002167
,-0.07096220355360291,-0.16007389899592853,0.011043301485996214,-0.045686758262474196,-0.3481874637791467,-0.0042366107106625184,0.13121393484794855,-0.32550335520771856,-0.44700923893741545,-0.5915347161359513,-0.20285434720667456,-0.2819730792443601,-0.23770084447745377,-0.184085455187184
,0.05279396863299618,-0.47913692243526884,0.06665135826810441,-0.3686753692604605,-0.22748702971159587,-0.04782310061558309,0.29202313962911086,-0.12400594608312705,-0.31743976698132415,-0.8229443812515742,-0.401452923473162,-0.2785429592423332,-0.18852409280790733,-0.16912344708247662
,0.12506182836907456,-0.5576316413204093,-0.014584337128589185,-0.27968640396351535,-0.03057738595896607,-0.08575671207947888,-0.2437889021000557,-0.12186659229352928,-0.2920808667596211,-0.5836198422777009,-0.4433705490268672,-0.10713685565555531,-0.13097557809293,-0.21072765025486903
,0.09362327469413749,-0.6191240904061257,-0.13082787767420792,-0.2778978628998443,-0.11136077566808346,0.12538307385310607,-0.028973950841309666,-0.16724794625708275,-0.45380941498166494,0.5616314439124713,-0.34509373687983635,0.031697245252355476,-0.30295460621249504,-0.13010579176927947
,0.002265796785093104,-0.4112618134645877,-0.021153207697666026,-0.3995954668792994,-0.14540940000423203,-0.15551328884387908,0.1548901584236647,-0.12717279034086224,-0.48587636080637314,-0.30226153587062965,-0.4040329489734483,0.043424864998148474,-0.2354038169631244,-0.12435661023216317
,-0.1605965035198717,-0.07656827873626011,-0.05950486346088118,-0.24438241307482356,-0.09166491129708271,-0.5191405027294892,0.0682179953435049,-0.09402773278263765,-0.421402442501344,-0.6407438584962193,-0.3031367802967998,0.056809095550371454,-0.039095672511867734,-0.21444141013523538
,-0.068283364920465,-0.23330542094827403,-0.28525168553444286,-0.30035414702279095,-0.11346448686473906,-0.19128181545262302,0.11371623336537624,-0.1831655952351633,-0.5178727885923887,-0.23797661952968746,-0.2614804157642644,-0.031106621441258666,-0.20729379791912644,-0.14996538957094094
,-0.03887957732435023,-0.3292833304232904,-0.19937030804115916,-0.6307973810170614,-0.1536550133889853,-0.13282177051253552,0.029628396302325954,-0.16702663760003048,-0.3867884814199205,-0.46954730580082116,-0.2480917862644271,0.0021093516901500107,-0.12714034237338528,-0.08813353371366203
,0.02917746569105505,-0.10413930193998325,-0.17712052306224021,-0.49148258509544884,0.056830064298665675,-0.2929914476700976,0.05112582995536768,-0.08584090512012676,-0.5690879025672465,-1.0086189349081012,-0.03508801742423701,-0.09316757434291585,-0.13530216944394036,0.07710591588985814
,0.021935378643264353,-0.2385502645738955,-0.27625939590360227,-0.44900163644413105,-0.24677801032553062,-0.031121898334058158,-0.14343988976423402,0.009352429387843956,-0.5234975018741406,-0.669131146008904,-0.06357026044724742,-0.14259396520132037,-0.19001166160150235,-0.17245927691728133
,-0.23729358850291749,-0.33400822629414606,-0.20619474181434566,-0.11561778643056413,-0.510161326616148,-0.057126393850781394,0.02164083664492841,-0.014002972671547436,-0.46217587086491385,-0.5356442674279801,-0.2914359546076886,0.06787814679842562,-0.2492393538900663,-0.28173874477264876
,-0.2265429125539593,-0.484680651761254,-0.22990118755609237,-0.19925388207757402,-0.3516738621874354,-0.11495978491126133,0.2289767408845716,-0.13125867428869878,-0.45629652004462,0.2565145807266738,-0.1954451586805458,-0.14113813846961468,-0.26078288914084496,-0.19973394193885813
,-0.09865132667436775,-0.5682462548426225,-0.47350771207318615,-0.3623214130345761,-0.6919136088930777,-0.23719117832568334,-0.05598503166708382,-0.289375350421155,-0.39429907838328176,0.2623975922549165,-0.39388551209018186,-0.08195660582766708,-0.296002393758701,-0.07289474447533877
,-0.19833087576111064,-0.3973119797605112,-0.5004611917997726,-0.1832229001956275,-0.6694386986176063,-0.305957639615277,0.0013690614426764074,-0.2572831348309524,-0.15732025678396064,-0.3974972218298619,-0.3213260667187003,-0.16655397355307486,-0.053113932541776966,-0.07714803363085526
,-0.2372224318513415,-0.32392320073569136,-0.2936777176515858,-0.19630812651605925,-0.5276593712232399,-0.19656710125815438,0.3578774471933097,-0.21022868575924675,-0.23845112308368943,0.007126251117293273,-0.20256014508131578,-0.10063589656873062,-0.25507355925680036,-0.08822951115414328
,-0.11747642834305586,-0.18291651677963253,-0.22832794392809874,-0.20380603919918924,-0.3176693091526567,0.027149358921826783,-0.011491711738415379,-0.1518514469528539,-0.2667385831335642,-1.0367365239768946,-0.24319038052516656,0.10343335445182748,-0.250319222594615,0.09049256524662005
,-0.04528755474424397,-0.012497788765932051,-0.19007982595046002,-0.08209280686503737,-0.305238686772939,0.023908521661432428,-0.07405752486703227,-0.12667920238645242,-0.17885232535935744,-1.132206352867424,-0.4224086488199556,-0.09292284343322425,-0.053750788961831636,-0.13848753809677294
,-0.0034534194693935484,0.032708304898445055,-0.06006020979527681,-0.05930009836811373,-0.30246245242949493,-0.02839369166640278,0.008650313421304512,-0.13995586829424184,-0.28423915299783437,-0.30921792324009106,-0.5658945920020154,-0.1161844012241211,-0.22969577623476586,-0.18312355394486363
,0.09087203088316398,0.1743174877844094,-0.04599587799639691,0.037304829340956955,-0.2304173658524595,-0.2539584983852934,-0.07840810012296309,-0.06593956194577344,-0.12558107172084493,-0.30378199765471176,-0.20602214430537302,0.12054296994534915,-0.2546928322439384,-0.09308154903223836
,0.04969705389779857,0.04854327279893407,-0.15671544366090479,0.1861906648626821,-0.3516081485575148,-0.12972839903535235,-0.022417939251964437,-0.20419203257327953,-0.055669379056824245,0.1238569350198502,0.1437254992127644,0.19560466886124145,-0.20371024132749097,-0.04074062049456906
,-0.06215018160367661,0.042850666792615406,-0.22435192354499842,-0.18704235762084542,-0.4328617471629566,-0.1468228448906745,0.015524176105914365,-0.08508547845628561,-0.027418094706092994,0.25363858291545865,-0.03891955917820168,-0.08434634865293554,-0.2628854936633665,-0.14398641891318875
,-0.19347233711107636,-0.010539631545186152,-0.35369988580367295,-0.23750100355869105,-0.34113525393190636,-0.1899724655345282,0.04976050080017309,-0.07359243940996268,-0.16212079480326289,-0.35165619709166446,-0.38155816307555085,-0.2924371811649558,-0.08021396199618043,-0.13675500824582043
,-0.37187087420928794,0.10877313229480302,-0.22763811925502683,3.99869499667046e-05,-0.18306465135670977,0.10823507790739,0.08737916622476528,-0.22081260464581265,-0.3248330860976465,-0.6906643998494004,-0.20634136874739714,-0.2561918316294699,-0.168011674553717,-0.11873458790484888
,-0.22359373278257727,0.33935386466594664,-0.2021921733427934,-0.1349746663462179,-0.15952323089008202,0.2299562984709231,0.12675241588875527,-0.2846765592131432,-0.3996807821057198,-0.6057291982020846,0.0951547146263229,0.07628147778988828,-0.28477453502724237,-0.20935281537566913
,0.04255719959976446,0.060115956556969614,-0.1828146058756496,-0.13703858069929808,-0.162321542065849,0.04102439793487681,0.06567448893958024,-0.2351816710233299,-0.19983378186539538,-0.26323375529835724,-0.05459200038801311,0.22348794400989846,-0.10473290571315033,-0.03078727039299268
,-0.12940629628688033,-0.010186773012119869,-0.17018391734829555,-0.021672468686453995,-0.2875584076304121,-0.10725862956088995,-0.22124695889057533,-0.15240486465357458,-0.3802004054163691,0.24368189074415464,-0.229004397546807,0.04308301660919769,-0.056206003698081,-0.05112129916817245
,-0.1802355034353659,-0.0684181234643473,-0.15822600867160763,-0.14779949648773902,-0.12292228818591602,-0.22813299455796468,-0.299458392902611,-0.3294082143243042,-0.3581507182048644,-0.35246570567069446,-0.03492963108002637,-0.014804367526475303,-0.1622342210503512,-0.060260023212952166
,-0.07579601473602494,-0.11436817602450054,-0.023996303490108332,-0.11374158500427212,-0.13287300758213175,-0.032264117114819274,-0.16610038344193603,-0.35047692020887333,-0.33415082430575654,0.22022917032882153,-0.2258967955776404,0.05443345129540295,-0.38211582933674754,-0.05414082830112887
,0.011201180035235729,-0.08718253539780355,-0.06710947822939513,-0.14989567093417727,-0.37744352157822064,0.14311448697061283,0.09421552093200096,-0.3366028205222211,-0.3243049762135839,0.7785240943719898,-0.3248348356508565,0.12328963055538145,-0.16449868804767837,-0.013907060761995646
,-0.05404517409241468,-0.31519240982929486,-0.191296985970286,0.020879661364406207,-0.3213388927791928,-0.07625504715486542,0.06728163232344657,-0.1681471711522933,-0.33758442169420205,-0.24854396489809874,-0.2961838755511605,0.08906389830889201,-0.11685308730650976,0.02515302832434801
,-0.02794664218533541,-0.23377447283438257,-0.03309062500094523,-0.07560542602527816,-0.08972865610226377,-0.04122119321755579,0.136181285156466,0.15416793777074805,-0.3307781281050727,-0.4688600283874446,-0.004096074229846375,-0.01879161794348424,0.09730909776701924,0.1244280785456097
,-0.3052672372975803,-0.3264455938872639,-0.042539859339318115,-0.18271419183289195,-0.056463245974672865,-0.015407152660027153,0.18185374039160493,0.20657418960793306,-0.4657540697058409,-0.486858842611637,0.19906739330538803,-0.20668945689667825,0.05633646495081641,0.07061075620640415
,-0.2785327255322667,-0.2850288697633236,-0.10411869168799881,-0.09059463040121378,-0.10020829015668874,0.08495566599741033,0.16075860415557827,0.14327658117803138,-0.4480935440029345,-0.9920128982505937,-0.1019678785193805,-0.10359314753282794,-0.11015615350488776,-0.07872764797766305
,-0.0322501684081786,-0.3140484372583264,-0.16232897398776308,-0.7427089282207272,-0.124797254818094,-0.14544068211613562,0.18933107279751632,0.11332235303223227,-0.18620685640155904,-0.653179762816955,-0.2949870264248264,-0.09463354136757368,-0.038532284295482985,-0.10260736449073675
,0.03508318632050679,-0.3451564184465358,-0.20817152471254788,-0.6790791748601297,-0.007631484150476886,-0.23150523146170202,0.26755609694711274,0.20143970970056058,-0.012169528319876013,0.7063772751034914,-0.19567511740029692,-0.036069450150336115,-0.10697013746723959,-0.11531738463730262
,0.042760823992419796,-0.12782043734346535,-0.0731008994006158,0.0663681452280496,-0.04082883705355322,-0.033477934491420065,0.1261454909858557,0.0031133468668863478,-0.004167162595028791,0.17558732287221235,-0.19057975450125797,-0.19521125142607654,-0.24135788670151234,-0.13420050331803438
,-0.15828612593402863,-0.05433975225131757,0.10507379465519218,-0.014460394352924536,-0.09168048960935038,-0.06654699152667715,0.05414826501302488,0.027372312614879445,-0.13245317476250784,-0.12980950989735918,0.0680556367799468,-0.13451497260759873,-0.15337074497114103,0.04722633531145069
,-0.05440088912831738,-0.15469576435380225,0.08923350432935045,-0.1115927540846318,-0.10815878600459275,-0.18850774241357685,-0.07093244082848245,0.2030240903723708,-0.1844211152013226,-0.7978779432554559,0.21571915678774767,0.008592483686667795,-0.34874353512633693,0.09023597426267993
,0.0631811950847122,-0.11311810375794053,-0.04649876238337808,0.1463674764805548,-0.15458746695080972,0.04191481106897273,-0.007653118421408766,-0.0858438467576998,0.04624059742320675,-0.45711280379694963,0.0635758291411237,-0.0924737825695732,-0.17202196180504978,0.0442129116764035
,0.0324040335108576,-0.056089019224593153,-0.0865104342751874,0.12226073707232173,-0.117214692247422,-0.00013619965806979328,0.10691783541790682,-0.15244339371368973,-0.07661834254231009,-0.8933240783338541,0.31702613747064895,-0.04872747295465985,0.07145024510915901,0.11649750559776935
,0.1545014284191299,-0.017181055622951347,0.10822858804870396,-0.11341328437451949,-0.15287876174843923,0.3421575336221755,0.2732720737770705,0.024138938584271793,-0.2974715585598021,-1.0541675458818647,0.13255166681658026,0.012459190890673528,0.22567200293482884,-0.03377546808805856
,0.13101109212204556,-0.24953068750611226,0.013583891794012062,-0.12084164637289015,-0.0784141324775497,0.35426343134854726,0.36611358378767117,-0.14002346677829583,-0.25898844597485154,-0.3651227481321203,-0.10715069005613362,0.2116343093307644,0.11096399999140143,-0.012805363779144723
,-0.020650184084878828,-0.30758494060537916,0.17621534354231885,-0.1812729816856427,-0.07390734768683684,-0.020008833050439937,0.1376879664370767,-0.15421238209442653,-0.4266705722302931,-1.0256061228196978,-0.09007193005149816,0.15323336279543665,0.018561801613618204,0.11128801426613226
,-0.058159993018802564,-0.36820487984223277,0.16350927513622546,-0.3911748083767653,0.11413860549749104,-0.09347018712502932,0.30541714118487445,0.03734312670024688,-0.24796198342223597,-0.45407354489170765,0.007237787773506962,0.06852601394313819,0.09783873105005239,0.07814143479494848
,0.026785051402962327,-0.10768948951817703,-0.04335074399482237,-0.1514802972670711,-0.1062940566314865,-0.1295199158737766,0.02699553599360533,-0.11544242798538173,0.07670332259787851,-0.5540596743920553,0.21014471921681147,-0.04475039345128341,0.1466760441570355,0.10956071407146488
,0.36502248882217764,0.4114911208784262,-0.18475326861403057,0.36061113664865607,-0.02978575239961429,0.13879031438206213,-0.013351318420589673,-0.2242787919987979,0.017148877482976443,-0.4855456103437313,0.28275594716677427,-0.1378519475953931,-0.04096004433746903,0.20140829512573966
,0.003698918583159078,0.11268155881347561,-0.18726021495506545,0.23281798780354357,-0.2241930356730008,0.05378640231199741,0.06684163117556942,-0.09425313501143377,-0.01375684113743939,0.2156129919462421,0.2391021057782862,0.07711953820660665,-0.2245185522802866,0.3469288632440399
,-0.03546009711156022,-0.1878236248674014,-0.083766419325874,0.040990313749557174,-0.11148121715436259,0.04789205110245615,0.4173225055583202,-0.09383919712232294,-0.05801043679994175,-0.30241676369825116,0.10029321651908679,0.023216127462653835,-0.22908308890100942,0.20230173384838276
,0.14326710373763638,0.04651487505435038,0.0756421431822334,-0.17844229142940754,-0.17670772308196694,-0.03188700727962464,0.3048048196306548,-0.26555796046905866,-0.1825987610318633,-0.14510648264341872,0.06659545291619576,0.013704463477593805,-0.22939166357202478,-0.010877307529442623
,-0.05107951654936436,-0.06918454340800782,0.05365713188875144,-0.15304839925834512,-0.23098639640563892,0.0065003015684761715,0.1422701033331672,-0.13774602252969864,-0.16097020110861182,-0.7966790259643148,-0.1476951759367768,-0.036641112672283135,-0.32942021484890016,-0.11955433375537405
,-0.13268730566428846,-0.16416136816952984,-0.013179340837109456,-0.3713102889309349,-0.10255981222418417,0.13103834356043081,-0.03681330499420346,-0.1440073387227946,-0.2392265911553196,-0.7555725866749045,-0.22660633436797137,0.1324065671208401,-0.27285877883539716,-0.12159985499857093
,-0.2209555509643647,-0.14475004667189792,-0.1182318251161816,-0.25464782578901934,0.034658422849573774,0.01808373576348349,0.02399033238281181,0.004071765052809755,-0.08559695703709816,0.42200124512154724,-0.22724319624522582,0.2963348407278435,-0.16063602931283522,0.00019244276383611575
,-0.19744734661217617,-0.3943760716737347,-0.11917793915828917,0.14825618523480388,0.0716286455856531,-0.005098090448753269,0.25608478214855873,-0.1686850595313065,-0.0932718731142231,0.9338963892395074,-0.027313717146906183,0.05558242077730779,-0.04278743916751437,0.08564479011068125
,-0.3304842425287972,-0.4361108697346346,-0.16297808790503582,0.45481832707410486,0.1298516631339219,-0.10719715542035922,0.34483762225496184,-0.09519349607024583,0.06200655536865129,0.3422646956391486,0.3256854582415289,-0.020708039861096962,0.020567540247967493,-0.022913727769694865
,-0.12507925851359292,-0.28167734763187263,-0.20489036064157082,0.25484086921273874,0.13249049059044682,-0.10908025697717945,0.018641621159762048,-0.03909858428391669,0.1820846948615129,-0.054560322837011524,-0.0651740799657268,0.1197611086929746,-0.23329471077296796,-0.084025045938778
,-0.049325799415817065,-0.038222967132808455,-0.05635828378743332,0.08220333365783124,0.15521020017956436,-0.09430238672908647,-0.013656622904368736,-0.17687706080260518,-0.04420615243712159,-0.10768318739514375,-0.2399295503253266,0.06921007279898353,-0.2201852421481166,0.015950224102391417
,-0.07532280604073427,-0.2806952516869877,-0.2847569055509666,0.4240923858752452,0.046800028858023195,-0.08319371495810264,-0.26731152398565183,0.010063035412707333,0.0679839621060102,0.4647907283516781,-0.01721351331672462,-0.07491161023090832,-0.2506644858153381,-0.18475422760082771
,-0.013607551245826714,-0.2783879435709765,-0.18953463371736357,0.3133970798278496,-0.014331014026939922,-0.185250450365288,-0.08364617311507613,0.15220400620352373,0.2787985306297719,0.6171274698539736,-0.20098247012095058,-0.2049385046264972,-0.1262978011172349,-0.25167367069852303
,-0.16964059291591652,-0.3432249681077198,0.14567744429760152,0.04343444842043038,0.04860433089040274,-0.28250528451947465,0.1548417656851075,0.2503436586605348,0.054733172905660814,-0.11981111613618772,-0.16593256359349629,-0.2083086680550813,-0.04839695831663774,-0.08089169772232627
,-0.10182490538960585,-0.5370270189805133,-0.021820161838327023,-0.008294085093322376,-0.0478093890100386,-0.054770805248683815,0.23916371880331955,0.15752452528737315,0.03166156785551057,0.21488170826151998,-0.0336900029006241,-0.11243146850633887,-0.12747359923989215,0.027094401933331777
,-0.1525878397937381,-0.2543418924369334,-0.010618217673157602,-0.02491128968070407,-0.0522249394513834,0.08721993920849608,0.1317411594935489,0.013163745650863921,0.04831650689811978,0.4525007903275264,-0.1182102679225941,-0.016069236058341152,-0.01292785986645369,-0.10332459641690266
,-0.21649948099854457,0.19708336645172073,-0.036773522200477006,-0.04096361879820357,-0.040253963664128374,0.05254691445882116,-0.18238607925705233,0.03811408225743279,0.02897958233260289,0.29521306812413955,-0.23083205425219977,-0.0652138876635276,0.055135266485526996,-0.11749649736634338
,0.04012397406818707,-0.07154896543707771,-0.03753884271891708,-0.05085456140399603,0.10714804413951985,0.10763793197048208,0.14613800074383915,0.024321733105219047,-0.09825377337211258,-0.16399997571226624,-0.1021925251612447,-0.09687114561193781,0.06256564662721162,0.08169666303217327
,0.2580951093126613,-0.14203576165576784,0.00842281767461112,-0.1876829205166525,-0.15924686119220352,0.37988930708451213,0.17812632701891556,-0.11658959962516571,-0.2142016706506051,-0.24108070992959418,0.01029401226921531,-0.042586900832648246,0.22342332267852286,-0.010588255402048037
,0.17698405924030167,-0.36617082549055036,0.07486675945988049,-0.3084774885044659,0.007567323754243965,0.37340493406023834,-0.1023233446986144,-0.0691171770919797,-0.03039154187522222,0.25780157472694987,-0.02284498528334313,0.1592044701204124,-0.03678715358959833,-0.035342115655903
,0.2862787141489065,-0.25594055611971217,0.1262680530982069,-0.16242017956431912,-0.11032027876505293,0.42414001046125144,-0.052455634036667406,-0.02322285279048092,-0.10773369032648242,0.2993404182175642,-0.06810069782863903,-0.08299823636182457,0.14630674288976617,-0.06176820976994553
,-0.003414466425693619,-0.09945246440153376,-0.10046839544401756,0.12929986439738345,-0.2502390955345606,0.12403179550404807,0.02846561971843689,-0.048390591229837715,-0.2132401303220594,0.6832991925187755,-0.2107582303610418,0.02380593146342701,0.15899113242904186,-0.18727248854613932
,-0.11613635273467848,-0.10262899041417864,-0.00886592864771008,0.05840521363097998,-0.19308546136558016,0.19453909272845024,-0.08749635210004574,-0.04634190904867683,-0.1948868783553366,0.17014486791208588,-0.005316961675678089,0.030273579920185072,-0.016048280730105988,-0.18227016457178755
,-0.06067812248774496,-0.2091580255285541,0.09175829132767467,0.20958504281547102,0.07144817031301047,0.3125330063798339,0.03990934127614214,-0.009472555518709016,-0.044768553285187265,0.2715201603994133,0.2108759345499228,0.01897406544709824,-0.1199542616270666,-0.148118765452909
,0.013903921580719505,-0.13101817877071817,-0.00023810368470469171,0.06227506142887595,0.06510352862007461,-0.006910494502408873,0.3038732886742364,0.091807677569409,-0.017443564945503878,0.5630424730467698,0.09220192619944946,-0.07665783408754363,-0.09218967343511583,-0.06926939303926322
,-0.07269975895762365,-0.14879088536643265,0.06743580569650295,-0.2558594269725383,-0.08115217991698372,-0.11589461200347091,0.005242129859213911,-0.06300083031142002,-0.18181965966291516,0.1785906052516233,0.10315455177725925,-0.03004195350114508,0.2147001138989238,-0.10014598187100425
,0.053444956701596234,-0.02127051183406224,0.12783290413403103,-0.3093851482979892,-0.003130036692197145,0.023665258281042344,-0.07143344184482499,-0.07867635484857188,-0.15050073261646782,-0.10024191554031087,-0.048567158138026485,-0.08162656722659237,-0.011243913280041934,-0.13666398430121038
,-0.05406486316939552,-0.3754760682554602,-0.16580534746997502,-0.03648987575029315,0.13820301474596866,0.2543124467581752,0.0358048985282969,-0.1039804757679888,0.13521898293801166,0.7287129609904957,-0.18125922157836352,-0.20165441533936013,-0.29492268084316214,-0.020854853764058164
,-0.4470109700188099,-0.16302180382300105,-0.038266016010140715,-0.09593124123423885,-0.03544054825160527,0.050693456929405294,0.07868684386309154,-0.051547149105668245,0.2579569356073454,1.6027919692327732,-0.1343830393082844,-0.13778821755682452,-0.24119108293574865,0.029572745874758527
,-0.33290671117746357,-0.22017593881193606,0.06915877646411259,0.0007091999974157278,-0.04491784553012691,0.08648324656427696,0.1525192228343858,0.09656714053530208,0.016345292566344656,0.38183697913022663,0.10902384735795542,-0.14443453001088344,-0.20376798677194202,-0.06267702672097794
,-0.0613094508591449,0.029714568592934424,0.059187799746782954,-0.04715668242989713,-0.07890077409104716,0.17668321446301535,0.10762981604417475,-0.02556506536725184,-0.04236139758740572,-0.14921201444897514,0.14802420731307026,0.05231945712661604,-0.13669262637791058,-0.08964220976555831
,-0.08783503847025372,0.42561710059917574,-0.17965618698600144,-0.0865659303824199,-0.07349423877612996,0.01422437345297696,0.14975374893073395,-0.10103245134561852,-0.08630422932353873,-0.004744246952557911,0.13872998816630835,-0.10416528318646003,-0.012646269955972905,0.011867242414268196
,0.19838128056159232,0.3360017996671184,-0.2617575166629675,0.10782080650561753,0.057934703944499455,0.14896641526270357,0.1570016908442294,-0.04699015264212201,0.08991701498362147,0.26898208209702434,0.1597588500907166,0.06945983821556938,0.011949609037696186,0.08203941073904014
,0.09101971455218866,0.09285748020351499,0.05722702412454889,0.06493768552341914,0.28569405328076297,-0.05611947729840922,0.043878074307062594,0.006256196722157226,0.10279667540580101,-0.39320256817022814,0.012777985130693593,-0.06275558616799885,0.032430957729398746,0.06510372486419476
,-0.006510165133874662,-0.023274603052774713,0.08609043107015941,-0.15727459177961317,0.35790370675585553,0.11491631927154464,-0.05443180433923296,-0.05425156453794276,-0.01077233409177479,-1.3235505590967875,0.09160536309721445,-0.13180997783241216,-0.08448023017867085,0.054479180100541896
,0.07875201031657432,-0.26093544641019023,0.11023535071786214,-0.28301797846840276,0.13148327271562338,-0.04978727731465552,0.06730579425250671,-0.011460677170932156,0.17016287503756655,-0.795135639746615,0.25795565689335603,-0.036117554318379735,-0.183483230771792,0.005193805544884733
,-0.0638805280560715,-0.35842383390268095,0.07186108911902006,-0.02563893332786279,0.00559215971605128,-0.253426090284603,0.1908418143110352,0.08961879019459114,0.1660685079886038,-0.15959566198147435,0.1339119901521485,-0.3152704346967404,-0.07417325129481334,0.07713238210155787
,-0.10304013630760998,0.03955230193626895,0.06863746615878992,-0.24970533755561697,0.15322629317087044,0.07691355426605381,-0.07719102248130477,0.21820735601755273,-0.18644459941860256,-0.07983457485404369,-0.22495785861480513,-0.16519003869739798,-0.11724047766300906,0.13787122145563438
,-0.06801985667918306,0.2132833767401274,0.1376272114964129,0.08542636817523357,-0.12659170821388224,0.3125966315722583,0.20277753121470526,0.18954610501374547,-0.21664853319231697,0.3583157210043269,-0.10215466914448762,0.08148822303420401,-0.09663927086698765,0.1191727403640906
,-0.15553958418122776,0.10248454293101703,0.133585087521714,0.08829330660670175,-0.1821075462335492,-0.037465312957278306,0.34852269485236054,0.24809698166967406,0.02318890543042565,0.21446072899521518,-0.047233524314390665,-0.16151318146314034,0.012292606272392436,0.16897216020255243
,0.0025977784594361526,-0.00835990476275365,-0.053808541359509826,-0.017559773095585627,-0.03486262702595499,0.055644477165361285,0.1732083860135475,0.23400066270810047,-0.0521226411464669,0.20719444142249238,0.029389701105139873,-0.032662502597832196,0.016464731949245078,0.13621201467652097
,0.04455448946616918,-0.06909088134315879,-0.038651153887212464,0.24250025941606967,0.08828784964737489,0.21756471764330418,-0.04492707732867637,0.2826948502011803,0.06965915389528064,-0.28690813177561914,0.1707149165725994,0.05696431924525253,0.027545866918022185,-0.02530418888257829
,-0.04992626839720225,-0.12443702959210487,0.12224487534999783,0.10521310281990169,-0.24404302208769613,0.0785144364661618,-0.05865897830778102,0.2172471940314215,0.032112226019679745,0.37148724552707263,-0.08376155160126747,0.15440020644899408,0.07637283464658437,-0.062282112043959864
,0.18653034531417054,-0.2038773838054969,-0.03711111045894988,-0.058546385970100756,-0.39796920154667953,-0.07888591108322263,-0.032620654544401016,-0.06769313846985439,-0.1759273728966356,0.5049286699256667,-0.04478386711898445,-0.18249467203532935,0.2085961055685779,-0.07351171655439588
,0.11985719538273211,-0.2265182352808726,-0.08776376865946196,-0.15717937494431886,-0.2134644042823251,-0.2088982001789251,0.10764615271367428,-0.060677768106831585,-0.1426476233176302,0.4090291323074676,-9.280911294610743e-05,-0.21017704214952088,0.1656993016221047,-0.009612122249287793
,0.11058758465758882,0.05299644896219079,0.07156225594889236,0.05234863360032481,-0.011836076487447755,-0.19209531067583901,0.1582342299592822,-0.02057418321098579,-0.0046024985761265935,0.9182948251512795,0.1915611087116311,-0.0017247597554944474,-0.04895195534981577,0.012345788068715554
,0.027768206029089162,-0.2032856493541326,0.031786611848931154,0.02862794724068259,-0.2584174214745379,-0.035804216904522075,-0.042782456230757195,-0.21984252372919388,-0.13942493510869086,0.8680028198636062,0.4033508637817604,0.00486790509358413,-0.07346901461738108,0.050001154049710034
,0.07630272755121435,-0.20453073108011477,-0.015145247208259577,0.02619038745222064,-0.13940192075853017,0.09521920926756443,0.052318484075626566,-0.21891437259389693,-0.1121376429834145,0.10242763384684647,0.19462415224244478,-0.09875704750573837,0.0027219660640251647,0.007876447377291264
,-0.04901361080970571,-0.1426003044299865,-0.01389374673935748,0.004563726733403745,-0.14099791280429588,-0.039669253565350074,0.27678284680546855,0.03256560299728715,-0.02866894051458357,0.46106319272181795,-0.14249699511047847,0.05970148681014562,0.011791825647264652,-0.009145311492191156
,-0.03931493890729752,-0.11528305236922785,0.019961743347237777,-0.9512855467317713,-0.06538933792904435,0.11615452244160729,0.13948845922267908,0.0455813278817903,-0.08364101550071909,0.22034988308605521,-0.5852323161254066,0.05218290914963091,0.028023434580494198,0.18760027178618371
,0.15985338818995332,-0.07616619818058297,-0.044138656683868877,-0.9601423413353837,0.17539959634145516,0.30830827567270663,0.13313111931661784,0.07323957238219365,-0.13825903573638995,-0.24983283735432094,-0.47890551003402126,-0.026111778832718483,0.14072095144720728,0.009285874827273381
,0.08923312122477303,-0.09049086420440465,-0.020369602500437397,-0.592203451043324,-0.044893567055369565,0.18896423733510387,0.09814851104077665,0.028771373729926258,-0.004916132827344804,0.5121531139095507,0.0899517036011362,0.04877529857319228,-0.08128923831855939,-0.028615644948619207
,-0.17748496906343952,0.05470939882127666,-0.017135546542182745,-0.6862275150119931,-0.1488617414692253,0.24947088372213586,-0.026435066056966598,0.1065701188210107,0.1839845492813731,0.897060181561351,0.13587411639861036,-0.23106142791324064,-0.20715572452823705,0.03167914171770914
,0.021841556260381742,0.2798984170820561,-0.037548750040834994,-0.3968611657287105,-0.002445237429698564,0.04071676582449165,0.14100161443657114,-0.013219085699220798,0.25902127171517453,0.12855411572771985,0.03925231387578815,-0.19918883144407024,-0.05102015380792481,0.07520833134456317
,0.06990972135471459,-0.13785589667627843,-0.04854241817392913,-0.0008577864415318006,-0.06555431163198175,0.055777465539572066,0.414673894805288,-0.019258590308512267,0.14141586857501615,0.09880898451322022,0.12150894770188897,-0.10655901478733602,0.010619776114322563,-0.005448820481859839
,0.1046919805364165,-0.34953144080725834,-0.04549813897507099,0.06713762792834133,-0.16512177940411016,-0.15762395587993366,0.035236751330218447,0.07437068318449469,0.1606207418992803,-0.19186482454305331,0.21233647372160244,-0.10930078081568434,-0.12431923793027415,0.053748076854587976
,0.3940431546338677,0.0321241994593825,-0.012381704486456905,-0.009494147665848213,-0.0742504269306177,-0.125768439401552,0.028911159319937922,0.01414567641282405,-0.003838670494448404,0.3346354002673515,0.20554352983406654,-0.016295009603022693,0.08430951392500255,-0.06384884701535079
,0.3283198172258316,0.026761463215008913,-0.2614555793795411,0.08460339090183755,0.1113791186268348,0.31150522496276484,0.11432244625092425,0.023281635694397274,0.012058350499711684,0.5058863864626384,0.04656428258826924,0.004020584045306232,0.22363883156122905,-0.015480995325632695
,0.25144105184248605,-0.092956964933496,-0.3501470236842588,0.03484103830159351,0.005023346847536439,0.4743480505104038,0.1434888112646714,-0.06902055866549484,0.04370351066114615,0.5469051763983758,0.002681049700785314,0.035398050797113625,-0.02508252585457659,-0.09207649582204074
,0.10013610331025796,-0.015806634926933825,-0.27270605808998455,-0.07473564815347257,-0.012925234257810793,0.38923925123451897,0.33831944453541657,-0.02709596746848307,-0.07181822239509333,-0.026516223290873327,0.25605580638613074,-0.10533739632858263,-0.02262257004176273,-0.15184651017150824
,-0.013407146597099689,-0.26149381757150103,0.0690657845102383,-0.10825790760501054,0.0073030283911866755,0.13385305407884793,0.3245958280070842,0.03990797155764001,-0.07481184810370782,-0.1996135358982983,0.48795693977967436,-0.03485776545267291,0.04089319758073601,-0.028024634362162282
,-0.04614840074504395,0.21314823464879626,-0.10557637824827928,-0.05891043789843353,-0.13999683713029837,-0.005973888428401511,0.1400506138796389,-0.07788747355040035,-0.09759566747402275,1.045122341824896,0.34463135001173667,0.32637601632896845,0.053486478742944106,-0.01866041121529431
,-0.036109323781963555,0.5604981449041019,-0.20588528693322078,0.08900986253113932,-0.07476646574031587,-0.04280378361541622,-0.08110605164699508,-0.04179969780164897,-0.12599370833872134,0.927876620932431,0.3220755833555562,0.16700463145870817,0.014886123977130095,0.06956191687784727
,0.1088596378423596,0.08962579162329777,-0.16033020002676804,0.11285621683670226,0.07662866536444611,-0.13142416611283075,-0.07051764031281409,0.050060452126576796,-0.11453948074876844,0.25342440088275575,0.25022413297107676,-0.11824063437267779,0.03550535616333022,-0.1297046887478562
,0.07360175244157136,-0.21163456857008778,-0.09547205104150522,-0.06553805049941235,0.08652627272763723,-0.11148967936869474,0.08480105973832576,0.1781130889903766,0.01484253539873703,0.8377653827742123,0.29221624405735996,0.03161589855327593,0.06750094558629019,-0.14660077615519032
,-0.10059493899581526,-0.12508862383320285,-0.17852630099752564,-0.10447007766737612,-0.05219876402626316,0.04690417238031388,0.24460907623312686,0.16427008592086847,0.16025741301410554,1.0887747468919795,0.4325039186051221,0.22579233432384654,0.0893278737024076,-0.048589440320988185
,-0.044142012728308005,0.08695952145945574,-0.07507087722494311,-0.08576430751463762,-0.21293545508922102,0.3950433532980849,-0.09856234420039522,0.08405252716172996,0.2821571988488523,0.8603638137510925,0.1959434648812971,0.06551273130760528,0.1279141994998346,-0.10959934301442263
,-0.03167504798326973,0.0878558811823899,0.006967263693858914,-0.02639939223468462,-0.17321564654598387,0.2541605242075871,-0.11003191742010943,-0.08078285069697949,0.255716434718746,1.2191416198639797,-0.0006607211848224236,0.12212313278359826,0.25164136771547047,-0.07379709551434956
,-0.03867275980399561,0.2380554720673576,0.0163678975339946,-0.13224466075911326,0.06863689879047663,0.19113339680850774,-0.05425651901839302,-0.1725323418988314,0.07106670012930758,1.4072367413739468,0.0470816969346177,0.029342746275911172,0.2312479667794126,0.1878210843440821
,-0.11980635395857156,-0.1328647411475356,-0.10986625501712,0.02749850362009292,0.1230808723857294,0.041389889656649616,0.03179802752184097,-0.11171574351059163,-0.11379332874792332,1.0526734811264686,0.147738023463336,-0.04298694166718259,0.08153941348403755,-0.08686330589003095
,-0.3361911200920283,0.018679904727205987,-0.22793517716014278,0.19219644796981813,0.09493758628252356,-0.09352888259791466,0.25949963328625036,-0.02326251074028957,-0.23328552900504906,0.36306532404336905,0.34405476956940123,-0.04556050662316785,-0.07174994697329323,-0.23632920273937685
,-0.28382603562906294,-0.20650250181113444,-0.1993630469898094,0.1457360009879267,-0.04845561252208661,-0.16516491500050134,0.029464173213347978,-0.07584286794595643,0.014046101760455613,-0.025309124836988616,0.1534272377266765,-0.17820911158366898,-0.05728869268455319,-0.08059793862137703
,0.1502337121454518,-0.4109376917195188,0.18374885155160875,-0.07922862409900604,-0.020863880962951078,-0.22733617026889294,-0.14916358045811892,-0.07749316719606503,0.2518407431757578,0.2668198590795279,0.03349170290486206,-0.04894074851303014,0.00605568563317865,-0.20772198772772374
,0.16580034743696076,-0.54642623796734,0.09339746729506564,-0.23289447817962866,0.09543467102369733,0.01791063389375379,-0.261766856636306,-0.0500479214063049,0.21513107461296016,0.8224385208148484,0.04740985686104618,0.19047506269995992,-0.08172796136453364,-0.31159131570967114
D1,-0.003961787688532467,-0.5096041010435012,-0.031020735994765347,0.04813506279071707,0.18009336828949765,0.09080930916796903,-0.1966826466815352,0.11993836603433057,0.09631590661206134,0.3944781960750675,0.16573238469670848,0.13872211490684208,-0.16915806930246993,-0.1243417203969241
,0.021709025486987565,-0.5099522317913763,-0.015335747442644853,0.20317754422666087,0.05427778340777454,-0.029270873348385826,-0.18301990857943132,0.3891714331054694,0.13050622337240209,0.3714741136450203,0.12938407608989627,0.051913209596557874,0.013393059161019839,-0.09595490699885688
,-0.08176123667020473,-0.18516658104061967,-0.05120700111315733,-0.19880105057887276,0.048280822661229184,-0.07136029617281119,-0.2645122800598345,0.024607541847978184,0.0017049460288008221,0.978663105087421,-0.009680626958011532,-0.014976016492706856,-0.015109477623796674,-0.12981905943048871
,-0.19463689260819328,-0.20850262371566639,-0.19007297974431286,-0.4818647940718683,0.18753833223061123,-0.12444582311625177,-0.15362158181421467,-0.19352790253648763,-0.30824133368458173,-0.3099927672229466,-0.10133018699630779,0.01911840102770919,-0.07007075665491971,-0.02177858302114463
,-0.05166173983244,-0.25707673965244765,-0.018235817423413958,-0.25828741146257905,0.1680276483801433,-0.29813971752826424,-0.024262052161091816,-0.1709706469834913,-0.2394746338256311,-0.7824757563888209,0.007277012701347949,-0.16253153145887264,-0.05070019617382768,0.0848871641969596
,-0.06320292578646881,0.030609722745363006,-0.10165316062650358,0.10812049214996487,-0.06413420955066754,-0.10160461655362533,0.003658346223940044,-0.06830839507246213,-0.233352415205826,-1.0329040454373417,-0.1122206047011298,-0.04575817036805413,-0.09119292523053804,-0.08625416072878074
,-0.42842602840486727,-0.14495576387805365,-0.11518070976715956,0.14715835080891157,-0.21610915754699675,0.030987347451554344,0.036977081241805286,-0.10334815294980554,-0.3292417293659036,-0.28588070525169645,-0.17432821730376355,-0.11316388552271726,-0.21842275172551665,-0.21387338271632395
,-0.3311693684148386,0.19155531512274407,0.10330304501003883,-0.1669849256128053,-0.0923168143263828,-0.07951168415449042,-0.10608505753277149,-0.03461676527818905,-0.3631711470891922,-0.22166529993260292,-0.19238520343346946,-0.11840314322493703,-0.0868244049619862,-0.08538024004000634
,-0.03840750167173153,0.07716509564610256,0.04884849013881821,-0.017427066389016435,0.0685102609666594,-0.30514199099612993,0.1328468554439481,0.22512484825974222,-0.13670734468393744,-0.9210815823246257,-0.08831262152322816,-0.09091305936609916,0.19529052741348982,0.003960478436638432
,0.0761438523540501,-0.04334632962057265,-0.022269914416246664,0.26711101230757567,-0.0948621043546602,-0.17223179242050762,0.41649936455098274,-0.0031744038492513404,0.05801798412200868,-0.17156202645558205,0.13167002159828026,0.006394067811504199,0.530033204158505,-0.08884834994835253
,-0.15344697222509868,-0.16333271354422646,0.053453087718119255,0.2180609491333691,-0.023791265071869155,0.2404583891689601,0.02104073491873712,-0.13599784172263718,0.04272947875577869,-0.050994335714737445,0.031106767468519682,0.08703141111921524,0.32750674336423624,-0.1471903832367285
,-0.0810397024551384,-0.4183659989663022,-0.08758275164633848,-0.030896661571568427,-0.18722699319408867,0.12276184418044822,-0.18472007993236048,0.0414869005964515,-0.29701409858668676,0.47164357666663304,-0.1997416636337106,0.20255728121798705,0.21299698120895164,-0.20616232869533327
,0.01906810669300913,-0.2169236872560417,-0.09255960245099079,-0.06811123426866839,-0.2735912642237973,-0.20393916542289947,-0.18253785840315323,0.004993643395369616,-0.32608438465294676,1.3924128100218556,-0.07747755833196679,0.4538669119892751,0.06122993417609523,-0.0987098382133137
,0.13165353662024906,0.001059631976678026,-0.12175113531496527,-0.22610323489167303,-0.09421503722768187,-0.23002045165170043,-0.02730760772719501,-0.034147451033299636,-0.34059987851260326,-0.00026589450334288134,0.12633936613580907,0.23175516334483867,0.15930322804151786,-0.4085029253420993
,0.20755232072172852,-0.06592358875200764,-0.2513298328766352,-0.16796618318159554,-0.12646423489391018,-0.1715902839649433,-0.07862715367958367,-0.050086956768369016,-0.16845654673665164,-0.43060714272919187,0.09713821894410321,-0.017381602460813588,0.020402248235788623,-0.47494114798636616
,-0.14702649223173528,0.38289616174646346,-0.19338879879866427,-0.027308347516631207,-0.20850421932737048,-0.12441512932879537,0.02610070638622934,-0.09481131902997546,-0.014444562566222416,-0.013986982052500664,0.0787375464239193,-0.047591285895137767,-0.06476396107270144,-0.17371103864149515
,-0.3803611411169115,0.058989632624334404,-0.26931129275066507,-0.06839456555629005,-0.05074044312123011,-0.08798134623096393,-0.010733353670384185,-0.3189083908706712,-0.26357827430179914,-0.20878810911001675,-0.0902649280600778,-0.11609728350052702,-0.008600124880661185,-0.40857245591759367
,-0.08111998699336258,-0.42421578631475443,-0.34947571993558835,0.14159955850297767,-0.20433968233092403,-0.14041156249058867,-0.03330326364462283,-0.20202447476412824,-0.16977997169026274,0.3766049817389552,-0.18920115244666688,-0.14838605946305786,0.09409804575345661,-0.32207763287359864
,0.03211032322673414,-0.3179047660455717,-0.3113442729202762,-0.1098413501218067,-0.1508192948230599,-0.1976212421195048,0.23248473797132027,0.25520210729781395,-0.24245362831701653,0.2746317341675536,-0.13775002140482637,-0.13293406257652252,0.07260461219468455,-0.05780260278181423
,0.01585650572969379,0.2190338901667117,-0.13319596649061405,-0.011219502285011812,-0.0522788925493417,-0.068673397219135,0.130110825134113,0.19120493346028686,-0.42925287109214344,0.1253344637796891,0.13273975440861943,-0.038016787267560866,0.257111473287107,0.0442944997712393
,0.18982315488515247,0.16992284251239254,-0.07687580672721611,0.09909704710109335,0.0028441069519288685,-0.039970123910963364,0.09422735632254987,-0.009415491166648077,-0.12903909325081517,0.4720206211461234,-0.10142346301040103,0.20683440904239725,0.1358338363948764,0.008406729062940274
,0.15763684082548296,0.15865971674429521,-0.059045728772318666,-0.10172742732732482,0.06389754044699392,-0.18461739293680204,0.07456767921673783,-0.06756823741624511,-0.019670591417219482,1.3321860230194924,-0.47239577750016265,-0.12899965546501846,0.08408606886163326,0.12050570091192689
,0.06434092592231266,-0.07960854131653992,0.14174250695586238,-0.22785044093314896,0.0809301623420713,-0.3937412526880598,0.13956384074605563,0.09207219251395299,-0.16265030693681226,1.491395147256195,-0.21559833265637368,-0.16670575871020862,-0.06886477082869438,0.1465357697012634
,0.08711070674963198,-0.036495216610730484,0.14801866900404914,-0.048684850514177015,-0.09671927121554523,-0.23962280619489587,-0.04775331793820629,0.07353386518851683,-0.020555556977004896,0.15802218975160948,0.13873273925951854,0.16010284874951383,-0.17273088213893462,0.20691348867348364
,0.13378987855170124,0.05699493333039805,0.019936204678367382,-0.06090888572025418,0.027330977130881205,-0.2945520805504496,-0.0258404340281614,-0.0944970522272626,0.04825241248745746,-0.933726734358661,0.12582084103437405,0.1571748750226208,-0.1705047373170469,0.19945082744979276
,0.04732275547150167,0.01477673839151239,0.0423588911599147,-0.20271728112805162,0.18578140533854817,-0.08639269418642115,0.022563244098942652,0.11796115312334347,-0.006786651507667464,-0.3883078232275089,-0.10404958834929384,0.07975215958265316,-0.14878104122144375,-0.05616932299958651
,-0.196120902829363,-0.5277554259456629,-0.11764712503104251,-0.19746471407437113,-0.04464338300840852,0.05509740549274439,0.06472428625351143,0.11812059031416175,-0.020786820639394292,-0.10134271188009217,-0.08150681417331523,0.0007779435792255653,-0.23716854806186638,0.03200195746756085
,-0.04802801519685066,-0.43475006334363153,-0.054172640512484126,-0.17963241186223997,-0.1693762710508214,0.12101557261339208,0.19329183509890702,0.09715811341756879,-0.1911530248543166,0.3527379049244372,-0.05485576323934447,-0.12101668789280769,-0.021934978155190063,0.04395766928132776
,0.05843543412931905,0.044695871109062216,-0.059599562064804885,-0.1581670073340982,-0.11425781345842233,0.2997618314164208,0.1670838648730414,0.09956878193230585,0.045705599136695134,0.1566241852001683,0.08877493800986112,-0.1296881253192273,-0.048981950694659694,-0.03596664236766519
,0.024547323630958188,0.03490073091326099,-0.24426976670958833,-0.1322770917295312,-0.04174278734142352,0.028856752611130295,0.13733479356787023,0.04799037105811081,-0.004248355458759801,0.0734717956647167,0.0994585729803347,0.00618391974412584,-0.004535586367578243,0.19681216984228683
,0.11762105634565045,-0.5479358770860953,-0.1950692776059933,-0.1238522272709015,0.05631473989950829,-0.05979080106370096,0.13858018859814206,0.12106860519424455,-0.061415659434760635,-0.3709088311422072,-0.1426181774405111,-0.21984810305893554,-0.18615355348483276,-0.05432038514343452
,0.17812578039367197,-0.3218827586219895,-0.09931912796728105,-0.17836448009965697,0.23006918581998018,0.00037765471867564227,0.08417330792888114,-0.06269536935290165,0.051801289296509415,-0.28165830682983733,0.1396738440201702,-0.21985636694704688,-0.22302239043395441,-0.02747818966929309
,0.2688494563784142,0.14991221338606753,-0.24273140791930067,-0.21920374244928986,0.1857333448300533,-0.061366540837197746,0.1816699311414747,-0.02445185072085291,-0.03562350023949901,0.04988559713906817,0.07518179960389437,0.06060528114149007,-0.018371690822872648,0.09534691570606459
,-0.02671981734513329,0.025658374958851426,-0.15775969589007227,-0.1124539911798207,0.14394957246604062,-0.06330223553810368,0.07265995769386549,0.1537052945518172,-0.006245235850847263,-0.790408491162088,-0.03908816046994303,0.055377595799386344,0.023962410587872726,0.1320260180853549
,-0.07185667805849744,-0.14001053492696044,-0.01176924315942373,0.08313553451849207,-0.15679491946353777,-0.24548375137453243,-0.13421935110404226,-0.0938525285047766,-0.1457408549055337,-0.5221716256220658,0.041397443470932035,-0.07788718041802094,-0.02755485337175376,0.2202593224775666
,-0.09419536050539254,0.06758461675633666,-0.04605313674220442,0.18954079462971335,-0.43265706617204885,-0.26088905312414806,-0.08187273120492132,0.026069437135164897,-0.21087363400034353,0.851948335330193,0.2052571189163464,0.017975318519750358,0.23721813868643496,0.248585494375188
,-0.020294589127175917,0.3647473292549157,0.07918932747112686,0.13079229621023983,-0.2850965548225594,-0.04512317712344829,-0.0649697597505158,0.016140835940515675,-0.13172268418234012,0.3768649507366879,0.3083623526147899,0.06844532521506447,0.08889115618877337,0.05759478011055923
,-0.09723822569556649,0.09534064990665878,-0.07568860635796966,0.39193245604075344,-0.0278933781856991,0.10324574238384064,0.050130743788294345,-0.16476845650738509,0.008261121347312984,0.905332954734513,0.13553803672157383,0.053405222265801494,-0.24368215929772138,0.08849758654767671
,-0.04921993930054475,-0.07431037313433529,0.024296783091256196,0.4954115704453767,0.147252428365351,0.11536802101924201,-0.04616679784441639,-0.0022189152074511753,0.04308475566589934,0.9396650215573901,-0.028930880859090607,-0.09955673422154318,-0.3242103471676805,0.1006832871331463
,0.03346622912624621,-0.1278385297087089,0.07733433671516007,0.05425291340980073,0.06989652324789254,-0.19659971868674495,-0.024924662198584788,0.24040100638041512,0.05649083628569512,-0.07842572592965612,-0.19154735052994729,-0.16605442577914722,-0.3375909584154365,0.05428910072392883
,-0.15398550058335017,0.03120760799503612,0.0011828785533915408,-0.18964616030118994,0.0706715716786889,-0.32244405336775867,0.00738389359176679,0.21227525180733603,-0.045554892570987854,-0.015130828129471752,0.022521284493879957,-0.023410584577205275,-0.24323465683023907,-0.027256747972244304
,0.10713646588042297,0.02801784375158782,-0.13157719585396374,-0.1598832121748277,-0.01235561563227911,0.08328885238522496,0.04122792960206528,0.17651516153862226,-0.009122946532146617,0.5033499924083075,0.2950877503543312,0.2595586843927717,-0.11993590266839457,-0.021257937144593994
,0.28487848825093953,0.09672411781122923,-0.16015858694700502,0.009140781092233896,0.11127118620836203,0.06789760360923319,0.4639230908333389,0.4041892725304103,0.11777263771761948,-0.0780419303301825,0.09492423160887581,0.3407557443986045,0.04550126433894346,-0.027459659605778248
,0.11431597704212311,-0.12311265718202587,-0.09017101526905129,0.3659777507303464,-0.10392376048278307,-0.1115044734368385,0.3484888544367926,0.13785827481573656,-0.09958689604778574,-0.3736407799215191,-0.044985029270844044,0.13030300349920215,0.1547400674995819,-0.13519126974363865
,-0.12123302555203568,-0.623065413625533,-0.1772861891052584,0.19715286719081163,-0.19909498577809207,-0.08445311927230302,0.1946393561518166,-0.09673064803163266,-0.19222938233001732,-0.017958506331419086,0.03470753285920661,-0.01730606145300629,-0.007616884933755448,-0.12226377849796496
,-0.09716050313166538,-0.3849894235432568,-0.07899216378339952,0.0916596198855043,-0.1217412155419657,-0.002956199686791503,0.27305336494553795,-0.023563375390868214,-0.13486049493388177,1.2226201026741401,-0.00635448844851644,0.04121025837278369,0.11733911130612808,-0.07705300234326026
,0.08445733958567878,-0.06397419157246781,-0.02108198074206744,-0.14200155026143718,-0.21645508808332165,-0.05236165958417105,0.3248076206479267,0.1749721004193839,-0.13109570189895753,0.6446965348436284,0.02042834953885521,0.08134582039903625,0.20365511750008128,0.05285377198169405
,-0.0022465638187788924,-0.30163819566332484,-0.05116214082094145,-0.27533628647564523,-0.27182787806275627,-0.12982542029586644,0.12536532754833482,0.12435144574162407,-0.21073966412228282,-0.07216502642955237,0.06661635218580178,0.030480736246436272,0.15505148809790129,0.15708547106087092
,0.19413138605588864,-0.19114159648132206,-0.06531385634226003,-0.19672129691606519,-0.026517331342184505,0.1658071540688633,0.03450994514221049,0.014089387667056148,-0.06388444162355997,-0.3223247250897379,0.32772173683362205,-0.014699555014151442,0.11842064540802816,0.028473761122884564
,0.24633336256920563,-0.1535201278832637,-0.005241768770711896,0.07929038649270688,0.03374344043088187,0.17076285644759995,-0.27850504227473394,-0.19330245474836596,0.012504458531702832,-0.4784361017483603,0.04866042334253714,-0.1548668326566785,-0.08620322539414424,-0.1397933633112961
,0.1508763190440402,0.005696344539334541,-0.05604256744519364,0.11750608970693942,0.24015120073521462,0.17834252183316493,-0.06628829356055807,-0.1691496809279255,-0.09594330556560833,0.6132404217082977,0.11189350547612303,-0.07177062759968289,0.018101953687494978,0.028691875741708853
,0.19374806121697447,0.18184672539619195,-0.08298463687646163,-0.10839255357999818,0.18113258749711775,0.00649368593004624,0.10594623235886212,-0.19649772228482887,-0.06888848661961751,0.9291530725726241,0.0827287596546236,0.08115645854425962,0.04069466965683076,0.011583520009931975
,0.07593553247431672,-0.10809176958572567,-0.21069247530895685,0.05297357970722782,0.1315462152400951,-0.28598787658471697,0.027378070239887222,-0.1033212924193082,-0.12533900213413718,0.541913417894255,0.1623561157269955,0.16737363798505112,-0.12682100976756905,-0.08338257593547076
,0.05654839487890973,-0.33578962569485066,-0.18888509933594672,0.04054181048996636,0.0986805613107607,-0.20383043055487393,-0.10076207637989706,0.00161595706114833,0.039272493780398,0.00039503897637780376,0.09118236980359846,0.06065501392495738,-0.20437074877248565,0.12517363295140319
,0.11462221568160594,-0.17101909870457838,-0.08453884992492172,0.033786067156837,-0.3028263837339111,0.056774749560678774,0.21577426103522387,-0.07472487538617592,-0.15400243353264043,-0.5510317274859013,-0.13663581727121496,0.05309733089893422,-0.2610503151263666,0.13585901624459779
,0.09565806288063848,-0.017919944307976846,-0.10020534342803217,-0.010528601624264562,-0.36977139173904855,-0.10382122419748012,0.17107317037898045,-0.07631665380603711,-0.329868287296338,-0.5592346742999403,-0.41603350741441747,0.36125681603598986,-0.23367087893935787,0.0018702910081190923
,-0.03376348359562196,0.14661571686605493,-0.0654659750666016,0.0882238916882495,-0.02321591262247889,-0.0712735419146281,0.10212188777892209,0.12692559967659126,-0.09477519092574432,0.04175744560283271,-0.2276466504749708,0.20880739844752289,-0.29294883305016106,-0.09146981598186618
,0.04143601710081651,0.1540147147407995,-0.07479509781414262,0.14545427579569795,0.27430402748434995,-0.07443880615882735,0.1578763812885155,0.16336556709883895,0.13203160269123979,0.5347328404180639,0.11574846842376808,0.0126611386986807,-0.22187256744545958,-0.11587922356971427
,0.09007318671468947,0.16503433713004248,-0.006500851086551329,-0.15486365973925728,0.130785190749058,0.08354419304139722,0.030891154689271522,0.06206027933046402,0.05545457045120206,0.3643240515753146,0.029810056700428484,0.02851523417278543,-0.061663418763897276,0.045286180127713724
,0.07970778036766861,-0.02900879423094889,-0.05332070150765034,-0.32053268696389636,0.04589236221749711,-0.07841822495157914,0.017797152024771404,0.007286730417832001,-0.1315839752762646,0.5206565262870447,0.045051741767794966,0.17955107264820283,-0.056906234954588054,0.03062576871426616
,-0.03897196857966234,-0.3196468049513285,-0.2165166724187049,-0.14955957639681514,-0.15788450783413066,-0.15594542320608373,0.20107349031959812,-0.19710223883153857,-0.33995912052172855,-0.40489525567891577,-0.012387818736502165,-0.015681153475528266,-0.07462758116767647,0.017231762117763
,0.06261768716018187,-0.26513518153591786,-0.12109741603251044,-0.03158961783109941,-0.1169303004967131,-0.09674334232892459,0.19921248148026335,-0.08794955221539978,-0.1720067812925919,-0.15211590962901098,0.11164899409003513,-0.15020263293676747,0.10595301394455808,-0.027295955545045915
,0.08635442773963012,0.0685319003103504,-0.11392127672928429,-0.12007924184021533,-0.09806517333778894,0.21031497214804654,0.2708762647973887,0.22298108773133682,-0.2170072735648794,0.1687049741342652,0.12010558522557416,0.008740041349098131,0.19401432561423101,0.006674546308419288
,0.19838293960642792,-0.1789508934499903,-0.10162931409391555,0.09300904131978606,0.12122356248064736,-0.029887734300778,0.20074231813318877,0.10543432241220094,-0.09591084569150808,-0.23734127972327262,-0.6510726959328559,-0.035923022581663085,-0.029525507564417568,-0.07531407614635652
,0.10053694415449178,-0.1556265667692261,-0.07725119696976031,-0.088302767096471,-0.029050766481761296,-0.17315000770252179,-0.04323876124476981,-0.13984058343698216,-0.10689027301599129,-0.6649341206780125,-0.8201835784399104,-0.08830680543575781,-0.29023440819293705,-0.007082744811938075
,0.013269192442289602,-0.07984555777926923,-0.07451733420959,0.10791715263338243,0.019073484883747355,0.20910814209275516,-0.07382805810051231,-0.015492446283491607,-0.1682892301004293,0.3443913744121073,-0.2919349098040128,0.06069977195629059,-0.3961135921636544,0.04160168899237369
,-0.1970841461290966,-0.17978756586675806,-0.0660048025825311,0.037378138476769476,0.15899929926298784,0.2145716113665256,-0.07498782601021872,0.13385929858991932,-0.21421531095733315,1.5734894789098568,-0.12278549857688756,-0.1152881724809532,-0.269499811330071,-0.1455768852526368
,-0.2063406097399545,-0.217258402894083,-0.23488469584936217,-0.15529124876918754,-0.0305219405449208,0.27879754954664043,-0.11861082462700444,-0.03307575588921493,-0.10692505410773906,1.3328269491005118,0.07613470355972772,0.12785942866864392,0.05273379159616091,-0.2592282554885554
,-0.1517907140637849,0.13901644398540983,-0.2675880239898151,-0.1047471458075448,0.023136309899657946,0.3823666919058628,0.05003371807110259,-0.02391047239777753,-0.22027995363388336,1.0498399378854504,0.10460507831294004,0.23530050635092498,-0.004675620888293223,-0.10056622726357554
,-0.1292358608783139,-0.03704250379886081,-0.056309175615010344,-0.0072089485281374805,0.0856496376945326,0.19991397971612662,0.031703531518956836,0.034600336094351154,-0.13121062976620804,0.42299715032256924,-0.11201472051681123,0.31392288221618586,-0.08898012511339891,-0.051223958326812716
,-0.23742260000290122,-0.07831864177416956,-0.21472177156746214,0.23767058579114067,-0.04190474657300246,0.03772372769749909,-0.07731299680663489,-0.02803234178778337,-0.11907787871061049,0.5198540901506784,-0.0984258502900845,0.18420672134828242,-0.07234256501309545,-0.09964547479293229
,-0.24619037544600725,-0.35850845873885534,-0.18849666706029267,0.5142057647212791,-0.01368055475790683,-0.022816268067700464,0.004759724214823517,-0.05581075178400773,-0.03643941856519459,0.6879624833010531,0.03234255946664589,0.03216752285082944,-0.09507255079914563,-0.06497378264702174
,-0.013601586881700295,-0.6016211498541305,-0.02885376017785519,0.21538427431779505,-0.04286516864016208,0.04381676739839448,0.16988124945158253,-0.16986908566889306,0.020448572149355918,1.0165704892759693,-0.0856729509541188,0.13053645245207646,-0.15374197494620884,0.1146904784135435
,0.1606236357935165,-0.15126215816525018,0.013169907727561199,-0.09918030664611778,-0.00823520869359686,0.25605414313470043,-0.09636957763033963,-0.0545539011668133,-0.10828759163152286,0.8401082426899082,0.12569558165285602,0.12079087192192711,0.11607711644300338,0.09601791069903817
,0.05103903853947241,-0.011072807455737757,0.1208789861517693,0.15956480426604783,-0.06133399158116773,0.28844656144769193,-0.054581323468042016,-0.06480328265986464,-0.0053947541812617485,1.0897618583525917,0.07569580555869229,0.08578802967453496,-0.0859099822504442,0.12311594767737048
,-0.06770227886831968,-0.15279423580005214,-0.013452222833534644,0.16930117354423616,-0.07876983463239805,0.1513395748387964,0.12719636812085286,0.01783609835036492,0.054972445135418935,0.0643215178603266,-0.026635245386470743,0.051267404729107145,-0.01658666333092784,0.3144763901468282
,-0.18096641750444714,-0.27938901424614987,0.09734602216460823,0.03505797022909466,-0.040507538186449275,-0.14501736312790672,0.13090852184842747,0.2085202750833214,-0.024238642500474146,-0.2683322334406207,0.14210832138164373,-0.1370415015758528,-0.05846404117430582,0.1454863440806124
,-0.08717208766725368,0.09044018392061026,0.14070509701377398,-0.7475503192159961,0.2531070454614612,-0.059774346609440275,0.08424223225115572,0.05085531871145891,-0.11888002723056756,-0.11796391274370636,0.20738033293956312,-0.14301084406796816,-0.03461455084029475,0.10397084501012548
,-0.0051013488490005855,-0.08873922226686144,0.039962460174796016,-0.9208560481515672,0.24204167046094793,-0.14252108472322722,0.03813346059568357,-0.046962087379167114,-0.20732237289732613,-0.01915197857338644,-0.008289360210707962,-0.16978317834165255,0.232177805997884,0.04876358230136186
D2,0.2800086236287396,-0.3219690462161095,0.12979351619217375,-0.16722185981894933,-0.08263582039088489,-0.09135501234974903,0.014717647583262628,-0.11827142938583343,-0.15759237120989172,0.49966350904500484,0.021641080362034153,-0.08546728116239927,0.047489949995536386,0.0034867287252762697
,0.3232496727048217,-0.037078584083349894,0.26085967690677736,0.3827860335636688,-0.13176472591697147,-0.14594792519782457,-0.3506581535771988,-0.22718420214807572,-0.07908562021821461,0.40208484823863294,0.0014777914081262626,-0.10409079394352558,-0.08703750714233756,-0.09088101509443712
,0.17184717463167987,0.10113086946725068,0.1795432154205706,0.05476077360529754,-0.16114310927587164,-0.2863454897334004,-0.3735526620316083,-0.19833042425262637,0.11809493933965717,-0.4591605040665514,-0.034755177025612455,0.08744917742723468,-0.11430819957889761,-0.08053525609135274
,0.17385300497206232,-0.009768449977339616,0.044669696384062936,-0.0488028395940148,-0.22699582669521937,-0.3272568942749995,-0.0651156833562068,0.1104267109356427,0.26168325259816544,-0.8630912564799846,0.01630160199974182,0.11542020620560761,-0.07668965088746559,0.013977940171638505
,0.0057733178734224394,0.13618987285758744,0.08435292570923739,0.1769906890076486,-0.0323324954328343,-0.22843377734094625,0.1563888670199994,0.2939422188044827,-0.010778344691174828,-0.9447965541806461,0.3410979651790515,0.19716597501433702,0.019302415706543903,-0.014288923334065909
,0.04306639496258095,-0.026611429529503516,0.11217726823050927,0.23739552003220257,-0.10064030788703374,-0.3713644196529327,0.08805267166870072,0.12983676859077367,-0.05221336012061153,-0.5416395185692545,0.28826852356911103,0.01061392524441939,0.024829937933402303,0.08032135115888803
,-0.28597788481256164,-0.5054167980033256,-0.05787373883982122,-0.11317414267123554,0.06776054207160515,-0.3879165628014219,-0.14351531537079087,-0.1051757983671005,-0.16493745846759156,0.11574603569066642,0.07050678225845364,0.0037255380823791166,-0.1168442214813351,0.027270381620957154
,-0.3517217963869256,-0.489868195526994,-0.11689333593710641,0.016113295952308267,0.008505170504396784,-0.426814107746529,-0.007591397861718748,-0.028401457678588402,-0.1283784130425809,-0.3919097202614775,0.04397675355335099,0.14158700348373648,-0.13590549551117803,-0.07637498421577145
,-0.08241921458297656,-0.0018770331023699105,0.11376364056467489,0.2795515732400166,-0.2807890091709629,-0.15625458889384375,0.1507473849604651,0.20724038736657877,0.044173308867947896,-0.5705055391358329,0.20416675992515076,0.25394311043295686,-0.18927260536526336,0.09075590927990736
,0.10242653422197665,0.16199851520490907,-0.019160565928084083,-0.14826962751160036,-0.1498150610278533,0.12756216612726762,0.19949417113945586,0.3080818862176422,0.19058763014121916,-0.08448914148930478,0.06532719583947315,2.4922109716428457e-05,-0.10357421266896452,0.012399080067368602
,0.024285909305617834,0.41274375178272354,-0.15292399356572903,-0.31674041007784964,-0.006611022060473107,-0.10980344702297118,0.0034903570586081118,0.22648577383385457,0.1012421957060178,0.3895140799084892,-0.0022133139646353006,-0.07544613371819298,-0.14953949908491715,0.01284256587870713
,-0.04814496488417991,0.12119321527352991,-0.08133658980301066,-0.11887822140999771,0.07365765198047194,-0.2591725805489311,-0.07458180803853198,-0.0070219378727443115,-0.17363484074930963,-0.3321019669046071,-0.2938319107576229,-0.039183774387569086,-0.19974759468535577,0.012148406876708883
,0.01765977519968147,0.03546021865895113,-0.21922611703088785,-0.12395790953751568,-0.05001000036726672,-0.08796541423140777,-0.20566384833253573,-0.2120736896781901,-0.0893943248995379,-1.2454185500415067,-0.46026401690775387,0.16215779912062261,-0.07888226868773693,0.00487908489318643
,0.04683605542593825,0.17756317748657283,-0.23980391573760057,0.18138061997501453,0.08395256463008947,-0.08896231771970294,-0.18290170214236243,-0.1348579044976658,-0.08643207785110936,-0.640725102661659,-0.06039626412298782,0.0823301288483367,-0.19948195433290425,-0.19506131856293446
,-0.06454011538227276,0.055976627404915186,-0.005737201085050567,0.3950276317955694,0.1464204078473057,-0.18921479494306068,-0.008239482245552128,-1.8494435104996008e-05,0.1311412810398004,-0.009789780964813869,-0.054862844735444255,0.037190906338502736,-0.24874768382194298,-0.11542215245737755
,-0.1653541843709298,-0.2116625465993609,-0.06835646681481118,0.3381285536028777,0.10225707173745739,-0.3208221658952769,-0.02354504372116156,-0.04565014170011416,0.21507119501239264,-0.7006038759933754,-0.06591285182410475,0.0698135831727578,-0.12041106600760286,0.03018424598427501
,0.025933946620863912,-0.23447104098560365,-0.07974312975784256,-0.11484721336837941,-0.08134108807487571,-0.4803833794491871,-0.0028348648419065326,-0.19121071858636468,0.1341075226553454,-0.1868637497906787,0.051202366454037876,0.025435198405990303,-0.15198984091482035,-0.013826073977675475
,0.10969356981598148,-0.1714713182571006,-0.20042373875155128,-0.1869435765877334,-0.07799139380453694,-0.17594370350542884,0.12506608798396054,0.06901354901140959,-0.05146564154993973,0.12093009487536584,-0.5127514323856407,0.09743184241473485,0.013335603764257823,0.01871745639035181
,0.004332682059755999,0.10693395778534397,-0.12750523821931845,0.10002913469918703,0.1807111760450529,-0.10362199983983146,0.009869892877053484,-0.03559668575995372,-0.03595945937674544,-0.5748295297940199,-0.5192206475899244,-0.024574216822615458,0.015651009028972564,-0.2232786561801411
,-0.10618183924666583,-0.010425063768362603,-0.021917485488614358,0.2544131081127371,0.09443901206086051,-0.298178520125684,0.07144329635652205,-0.05070058791211447,-0.046250688959995234,-0.9209048753545341,-0.050584206402872346,-0.02753886547959124,0.015249812045934027,-0.05986644105074238
,-0.13468807550111714,0.04239789221651291,0.08310846531709164,0.23231141248939638,0.031232219322146478,-0.20665248203941444,-0.0694151596840712,0.02458954479852062,-0.05559257551863607,-0.6579981543094492,-0.010991908729481128,0.01533303182324798,-0.0014806384951825586,0.12533551094977202
,-0.2828352905421184,-0.42042253546429087,-0.003554770633584461,0.22020480269440154,0.02237784148521842,-0.24444205324245208,-0.3724655203293301,-0.19067073575008617,-0.11347032337117863,-0.7738528743230044,-0.1110740122924899,0.039722820019740535,-0.07692142891459926,-0.025244465175493353
,-0.1605820373688156,-0.5059876901967901,-0.04162110618219765,0.22467295998179604,-0.14778120128004119,-0.22633911141703972,-0.25760272861529687,-0.2948969488606055,-0.350740087987289,-0.7276634060867764,-0.1135840683714138,-0.0284359946412848,-0.21076283237712493,-0.056713855758354796
,-0.05554292131281499,-0.36823761045185643,0.13998540650551547,0.28434220233842045,-0.39103264598734183,-0.2652317981900588,-0.09890644094711813,-0.18896040818415627,-0.40703887785944726,0.16048667533371863,0.1164252263454652,0.2440392604515307,-0.23967902636087401,0.09308555476519624
,-0.1920387990097411,-0.4502795661099577,0.12220853345816295,-0.04839376576301256,-0.33653373456257424,-0.30754526805222937,-0.16532711328253674,-0.09845989429478366,-0.29131859983971625,-0.026135250172460454,0.18789582029710425,0.1650833133161106,-0.2205291547411805,0.18100166940866208
,-0.2607145155430157,-0.2918679748882489,-0.13281880143102792,-0.18245601454995106,-0.23024136365137077,-0.546117533362388,-0.129429948734245,-0.031918270704151604,-0.20325300938577784,0.03989934815903328,0.026128598505995363,-0.13827634740629757,-0.1591140713834918,0.0010241924370273411
,-0.14303710256776733,0.09878487107562225,-0.24564430265610265,-0.07523045685116599,-0.07306556543649996,-0.17691102089366229,0.00019034540909856508,-0.051774402495099486,-0.02578642684964917,0.12191895396995656,-0.17633597870294898,-0.08776960791766943,-0.00404904624786422,-0.17682842217530412
,-0.16019362362561515,0.1063384787334903,-0.07648692710299385,-0.09948576863128375,-0.3173958884390622,0.0655192489067989,0.09893165998823271,-0.045188346262359395,-0.059126922671100285,0.2602605239125397,-0.15024840742710857,0.17185579016194097,-0.2442252343726948,-0.16014330541263322
,-0.12679890371198446,-0.07660159074377558,-0.03554003591626362,-0.01166578617665587,-0.18465991006833835,0.06757829321901351,0.052191874562053306,-0.024368943181341193,-0.18817726962384704,-0.12587503653235688,0.014723120534031516,0.01863445194178934,-0.28880967564541793,0.010996647807574733
,-0.10224167362328973,-0.20456465808134316,-0.21016184473440847,-0.17380624331515115,-0.26496103736853344,-0.17005209809473193,0.20931762434052167,-0.04345139060388828,-0.2610303100736744,0.1924791954203046,0.07406412181089134,0.025065274317380603,-0.12151108901129992,-0.004586684712558596
,0.015137095933198303,-0.09666158828952631,-0.2828465486946358,-0.29227194079611224,-0.31462883219922405,-0.21561668478611992,0.06877986894626985,-0.07040824423452836,-0.32287576485272607,-0.5508550161949792,0.12416478761758325,0.03500253435663041,-0.09648268861686843,-0.17143061007111074
,0.059928677358174864,-0.21868039390834682,-0.17289318372694987,-0.09958828397865752,-0.24072733648704592,-0.3788827086643515,-0.07449554893767499,-0.06273301316257542,-0.11241326454264375,-1.2163859719083796,0.10751964352212855,-0.08818478666378932,-0.15151758253911363,-0.20617534442395424
,-0.44027951054586467,-0.4545231283823307,-0.2533793601487323,-0.24122007459855363,-0.20321253784548873,-0.3580747708951691,-0.031767915820820045,-0.04748052625912025,-0.2174287455259156,-0.9594341140836814,-0.19714566469435368,-0.3684598006377531,-0.34166172087817814,-0.2716886076408105
,-0.5834778233136269,-0.6431895414891421,-0.30363977814093995,-0.18442142354772445,-0.21288324165898168,-0.3720324084411632,-0.055569793993518996,-0.022186669818223877,-0.21986263907268552,-0.7755576097749007,-0.2986882459829426,-0.39239504144947446,-0.3204966765252759,-0.271519189048961
,-0.16563135930388218,-0.2659614227182668,0.11268030930676302,0.1230500586917022,-0.2836484346030778,-0.4243146536411283,-0.0820043253134017,-0.02064831969147981,-0.2536547250603519,-1.1201887022829762,-0.2569308723048933,-0.06455975899617208,-0.05147879895924991,-0.16873876075155478
,-0.09534669935072637,-0.02571127322166158,-0.06635915484976959,-0.026356694621711887,-0.17034312421043282,-0.4233236003561466,-0.13329069599389576,-0.044321687994677,-0.14051330239252394,-1.0594618736968924,0.0816244793187725,-0.10600701612716139,0.08870304142354374,-0.18327879777988199
,0.10073273901750746,0.06768004779166763,-0.07059739250111413,0.20149885003781395,-0.2333869085252427,-0.42715894618935707,-0.18251579297145953,-0.11798023242715158,-0.15613404552486154,-0.6812622611517206,0.12248792178938535,-0.09575734213734698,0.05167569032909317,-0.24445215441270435
,0.08402742121950947,0.3704040990021324,-0.1569118650761067,0.18170676439873976,-0.14569722114743308,-0.2996349916492577,0.005849031616542745,-0.03928785389792127,0.13872141302656288,-0.9323649048861652,0.11777092444111237,-0.08312548192349098,0.1160985219523334,-0.13534919018700445
,0.028460960925672078,0.22659419328614172,-0.2278860918986672,0.07161746680158483,-0.023753671372410096,-0.1399760368833948,-0.024854414219261385,0.03965405770773539,0.06773832108770322,-0.9391191486138114,0.16077128572886853,-0.014810104989366118,0.36824831393341684,0.02313394053362036
,-0.03087190025515051,-0.13609861854005942,-0.25295401022544894,0.021193861259621624,-0.3261741543089825,-0.2822879423468654,0.0005262741160826229,0.0406643310312723,0.031097477919810004,-0.6466416178924577,0.22441130245445493,0.04669084182039598,0.30546299434901625,0.033827230967960746
,0.1481125333837398,-0.17438433273745246,-0.1832648924216459,0.1708837664281559,-0.3058700291068463,-0.5046339857431922,0.1766784030188017,-0.07389733829310517,-0.01015011329955103,-0.2937337753666925,0.16247045534362073,0.047846899080845565,0.07332292741194248,-0.06941186423467934
,-0.08958655094771276,-0.1978446993421671,-0.05805487945639606,-0.15301025618864045,-0.10145910994735183,-0.39930136262805704,-0.08440601246812299,-0.23285408787242765,-0.12746970552338346,-0.08471777801075084,0.056370833906355514,-0.21883705078353013,0.049036268618673454,-0.2557725807957599
,0.15179014766415322,-0.12402895109933053,-0.007117207239181439,-0.10476095190969523,0.01961459830776178,-0.2291178036687927,-0.21102058722224445,-0.12222374372192327,-0.052945653905064186,0.4965289778405966,-0.034655011790235564,-0.13210773400811082,0.3367646091355593,-0.1623029807188828
,0.287253803004417,-0.23667543708731759,0.09387344582523455,0.12219422017060803,-0.25400816927698905,-0.4430349738538668,0.0642318868812473,-0.004961797048675032,-0.1905419561331969,0.3226386751212816,0.15658670982828754,-0.11778704050388725,0.26297651132985606,-0.0033937481998955873
,-0.00558046810474048,-0.14055366917142742,-0.06745190688924481,0.0859884097157687,-0.04466697799912544,-0.3254023107984552,0.16696177300099,-0.03121327824580541,-0.13273160678056567,0.8025714549193222,0.2641675580276622,-0.08798460165992393,0.17641435408387804,-0.14328146000138772
,0.05302703991694485,0.10274079847058622,-0.21770421744008703,-0.0058276945969347954,-0.03147368716362107,-0.15236284170612205,0.3037104091601535,0.011323261096278757,-0.006695707746799652,1.3196522039685967,0.14158306556859224,-0.005735636582193099,0.264934799762958,-0.08887868834492536
,0.12384190353932001,0.17603753842323194,-0.38963933853421606,0.15727229864648337,-0.19242308499802008,-0.26281828963331133,0.13145652710283784,0.04858375161739073,-0.1198200350783224,0.338732053866347,0.007751856563424647,0.037539943287814126,0.23817612455653628,-0.002584167373650107
,0.1314645081358581,0.06184295294527177,-0.3954257446088452,0.00860262302133672,-0.43812108880953965,-0.513024291240353,-0.007381520467658282,-0.06827505935746418,-0.09684881866080557,-0.8339761417651668,0.0756691246070207,-0.05854014071134545,-0.04323295634027495,-0.22602360160657972
,-0.019840215974418242,-0.12075660972118736,-0.19705202314438014,0.10204759401591226,-0.18585764590228301,-0.4577334621850019,-0.15374928174132738,-0.007286747684726163,-0.010090942318012936,-0.37740588490061866,-0.17913424641048728,-0.037769880639082286,-0.14045224415889568,-0.23154545369594087
,0.002749035946659276,-0.3081110480202231,-0.13523656224694966,-0.0709626209594417,-0.0372275153970194,-0.35243946471771576,-0.07698727318483453,0.10297025177951695,0.0009510883049498076,0.3340029857874869,-0.31167248471073167,-0.1644081257548271,0.09925501514816415,-0.09001608653753988
,0.17228979825634236,-0.16045261553594103,-0.12519534409708355,-0.04099207577284872,-0.2348083693294837,-0.1851946766132244,-0.10553009226287054,0.23526263129976963,-0.12678871887005155,0.4850758715407209,-0.11828683933576875,-0.17056577390834834,0.2208112322782308,0.02661921924792864
,-0.01181971049897288,-0.21735314262960972,0.00989127867455519,0.08922467219418631,-0.18253620528996636,-0.34911967036981556,0.11571809351023059,0.03273661718181439,-0.20451262377762353,-0.06123039776594381,0.12612937552263734,-0.13697844837829956,0.18144803059953069,0.04348008457153839
,0.03348904408830718,-0.4584214085021835,0.029792617701633373,-0.016655983581195508,-0.0040448055481447365,-0.042532327365597734,0.23975686752030884,0.08525830363309682,-0.03398202159716285,0.41603627010344413,0.005280385701334776,-0.1840971040499844,-0.08232243064119735,-0.04049169808617319
,0.1473502889210991,-0.46765174879008575,-0.09947087395280271,-0.09901196447029019,-0.18028496185889847,0.19457833550901177,0.3341586165656632,0.09078509086052701,-0.1541578472682781,0.439143165780379,0.12006677543806327,0.0765072646029277,-0.19423139350119423,-0.08646481723276848
,0.10526775583596168,-0.22764331952582142,-0.16791341048624736,0.16095892735033412,-0.34869360762454094,0.0849200025519376,0.22118107729368264,0.07618833273450273,-0.09128417270906329,-0.5108449469437749,-0.009481275604089165,0.07170035388917444,-0.13105137338460843,-0.04628746939986389
,0.051723758354468505,-0.26241498509249156,-0.0721155583848272,-0.2250642905831193,-0.3146537115212763,-0.15866374588835122,0.20935690860684913,0.09509793515492232,-0.0015076630857877376,-1.0565157109455274,-0.0032898061539600064,0.14396265070443315,0.10073427279407152,0.047700099838732364
