event,eeg.af3,eeg.f7,eeg.f3,eeg.fc5,eeg.t7,eeg.p7,eeg.o1,eeg.o2,eeg.p8,eeg.t8,eeg.fc6,eeg.f4,eeg.f8,eeg.af4
,0.1744201618511156,-0.4204344259686525,0.3784933158528098,6.0365508710791955,0.36247123227489536,-1.8255962038834135,-1.4863938671930812,0.30304841316781805,-0.4013545464546025,1.892463118584425,-0.5414572792293695,-0.21655441280625962,-0.4541423327224359,0.7757346822042196
,0.11989305491463408,-0.9812656947789025,0.12501891248998534,1.5406996837015192,1.674036474852661,-0.21782849129262546,0.07388545691167872,-0.34330443096890856,-0.5213814994322549,2.408262473209295,-0.13762819142443825,0.011259958767224377,-0.6744881895682417,0.11782803599399602
,0.2752006833979715,-1.708694950981258,-0.11633127311934356,-1.049293914235593,2.8930482327115645,-2.5247683469046227,-0.901912823179065,-0.4779709430791975,-0.12715976078285687,1.801781342449315,-0.5787547260566099,-0.323348672217307,-1.0447548452360533,0.2847159340300246
,2.0767089656610938,-0.42440390309739084,-0.3883049971647752,-0.46779650612453366,2.89952672977293,-2.553036017655709,-1.315096327578409,-0.4338051556309866,-0.41577762027489096,0.5086968017620496,-0.33219468152928644,-0.30438059163895803,0.08545183699295239,0.4877443369803442
,0.9192426251503647,-1.1886037516617796,-0.5570308177665901,2.4352044497231224,2.713595741881304,-0.7012411956719782,-0.8442041491251642,-0.5611583694146592,-0.10332598759990734,0.49883447363680994,0.13173693562426536,-0.6159121047622541,-0.0637218185332234,0.3600330725431657
,0.9404243416149533,-2.0948488925059956,-0.21707497765601644,2.5078475653288153,6.881546290305722,-1.0312830225127572,-0.6918276895078289,-0.3206552545849465,-0.07824188916230136,0.51432787363906,-0.43175233152068276,-0.35215908485421693,-0.28126422351238506,0.06972431984401735
,-0.552924503911376,-1.1708366692571055,-0.05233308565701078,-1.3397574153910685,1.5676609995764437,-0.8997554158766883,-0.20268113348649675,-0.2443995157261921,0.17756883913449423,0.4858587156625501,0.0010798127602185128,-0.6670013859148402,-0.7580619856061763,-0.21216276259805603
,-0.5157096408627538,-1.0729942874769771,-0.32612453712420303,1.3877542616713259,0.44962366583249785,-2.2066928166017545,-2.4246324389678335,-0.30517000017075324,-0.005837878715288288,0.14527856586029386,-0.15565241493205895,-1.0987213039682973,-0.32192860307964327,-0.5827213716574358
,1.0673005438066145,-1.1407571880824734,-0.46963417346023684,3.621766812138979,1.7284412221774048,-0.9914976344225049,-0.7736237746415626,-0.06519300424551058,-0.7606684252579838,1.628551166705907,-0.39666557593472085,-0.5874099812335365,-0.3258302856153444,0.1801144837845837
,1.2894613219163866,-1.1863828243568122,0.2215072373875717,1.922545865070768,1.5315951887898684,-1.457595654999013,1.2483054769287683,-0.4494817364908326,-1.3408372367622228,1.9410393491712181,-0.5878060337359775,-0.4815787706047943,-0.5358086736579322,0.954589538186584
,2.021727405143478,-1.076436959921644,0.37520335168428487,4.070923702836283,-0.8497575786954921,-2.25271042612327,1.033006268759719,-0.4133472491094897,-0.8816523340371362,1.4543804827558393,-0.6445139363757992,0.084633291102728,-0.39027775736362896,0.5119329967319337
,-0.05002376765379295,-1.8890401765583287,0.45481289825312865,6.331646657644803,1.5219159765416306,-1.893585370795594,0.16533034254542145,0.008835659619605628,0.3144274013597551,0.15296964869518626,-0.8694389816238356,-0.014563896436273384,-0.0061014978153736,0.366000102576767
,-0.8060800498825696,-1.1769714733375858,0.2960786933793425,5.94849090496758,1.384562590461106,-1.206422189567189,-2.149638366521721,-0.07168255220981205,-0.0625462907153544,1.124042713305226,-0.5236690477482415,-0.5361095162724654,0.39793422505169107,1.3126329319693721
,0.25782678194104247,-1.1817534962877316,0.3451425452340894,4.621729747122724,3.306305646111704,-1.962141753464354,-2.5383771802968913,-0.2233084100860829,-0.01924927140338977,0.9046013789044891,0.01900102616859578,-0.0008338071989158483,0.24858293425854455,1.3251165428702012
,0.6424227935996757,-1.6959970535432531,0.07893893478907457,1.6343859522327586,2.1454459412939113,-2.651285338829624,-1.727986148442482,-0.5783049508400747,-0.4844363697313678,0.5951412457122882,0.3123557002243586,0.3175144919257149,-0.12039118179396578,1.1409377255044006
,-0.15533883604224902,-0.8315787862625467,-0.3172553495008194,0.12868346722280966,-2.1288240343936646,-3.2669907704080683,-0.7357286674462847,-0.4585764158117005,-0.44548881584282934,0.2874979201032769,-0.1791560282349405,0.5250374442900465,-0.6491292425758728,0.9882854187700536
,-0.6012200070735342,-1.094206970405119,-0.6768367789349059,-0.891910465618263,-0.5917650587753714,-1.496338295041432,-1.9070834284536342,-0.6756801984238896,-0.46341244390890884,0.967715371077171,-0.7932190724915417,0.4042741760324094,-0.7881015721435319,0.3774977780756992
,0.05945718351312051,-0.3738933791642576,-0.6860840494852872,-0.8434401167056491,-2.8490839616633554,-1.6492722528668478,-1.8843142616884285,-0.6559731687024757,-0.61101647555019,2.5923185161223796,-0.6400829938518842,-0.13912178453758103,-0.5586974393395654,-0.528132556935402
,-0.32731923914433453,0.19479559303077426,-0.49531346485601474,-2.937261032776754,-2.6892249248361684,-1.4828349560125342,0.4860497345330265,0.32254619757563124,0.18712261781476727,2.679444983239905,-0.17488804120011037,0.08423016602385681,-0.2542254445967503,-0.5693429938940238
,-0.5701712608849829,-0.5062894217305923,-0.20150545298705097,-0.03191139755890036,0.9601407673223695,-0.24682857222905907,1.941609445889544,0.7555440215387685,-0.04134789748724908,-0.47723533038868715,0.2643292613240242,-0.29981311633621704,-0.5144693030687273,0.6647342954435134
,-0.19110078350929635,-0.8896750709541126,-0.01115281658161406,3.386153285753694,2.6680042602541847,-0.6170209699243856,0.17182860643899434,-0.21045025027316008,-0.33547597854049926,0.14401639139872163,-0.05594450207152891,-0.04115787188789745,-0.4036631001673288,0.24528427565075783
,0.1368229293794515,-1.1770528947379342,-0.2863641333480316,2.1085291243369464,2.889847584357491,-0.5895596531055661,0.47633144731489546,-0.3024134574552526,0.24566999494954556,1.784109103324601,0.10774415917282533,0.4246861589904123,-0.1888894028732568,-0.1180153461503437
,0.9098235006625316,-0.11707164704419219,-0.5322247216476623,0.4139397560623683,3.5626986953891535,-1.3461336367909222,0.9280158054757691,-0.30036343030574075,-0.6321444964063231,1.8878720246145901,-0.7807325651049495,0.40145949313389995,-0.6686874332818116,0.46888058253831816
,-0.34758367926653294,-0.9823189803740496,-0.31415303614937873,4.341814227452625,0.26979705281058725,0.7689618749714128,0.050516693470974164,-0.0059478035874938415,-0.42463428353852717,1.1301441596034039,-0.9974490338308409,0.210529762600929,-0.2826807532198853,-0.5212015450733575
,-0.4098944109548348,-2.3411051511585272,-0.6618580651974807,6.223981864515175,0.5277850281166092,-0.6449988366120983,1.2120626943514572,-0.39441537839174495,-0.8778217493277288,-0.11141039398799471,-0.004015189629344298,0.03148296568695992,0.22383915850086558,-1.3608827025002443
,0.6923897331672653,-1.029580108493964,-0.42139271174188964,3.2891193011495403,3.112688386777702,-1.3136075841670918,1.3970839105837256,-0.66716848207169,-1.2149568223826166,1.5961477766650822,0.4788924947935967,0.2766672329123122,0.9894733342566407,-0.4495369667129787
,1.587391560901974,-0.7262800402276534,-0.050618077096475665,4.446870137695125,0.2879498983423547,0.703973736231577,0.8539254181655572,-0.747080029824317,-1.0965517723057396,1.4098808252502446,0.21825433869677194,0.3660873649587039,-0.004635802443473611,0.3426410971309273
,0.2743900391182965,-0.6896557720492424,0.40387104464314544,3.4147695061919756,-0.7442461908918927,1.7855616671506913,0.06269869027369945,-1.069887851286771,-1.453154852793472,0.6875553226041432,0.2747540628285819,0.1978876373114886,-0.14978542563140565,-0.03746796210599098
,-0.5198726387604194,-0.9909769148676302,0.48425222374889065,3.4880914816969515,1.4678764392067756,0.6227025354713609,0.040660713090623045,-0.3475313221717475,-0.7443143336917295,0.8479453275972213,-0.13825434140514942,0.04651950356093441,-0.0400384066357985,0.3880342709342672
,0.6426138570242809,-1.873080364220756,0.3416899597844829,2.8084248918640746,-0.4552486800074348,-0.20466257405647936,1.024764805978824,-0.27317955310391306,-0.49505868232804456,1.6130838302707522,0.03293036820679993,-0.10215790316173555,-0.770108166348098,-0.03849091690923623
,-0.45318812376277395,-1.914797167329732,0.16317805069270755,1.2014015183646531,-0.12992718683830587,-0.12378689895265524,1.219729913748031,-0.14082447874406745,-0.4169599409667102,2.1200127434958436,-0.12469773696496232,0.435341625661314,-0.3108410135204495,-0.39721745750544346
,-0.2077647472456729,-2.1208650572831695,-0.1607779197475555,0.7240694838228664,0.3828341631584956,-1.1985976180709805,1.2279945195861153,-0.4454650267849479,-0.7901358270620417,1.5792587345487392,-0.3534793075488729,0.34240304182293657,-0.40298543436908874,0.20736944983901895
,1.3611124136126107,-2.041286884253308,0.5121931459933089,1.1727733811825518,-0.756505984140399,-0.530433018804212,1.0389624148783518,-0.7405422476735197,-1.2407682212704707,0.45151375874002336,0.09991661944576946,0.10323333145027071,-0.8590953737286255,0.6784334310456251
,0.754262489931961,-1.4746959646225792,0.2910486204299401,1.6470048009483147,-0.4010688439276158,0.6336566078547884,0.09052873367872846,-0.4402877487137618,-0.9937020803417422,0.7369441659518393,0.3271345241814331,0.9836075159782075,-0.3377582877603479,0.43942753989479355
,-0.7438093623217388,-1.1727349114584404,-0.735994430690828,-0.08549855724556835,3.089011925473657,-1.3229765816789587,0.4484168599746659,-0.44128433768356456,-1.1659450784167047,0.6236815109810241,0.07920595750411788,0.7240666096595012,-0.61169940217842,-0.37220672000280725
,-2.5514260013880126,0.5678398686052273,-1.4358669364640602,-2.6805129149445364,1.7576498523046888,-1.5061420118952382,2.3353781367980213,-0.4056693088867123,-0.9617572840979893,1.8458556413109135,-0.5419566136179833,0.13375362165324486,-0.9669904997848671,-1.33191661098359
,-1.7164019434654445,-0.8787677776114925,-0.9974133345769283,-0.18221618333444384,-0.7411289944803379,-1.2303325549618485,1.3680827667242936,-0.42517897066303395,-0.7373981968293458,2.4525301665685655,-0.35995079037941224,-0.2624327176098268,0.1389835768326684,-0.887951354791626
,-0.06696532022428603,-0.8732036692534285,-0.5043144370589643,0.6078171762183419,-0.4455202008184637,-0.53851085907811,0.4211513751773085,-0.4708548148853651,-0.5288215009972168,2.0018387468072167,0.16995331674184574,0.06040234642705731,0.02245806923112793,-0.2909908529821453
,0.21427489809523606,-1.2506213407446432,-0.36895738159295133,2.5718867419515408,0.49736482456245507,0.1624190311686425,2.327979197751125,-0.3649616526337279,-0.5783733792616337,2.129395909444878,1.1028970989889566,-0.18320563112030924,0.2801355011382892,0.2936725688458534
,0.41401756016217334,-2.2512374017335177,0.08810048176349987,3.7387949884633525,0.8091765906914897,-1.8138699511352192,1.1976767940981965,-0.4291240208302097,-0.7098839890232488,1.6492684538705726,1.2612617358245568,-0.3601437496220373,0.5354287874379066,0.06904914194944262
,-0.028816161434366678,-1.0449688519407383,-0.00698588765789581,4.250204633410886,0.9145024607578444,-1.9605510370383172,0.06510046702130669,-0.09180582888765523,-0.8781164288021649,0.15330982825220799,1.0737943939058043,-0.267046790496296,0.8241103993809582,0.12182562772857802
,-0.5263399887299,-1.6047801227960146,-0.29481528694220976,0.7100711743876718,0.5496974882121036,-1.3002460488394616,-0.18465745387997096,-0.47464339190685034,-0.8190253336271525,-0.7610806595708324,-0.860639502959133,0.07388944518541513,0.3132939285484126,0.21828687969775926
,-0.9165060660622132,-1.0691778630136286,-0.06634172859800128,-1.5472766412007635,-1.2134637559572923,-2.019457412262561,0.07582310215192511,-0.8770975611212513,-0.7170537782501092,0.8132757834591018,-1.3463381737134017,-0.6956812147782568,-0.0046522005465953675,-0.12248542317098486
,-0.18496775030019974,-1.1043917271006252,-0.49168374566049555,-0.8155317467536548,-1.0394519752244973,-0.17176057614846102,-0.10044146185090985,-0.7204064183592129,-1.1390738239377445,1.4546195728393403,-0.8365138344462579,-0.32439667927148474,0.12253604434682663,0.13083406333737277
,-0.4098279391781209,-1.8556310723864158,-0.3723796948391884,-0.768457772249744,-2.2735019040036644,-1.7453413217785214,-0.9790139366929185,-0.3496655094221905,-0.5271373343678207,0.7831809459459276,-0.6593927678383115,-0.7816124188759811,-0.19422113624351056,0.41536586556368926
,0.19985080426081653,-1.4546535987131228,-0.10774260064109491,2.2630754299856664,0.35240958599506683,-1.6967389220755482,-1.5693382963221003,0.022579987368369966,0.19271957273952398,0.3400503274419398,-0.7281403736316057,-1.4224511754733253,0.023994016218328976,0.16837562765514216
,0.2565426483980019,-1.5206931899547649,-0.11661475783561599,1.052370812479676,4.466479482132497,-0.9947394233237272,-0.0406728031236026,-0.5886225029890602,-0.8230063339755231,0.7843543296803654,-0.5894306196900913,0.09877944839243251,0.526660460415616,0.22350530635723503
,-0.7588217434677407,-1.107217212127363,-0.4794435980230741,0.8654068315627893,0.41132299854528925,-0.18189173027924146,-0.22710158189952329,-0.414882118201916,-0.8161106688505693,0.7410191194468247,-0.46203191348448125,0.4283259853349937,-0.16177604758949493,-0.09932039024281168
,-0.4948018982765443,0.5881264193513587,-0.23981197806900517,1.0232527427204468,1.1443078113692,0.43077454889839895,-0.6933363704662386,-1.0706675667765184,-1.1423942678166508,1.4729323572670072,-0.5865218616092863,-0.443734060348616,-0.8531877780991595,-0.1975096366386781
,-0.42414200303895994,0.46953921825733846,-0.45551808130185206,-3.15390986585194,-0.5128390626142639,-2.3073816015476023,-0.3532443133187058,-1.5217928155115448,-1.60130854264398,1.7983429511020819,-0.5631748604989185,-0.9863860199265978,-0.2520795203600253,-0.12762316320060993
,-0.2283362373418727,-1.7729514405458624,-0.8610038323165428,-3.1304691959779323,0.15834714675433675,-2.5393787800498293,-0.648713978351201,-0.7675499247129643,-1.1498188271729757,2.3440358855213477,-0.6504613463759893,-0.21938771993170994,-0.42378740634940326,-0.5021350311038432
,0.3542438671067789,-1.4742317102599272,-0.768916871200338,-1.6246524690602588,1.3205811569639836,-1.1929489569583613,0.029321295451052623,-0.28348458895783135,-1.3044072502046773,2.611771629060352,-0.5705561886183039,0.4443505200353334,-0.3633225101186143,-0.37774420232799166
,-0.11389073087347619,0.09674686880475297,-0.29112303787518257,-2.7560122861323197,0.2427056013677617,-2.1456739520818355,-0.8754312509458442,0.2279030050709091,-0.8606689399136515,2.7051223126869046,-0.7816245868632058,-0.7085038712973493,0.0208214229947671,0.47895630835367875
,-0.9968559346933965,0.1274511718898461,-0.4204540274209815,-1.6687851036762071,-1.5864398907326445,-2.40344416263966,-1.1389004496521493,-1.0645003278512228,-1.6248316027780585,2.5031879723056463,-0.7321226976031268,-1.1336717337756614,-0.1383459484217028,0.044322420089679376
,-0.439734092344384,-1.1483527970707719,-0.15157022961511563,1.5781203371374473,-2.391121106860681,-1.978067181021164,-0.3009853729715732,-1.2960790859269682,-1.4730505992602483,1.4907071517144692,-0.5584219588301234,-0.6599291598390397,0.12981889341256037,0.16864488311933043
,-0.7336647559752012,-0.0014506208411773857,0.023447756991284527,1.5747419656495278,-0.9430688560556408,-0.862763791412772,0.6686785894695425,-0.7584066017808234,-1.1656961703874442,1.9497989075482434,-0.8001308043363907,-0.24553310044826643,0.6103372737394653,0.45633469045350655
,-0.9998221486458592,0.5782771144069085,-0.6269206643078468,-0.3538830204362564,-1.2458853567014188,-2.2740038515982155,0.24427751707331405,-0.19026996203267738,-0.8033390205803091,2.3791704399638407,-0.3623116451952175,-1.2333737764584394,0.5585123686485086,-0.5052513170222186
,-0.6394463704718398,1.1042079171939136,-0.9560952847299853,-0.7855074489372545,-1.0742069491072188,-1.3791559872236336,-1.8566954463292253,-0.9263787492938375,-0.7299227742818729,1.0292041321167575,-0.7969089953536188,-1.18685363756771,-0.0058200008869184775,-0.6744859186540286
,0.08546336417848568,0.8477872893410634,-0.808690136642213,-0.9497521165218211,-0.7567524526056547,0.4358189630741278,-2.5115386419753176,-1.2646348373937042,-0.8666171291421317,0.4237881132443774,-0.9551161600117758,-0.577728578659051,0.0847557201961006,-0.7356703581787896
,0.2720037591837111,0.22540829923658096,-0.0955490943879739,1.4851117828468452,-0.14215995178053575,-1.2848458090032537,-1.2823599469770186,-0.6456839746511618,-0.9937006902332297,0.18180869895659774,-0.3157230248559248,-1.0099314873360177,-0.29371222233622596,-0.28496783889226873
,0.2912452439618683,0.6060264697006487,0.12132926382267253,0.38179856454860334,-1.1001306398594188,-0.37640806324574994,-1.0070148623973052,-0.1256173526750656,-0.24363309623886473,1.0508987971758625,-1.0163675465147787e-06,-0.8613023039898182,-0.3554183884626339,0.05822800023184838
,-0.4874130680965819,-0.0557592692964899,0.13253163291966083,0.22890960591618723,0.6539706216653158,-0.8560775818994348,0.6023260758469324,-0.05031201070548278,0.22125777317329479,0.49081371055411277,0.9207743010927215,0.11598556448924095,0.3893817718248625,1.0821178629174466
,-0.3872532153847307,-1.8551513514124112,-0.06421423800263826,-0.41413189468922246,4.932496146076149,-2.1479420659248687,-0.09064720079062577,-0.11785494973267853,-0.5229180118721708,1.7530839635176554,0.14126665701205432,1.3202296454741056,0.6522546005766078,0.8023766761931227
,0.591550853629041,-2.0527294381467587,0.5216323619008925,1.0985331964299077,3.476534524415069,-0.9061904178964667,0.08806130348115737,-0.9332788902396779,-0.999388149084992,1.424003415066646,-0.37540315176621986,1.076533138678781,-0.08538472688555832,0.3491364643236824
,0.14074312498888883,-0.9195479023911072,0.2940705136368799,2.478829548256717,-0.8323844368369541,-0.530738611771038,0.7887766617119197,-1.032023845135943,-1.6082675897443879,0.8489217179104744,-0.7610377782947456,0.3489323576910431,-0.38271143305945826,0.4946066529025553
,-0.16995711645060294,-1.3954391486860958,0.2583567963763387,-3.056130606524632,-1.3543862775516124,1.1790844245896102,-1.3776221575920693,-0.7671731176155336,-1.4603519891344636,1.2864450474059654,-1.2941706083348006,-0.36685359497226605,0.29375465455008365,0.058324345224728305
,0.1616049157580418,-2.686323008929679,0.0899110644736316,-3.137984787901634,0.6431095423722109,0.5151776568957235,-1.4586026400741812,-0.1072594760117028,-1.3807522031539952,1.2547499616005051,-0.9487604972590475,0.17248662826121866,0.8677073452021534,0.1638494561988741
,-0.31259762618719367,-1.7238824385923581,-0.4114832361705755,0.6810277214527446,3.4203441397500227,-1.6343242784678018,0.40042440867580575,0.05179864916256157,-0.23045624606754908,1.5904505171756778,-0.8304536874149909,-0.39931478793725134,0.43495980239159915,0.3908058064908814
,-0.9630592577555038,-1.1330048270238755,-0.2433004196211669,4.560112428381715,4.432457564579036,-1.297735489752249,-0.5340532020819423,-0.637729886614167,-0.2772267325038842,2.61304342167249,-1.0042320336694008,-0.7342912020561939,-0.7456947288426725,-0.08414341764725737
,-0.6346679845761874,-1.7802600348809137,-0.18568708945733833,2.9205382842029,3.0566281636111947,-0.40376171863339055,-0.9305933318349396,-0.7186278456765817,-0.4064616416491638,2.5804224678066388,-1.1971596324435814,-0.9036625720684859,-1.3373055982398379,-0.14196826058565787
,-0.24250220073669218,-1.5824092981410707,-0.29257655469912647,4.119568072720095,1.3540205330343702,1.2062427666389273,-1.0199536746324063,-0.45948328039001546,-0.4665254072938872,0.7780957813926207,-0.38333524944515845,-0.5345942898328191,-0.18929042859915118,-0.12254924049386418
,0.19900133292436073,-1.3093411881101251,-0.6271386361755956,5.360363931541946,2.7958576718809693,0.517770928707081,-0.4124467684909782,-0.6667192839603227,-0.9735212359106326,0.5598047506431307,0.19862935352059607,-0.6130988848370093,0.11209100288878017,-0.5489171101082189
,0.42488250793201154,-0.7468101647149193,-0.5739040175178091,3.3959359416629744,0.10173618911434752,-1.7189607865278222,1.3378516895622465,-0.5506446577402829,-0.7981868650240839,1.732759971080432,0.3612573979401405,-0.37207181548495877,0.9018405326335073,-0.016933894855774574
,0.86500178103774,-0.3023718856043512,-0.48100145468963007,0.4193932557427563,0.2629039551245592,-1.6679153546417416,-0.3959526038851272,-0.736486727754841,-1.4233905938007758,2.3640813018735845,-0.12533203048430006,-0.5349799127951175,0.2837605520907468,0.26037854520804893
,0.12585379475241656,0.7654190059743766,-0.14411980825602705,-2.1219080084756317,1.5319544515118562,0.17950787556685488,-0.8423521658837893,-0.3648546593505618,-1.4584652265365359,1.4471247749600475,-0.7663735296905726,-0.7692036238789605,0.1784739315790943,0.054569274655671
,-1.0187301288949233,1.4045113487048424,-0.7003871167015988,-2.331969930325333,2.0991561322473196,-2.225796129652388,-1.4113140865461067,-0.5124838850983134,-0.8239303648291939,0.7146517199598421,-0.9022120128128096,-1.5127371486757655,0.7351386960378102,0.3513287177758594
,-0.766267224237265,-0.14149183458308495,-0.8673479215410954,-7.379598364421021,2.637056583106325,-3.429391942755748,-0.47901604494442757,-1.1633357699395759,-0.9330798332685627,1.5712493448311062,0.036950709280773084,-1.385672731384535,0.5836970516839216,0.47830490088541866
,-1.442126531325608,-0.0888154853068211,-0.5257990850954686,-6.51844054163543,2.31146068532728,-2.1458983439740553,0.162602024769198,-0.9110589332350696,-0.9291706091193775,1.1225534955513117,0.025209775176186777,-0.45150425986028303,0.4480981782845744,-0.24731501635335185
,-0.9614728526932557,0.31675623929476693,-0.5539772696733314,-2.4936735647203947,-1.490191562989847,-0.6718857421321169,0.38321696371690483,-0.731799416920284,-0.6717021365352985,1.2346408410777876,-0.13105704770978321,0.32678435543309214,0.6041573079122776,-0.239979499872945
,0.6580001080154934,0.7510319967397285,-0.6167471865299614,-2.082621429542617,-0.7983234096531888,-1.6986903897403176,0.6012759939556198,-0.36094663755748124,0.1507904200754839,1.4681133224518887,-0.2858348238847812,-0.3576937927015785,0.17710495944180185,-0.06537021488765736
,1.0928493240805317,-1.6080751051908972,-0.29869144457689556,1.1986934870540973,1.3324997436729071,-0.7647027860001044,1.4878072111985725,0.3170719397597109,-0.6743077765039871,0.9506149613812463,-0.04438308489036607,-0.37468845118417493,-0.13482472922368682,0.30257877102637515
,0.34478390945835874,-0.3081645575992847,-0.8553840295291143,0.09410119088920614,1.4582901934870258,-1.1228588629798282,1.0958933504145933,-0.2926214007276455,-0.8282712948388182,0.9449103434172603,-0.6882744115622028,-0.0965755157807504,-0.5363597202582164,0.34930340416045935
,0.12133900003205589,1.2256524853344917,-0.7929344957072955,-1.4274628271500462,1.4327969135772096,-0.07144570795767409,-0.08730765487564249,-0.7178118345314444,-0.5845183677658191,1.6500194703592275,-0.2026949695653544,-0.8313872383850742,-0.18301725544099248,-0.12910201107629307
,-0.03573370653997136,0.7302764686323415,0.06145515635899159,-3.856607994985958,1.2350509732567234,0.48590453385471105,0.33701934001242556,-0.35363300040885354,0.008069336720446574,2.0704598380451267,-0.48865186571912556,-0.6619770279041788,-0.23767798793865355,-0.17386883514694287
,0.08122086712001234,0.2742169431850227,0.24650712342621428,-2.310094970596867,-0.841818772625036,2.355134642381811,-0.9868075766394074,-0.569106084461081,-0.9212641324811308,2.035425786700253,-0.5534294920432229,-0.2527797706433975,0.5757777163509653,-0.1357066210097852
,0.2628291665285418,-0.6431035757687954,0.15646010720051615,2.5794885547863373,-1.2510165938719022,0.9846871478010603,-1.1247953991353843,-0.3039095569865531,-0.9494367748581714,0.7855386123379786,0.13848290700232815,-0.14027704510852287,0.8550102065119675,0.5757808311341793
,0.8705471724517003,0.34021552831004526,-0.4932022767607971,2.413390117668475,-2.302921201489761,1.3277903861660387,1.4801996600511858,-0.059201226039454595,-0.6846560191659805,0.2483632493201421,-0.050487517593512166,-0.0053157491548429005,1.0322402687329015,0.6014557992539142
,-0.20769265679485754,0.12964296077750362,-0.5064924626947023,-2.337099409510793,-1.9309542060959848,0.36533069682962127,0.0708295823358617,-0.27558632002102035,-0.8651653551335061,1.4223975924819072,-0.17402764705503423,-0.4539326722214557,0.3088911077088278,0.16079168758495446
,-1.3820274082792712,-1.6139887770619827,-0.5899989699263649,-3.441921475651955,-0.38702794588329836,-0.9379535105136814,0.16562337961468138,-0.37995860665432446,-0.31127296511734004,2.6749476599074855,0.45427659054270325,0.40806196504481107,-0.2138715350991062,-0.2729738510986834
,-0.7470904567437325,-0.56915938213318,-0.527066244983354,-1.4567031057430095,-1.6697792059071155,0.04247844877376088,-0.2258337966187287,-0.6715746350344108,0.3720654036239662,0.9183824664128353,-0.20660228098612382,1.1175146321947846,-0.3433504374185737,-0.20848664040100603
,0.1429247661382771,0.698909170326119,0.5233279750164955,-2.623866940887505,0.8423071605770783,1.0637951054771553,-0.7881711970096443,-0.6113438718747303,-0.7227078746386185,-0.14173011366684826,-0.9836277239360817,-0.5616014579948825,-0.5341360261314396,0.17466163966000192
,0.5244815392100889,1.9558960422740217,0.5032345595090768,-2.8017273157590634,4.232857975307108,-0.7774048453624488,-1.4729894027653234,-0.5177321446982043,-1.223649685769377,0.3101429193383994,-0.5106272170022703,-0.5335091166090028,0.10789721088222694,0.6134370417995464
,-0.02168698536958759,1.7197571311582198,0.08817042259147054,-1.9093114635502697,2.327433826381032,-0.7740902254198684,-1.3618588683105137,-0.44388453426975216,-0.8153130569456039,1.2488484114147977,-0.47123468804023544,0.34304467469188266,0.3146162491991607,-0.1705423080405027
,-0.5258916216156468,0.6259668117763078,-0.4490021160050934,0.09491773865426517,2.2299455764892695,-0.5154361494446362,-1.6852014787738772,-0.07857383380440364,-0.49902927445840406,1.6326383358957217,-0.6590700639166062,-0.5178144817569357,0.40315942792744003,-0.2473803723691179
,-0.9104243649670506,1.0218397369185745,-0.6603763506840068,-0.23571119652232117,1.3032709030809406,-0.6754518019775999,-1.2945191732984418,-0.4086983873073219,-0.4634966897489199,1.466284623746689,-0.8409390002644419,-0.8076588922434768,-0.0987181787719337,-0.788472256100168
,0.08508747181919726,0.8244781562769781,-0.13197352942883503,3.2424925846743227,-0.019037954447377842,-0.03926947950254203,-0.06513143354912217,0.13246152074024642,-0.4263308118178294,1.3090164945807918,0.0168067297881883,0.30340646213545275,-0.6494971984715492,-0.6242714623327537
,0.4693846060104622,-1.0962192411654237,0.2462296075980683,0.15996149321861586,1.00628981352538,1.203311434533424,0.21501996802124695,-0.3546347403980906,-0.8164890524620615,0.60030975983784,0.6907177170928744,0.9643461670602234,-0.897850179315566,-0.0835647821635787
,0.1698842966907452,-2.757888614759747,0.06939370074084385,-0.4745171793945713,3.5762518666081764,-1.5589245604310848,0.1270726233166761,-0.5825626032746597,-1.0893020980599555,0.8073569265492714,0.02395087678368579,-0.156865850812544,0.4575030046822888,-0.04047901731117027
,-0.41961004577636396,-2.046531299975879,0.060923223019584125,0.42065214787605815,1.8254609649153384,-1.9226507303619838,-0.6438673633136474,-0.6947889643312006,-0.9383647623865387,0.20427625028411514,-0.06799062346332338,-0.5329704838514574,1.032067047549931,0.22371494153208765
,-0.7631350782151202,-3.0946080759067227,0.011518436605726498,0.30507764888891864,-1.2798530965995834,-0.5018059767653437,0.11088600519735235,-0.9776820502382041,-0.8797008732068687,0.6866947353645895,-0.5479600380485495,-0.35085865083714585,0.07575572669364677,1.1949881691751245
,-0.5405537347179312,-1.9660629484579935,-0.4029971404244571,2.8206008472942767,-1.5056641524127803,-1.5933035692796573,-0.09821322923523587,-1.1065644277060798,-1.2226628240669666,1.3746681741061264,-0.24997405252675828,-0.6271606050962297,-0.1301335771968176,0.20139275275376675
,0.23099088452670533,-0.4435569451275153,-0.18294286343494567,1.0216204084362286,-0.14713190157440587,-1.2773507827644333,0.1537737667455295,-1.2338927275703984,-0.6899281272063982,1.9353325182540118,-0.580626999323798,0.49798865263028746,-0.08378028100366226,0.07607394576950438
,-0.6537999152880545,0.614843087193506,-0.05429588696707602,1.7253213213140646,-0.5517260561067576,-1.3918170129226608,-0.47985235939608006,-1.1355246693114738,-0.8953667475625798,1.28178168377701,-0.1369591762451041,0.18373950497035124,-0.20567415249145993,0.23725076604989162
,-0.5706693000972061,1.1198891578308239,-0.37226146213400146,0.35959970034981475,-1.1622280885007856,-1.1218189789319604,-0.5396177436767868,-1.0451955895737257,-1.6408709726216617,-0.26006203385738713,-0.4951581649182969,-0.7372833065180012,0.24818993347858306,-0.10291756821146772
,0.5271111271629831,1.289839749405673,-0.5000536113560141,-2.9300850504144615,-2.1263157157521917,-2.5579728285309615,-0.0854710352904459,-1.1185721834114537,-1.2043449765934315,-0.11124790638799156,-1.1794895862190233,-0.16000986333676417,0.4652054442073647,-0.05180241835296352
,0.5742151943505167,-0.18179260148003581,-0.3789703523090184,-3.0747736509284067,-3.698049149478869,-2.1944227293881773,-1.8323704418587141,-0.6998460115678841,-0.6075891369890752,0.992015216676819,-0.8738289763705097,-0.1867999411780211,-0.14348770601316638,-0.2945603805038148
,1.4537675823496201,-0.6225600640607735,-0.059043659272315106,-1.4191334797378115,-3.3835504292715397,-1.2853948387638507,-2.1078336123206234,-1.804312066277851,-1.9360701392861965,0.3981302070385833,-0.3090418729599942,-0.5343193783081968,-0.42432724106646447,-0.11119792818826434
,-0.21510297994493996,-2.8867394269527145,-0.02422420755381388,2.3182207324967203,-1.5230990981440036,-1.9882407929815247,-1.3936247973443388,-1.6215741407503474,-1.6109510871185628,0.6112975207861826,0.6519238853671057,-0.48689265611567767,0.16518191279993716,0.10960141329201498
,-0.7647714638738821,-0.8180803395613617,0.07265615314291553,3.7221776016562176,-0.9557776212774938,-1.8823772376590797,0.9835809076711978,-0.22988904754397063,-0.046332651720954965,1.1556186317247612,1.4497936621301684,-0.10326948825781294,0.5928597577519483,0.4805620470879228
,-0.43505685100603647,-0.016899818154883128,-0.3459629050860584,1.866826691711812,-3.2150275780129967,-1.7304580107793528,1.6566387167907393,-0.21503587133483218,0.15116138096966486,0.4766744598188213,1.0741227088702192,0.29440338401550703,0.3290294639179423,0.033100968146247293
,-0.11116371230272716,0.20223316475948788,-0.4908215939562808,3.126275383730094,-3.339308549247401,-2.212392170264495,0.3703959466484996,0.1776808739012484,-0.25913731659550615,0.5108697460218995,-0.13576961982860475,0.4288874794085708,-0.10842597692382262,-0.023069551100546662
,-0.0797329197102421,0.25823593250563776,-0.13361727441335988,3.001204869076617,-2.669205616531052,-2.834301706677689,-0.6354136833948191,0.30790194547112587,-0.6385634735386735,1.0413499683890128,-0.6103424858628638,-0.042059514875905944,-0.5380154393522958,0.28742578319426476
,-0.3449024932611207,0.477988751469658,0.04630601946881434,1.0563940149282989,-2.224500041104979,-1.0330006495724569,0.07627673765331815,-0.12987556936251046,-0.18491570656977233,1.360694830337395,-0.3003186457753395,0.0035988444234515103,-0.5527384150084433,0.5188864543614009
,-0.3626477263499363,-0.17147232968213102,-0.2036977636917654,-0.568766896902775,-0.29939268749382597,-0.22061567312522276,1.3640324588300317,0.03361712514863266,0.3475709551174112,0.6067213485775018,-0.008776296584996351,0.4427555962135271,0.252854762920736,1.0619155512538447
,-0.4713511170064479,-1.2552029795237845,-0.1712911494619879,-0.2257097870287633,2.254343558071034,-0.0809402269890743,0.8441193196744903,0.3379444892591111,1.4773546589070337,0.33104166818115077,-0.012615093667529019,0.11653594667693402,0.19372789586598824,0.444916460304367
,-0.8430409625420671,0.005756816661879832,-0.0401764202942956,2.2840060807355487,0.2064560684544169,-0.9460044990197631,1.4391255693174991,0.5312323971639863,1.3354102034694182,0.41575865442077886,0.14322105835775734,-0.3730844751105535,-0.5261941512465723,0.22871324969268836
,-0.9389439379457032,0.4474761380045098,0.26202456637908,1.3060630856257305,-0.14783205970813307,-1.708303065747045,0.8638984768896919,0.14570206703725205,1.0381845947499793,0.9103172477716848,0.09555465590267068,0.3244202458424834,0.35074942014049765,0.31193057482546355
,-0.4336187766186431,0.25283392838498286,0.25638914229975884,-0.5836190250698388,-1.354568180834082,-1.2027368655459345,-0.12483427769820821,-0.19538696115315698,0.10551600505426532,0.42746757148132153,-0.6428505159847873,-0.130188661541387,0.3257649937094217,0.21221323566255
,-0.26222520984037917,0.3317068445136151,0.014065114947923573,0.5254974882866645,0.5572322302173591,-1.7730145498173777,-0.22709714952660207,0.15656522608946258,0.35817869761982823,-0.7520571801717112,-0.656621650958304,0.1368049205806631,0.03956002370644056,0.526405913382753
,0.020056221086717504,0.2985276411107398,-0.19628941450451673,-1.594884555523093,3.983868911183079,-1.900373886696167,-0.20727082943152242,0.6809978459120677,0.31078138079137807,-1.5780212264074396,-0.47926316228058075,-0.13547102386538432,0.023286685187913832,0.5654746880143542
,0.6714094604877019,0.08860001149350305,0.11802811107552988,-2.02459521261793,2.709206096737298,-1.4819271908103482,1.4600335438246392,0.1793500491461904,-0.4964571716038858,-1.2915224088514108,-0.39223885538112296,0.49662023887309353,0.10588864469623598,0.6243009803140459
,0.1790427559751277,1.303629538355238,0.07701520761909773,-1.7250583527480763,1.1924304568652904,-1.1619857357549666,-1.1473998379382462,-0.7871454159284553,-1.1092659559247777,0.3477111044547424,-0.012796303542252262,-0.826259441705151,-0.025627180242736136,-0.060395808825067995
,-0.14944576650684208,1.8622182534584109,-0.18111059450334444,0.10260956767875573,3.7405614484574055,-1.2556426105813072,-1.7975755163397003,-0.5509357276811345,-0.9037049982045742,1.1898147457571087,0.5114905883214543,-1.2671319158472412,0.7448637819173063,-0.38743321572951955
,0.5899581784259715,1.0693274101760915,0.1056633322179771,1.0951725517703104,2.830780741872606,-1.9629013265419117,-0.23655413239481074,-0.3901526492317526,-0.06913539791188034,1.7834075771796716,1.0822471114199639,-0.15703268188836864,1.0392477641548787,0.5200464955560934
,0.05910424416668037,0.38167904446719786,-0.09106374756421996,-0.6600269565432144,-1.9731186271272527,-1.5054380962167313,0.08757885291823497,-0.4454565331932747,-0.506574671483265,1.007559294727503,-0.03898987099502786,-0.5239046091951887,0.3391424325800687,1.5019426411449328
,-0.5191016709743465,-1.0661428129638975,-0.38549708719460035,0.7994512450810622,-0.4472451475738892,-0.5477004101742442,-0.5642906701830583,-0.77708675565726,-0.7564427689283829,-0.41423265019681427,-0.39168827587472754,-1.0768015784230456,0.2671756525613181,1.1075208607183924
,0.2500500817110756,-0.8733054076043653,-0.24938108065955764,3.48116257751,1.0097191459583026,-1.2438026277023535,-0.7195884951928736,-1.0718345276049024,-0.6617437102344985,0.6829172339361387,-0.1665793321250301,-0.2463163369774141,-0.19756852030231475,0.4294840764390184
,0.2034161102319733,0.7038061280803242,-0.04220324817061593,2.6106032914303996,1.5060926612209775,0.6745222544894889,-0.34388142862946597,-0.6592294458426949,-0.5892107004736673,0.9214528156522569,-0.4316648792717683,-0.196244167211957,0.009408978639387621,-0.17852239475855927
,0.6435280368719446,0.9629516661179982,-0.10278424191129228,-2.2338153269911576,5.104651881044411,2.735319047509811,-0.709495805788182,-0.2655837845638194,-1.0603782670841546,0.7352421308896461,-0.492398196902083,-0.24838900719686272,0.23849595324686404,-0.5771726759353928
,0.17593077059500004,-0.2766262509666361,-0.03424416727278909,-5.509237658139992,1.8564596421453512,-0.325752203836651,-1.1345547823966677,0.1734418304418683,-0.5724427662786385,0.23651686120661125,0.011099365169563868,0.14295210132283356,-0.1478520505806102,-0.34574074559444284
,-0.7024632951285322,1.2574667691573747,-0.1953241079418598,-2.237119600596689,-0.7689029436646535,-1.312170502077139,-1.8044411056047793,-0.2673105523735113,-0.6361628915892252,0.8191913293523175,1.222522846475269,0.2320775816944192,0.043563910655046494,-0.12828232591753122
,-0.6014530901171673,0.38247075046899515,-0.3143764057699641,2.82879271821204,0.07927957239127414,-1.9086664606964139,-0.5889005560821541,-0.21951536954147916,-0.2912390570743704,0.8516765093805877,0.1721967948159236,0.009041044233116562,0.061607119809032926,-0.30301052675010726
,0.7001625075728787,-0.01788268384966922,0.06366037115350226,-1.0602401163076502,-0.33772873533757514,-0.49732646823254645,1.982794264937394,0.08527642948623648,1.045168651293736,0.608342757351109,-0.10184159360250145,-0.29676664462502944,0.12049300637311738,0.02408880044231267
,0.9331561021519953,0.06894356486965098,0.6249856994695289,-2.7270258741305042,-0.7357392337645102,-0.12420583494745725,-0.2006645123728873,-0.4494286193439579,-0.3361285113014295,-0.39558617878410096,-0.4728845563315447,-0.12418147847945851,-0.7806131136855023,0.04167552921927507
,-0.07279877674331732,0.4360114728683143,-0.02298906855221858,-1.5867733992089412,1.0366377549576076,0.885149406098685,-0.19285147756128643,-0.8374791172457581,-0.717095529479112,-0.2242942727575236,-0.13036142031181433,0.8256311022569953,-0.5008482507464722,-0.3741781563226826
,-0.3099130483763896,-0.5786116703775827,-0.06130279626984137,0.5703174697185548,3.7565263181784365,2.2835370634601797,-0.1649425825310018,-0.7855423156770147,-0.5156972983442196,-1.2809904664228304,0.3960383155765319,1.0782860634054305,1.0813206267642528,-0.26969377187777804
,0.6046544336199886,-0.34829891445784433,0.06189036528453209,3.547659172651859,2.822887999163136,-0.83289776805323,-2.3295820490626196,-0.3807356025291097,0.4681448756344107,-0.7445694656148495,0.583982448501464,0.14075295332152335,1.3288656459650554,0.9886633041134745
,0.30958910784841703,-0.8824465625289621,-0.4991372172826302,0.16745518311432445,0.7610237376921511,-0.8343538190814962,-1.4504760301828057,0.33154599007913566,0.6217011310751184,1.0983252898241924,0.3311678466466614,-0.5306489699667805,1.2137933073894251,-0.0852415036900766
,-0.1833837370872201,-0.5705580248701765,-0.47735204896067623,0.6883675540346401,-0.9762129855473096,1.560926479713444,0.1008626605509173,0.409914019062123,0.4660266134363265,0.6542085458940333,0.04195895419227324,-0.8803696861645924,-0.2652713267154476,-0.4220111832456223
,-1.1119044724749172,0.026909736491768452,-0.31214986149185986,-1.65673209427958,-0.5735510819596484,1.8458316633406355,-0.9360896088159472,0.11895006358230358,-0.34287458654417663,0.3274113412375745,-0.20479640346489963,-1.116026298319976,-0.6973248382226807,-0.2509358213848774
,-1.2869790782843953,1.0576374706839982,-0.26841107167498907,-5.934420574395245,-1.0348005885128595,0.3202979435921206,-0.38340071668357534,0.38889712825488004,-0.38146730097833453,0.9015708674547095,-0.19620406541678895,-0.6952068685822524,-1.0376175460601902,-0.32425001605830533
,0.15073921454740738,0.805245991416517,-0.2761548803008215,-2.377868979520203,-3.4241608565302224,-0.8049865333164966,-1.1117554091186925,0.5906186007589573,0.3693951714811107,-0.6347728926348218,-0.15671767986867743,-0.6169660326000085,0.09667939479755018,-0.05627374032052463
,-0.9239621588627848,-0.7177032195292884,-0.46200032753765696,1.2888103161734479,-2.055674098579457,0.11054852786842705,-0.46143892316513047,0.6784692304425779,-0.29708687826820507,-0.33612126249814606,-0.1490614920211803,0.0026232783206961404,-0.04918639767509343,-0.37114840802376237
,0.05843732682141132,-0.5793567902970586,-0.1742366079913987,0.011598187181705582,-0.339804938904211,2.0724544648738603,-0.5601423934923497,0.032461445916301616,0.1133055450623167,-0.2603861824062209,-0.28646517608568317,0.4038098376273433,-0.252368367452421,0.09402472295597146
,1.756648959300814,-0.1499284313449623,0.2548207645555605,-0.5739334264249036,0.497648416547698,2.621459894121062,-0.3104046917342382,0.043627010668104066,0.21892693027994475,0.43084990448410543,-0.2605758098636725,0.2762347855092329,0.7585872593362974,0.05207557421864774
,0.21759090573540035,0.0797893113714738,0.3549985334502431,-0.2932531192365983,1.1233889242567736,-0.3898534185418337,0.3418633111082566,0.12623532042076063,-0.2391924396696197,-0.04788359389915512,0.6364861132777595,0.33757289617407177,0.8709514478174899,0.20706575652637768
,0.10367669334977377,-0.18922680287054533,0.09698338291645822,-0.2464810427330951,-0.19275041675079735,-0.40319071030012155,-0.33122555135744236,0.14550170249512698,-0.45918412891850724,-0.412490990644853,-0.17310384533145676,-0.08914685068068436,0.4574430867394075,-0.16443068211032916
,-0.7414268723584491,0.41300985990320216,0.14602896509876123,-1.5172560802438215,-0.10389434791198619,0.4008703343576234,1.1019655975766454,0.33578894095195494,-0.12981724860891067,-0.5408924377481243,-0.7144698564667127,0.6393889021403338,-0.11871789895492321,-0.006620829392409176
,0.18131726111264282,-0.6070165970989024,0.03332413072003946,1.6452985979619659,-0.3534297604706627,-1.9187502706073007,4.3502009761967715,0.19981294325230067,0.00943675791615502,-1.3859561759340795,0.17876128228907445,0.3341614422455506,-0.31195461474485076,0.1875210796404311
,0.06516818570068585,0.7128246533297238,0.6163223389312111,3.573982695023709,-0.5863557365036673,-2.9304977872541578,1.2514274997782684,-0.3599778383797657,0.22862110631602497,0.21897331090984812,0.5296787968034662,-0.22690715247706686,-0.784872286861233,0.6414392805629018
,0.1506805365432268,0.6581868858213505,0.6150957342522185,3.6517028124082977,0.636710057585829,-1.4563467063949782,-0.10723980798812384,-0.45441996265367335,0.16905619669174227,1.1725853928085472,-0.02378865333822299,0.52871767666156,-1.1909662538728085,0.3912405914970831
R,-0.333105161352824,-0.09057512612356211,0.737655424287698,-0.9031113794776683,2.0674495605425274,-0.4174546762141939,0.9424094997562659,0.009983595630758967,0.2863700386773379,1.2543979277010646,0.32879238446266557,0.9048479942842941,-1.0650754421406212,0.5903570853190188
,-0.2802277045665844,-0.17851839866395683,0.4428737804583852,-2.654235053015165,-0.047178533956105495,-0.8499667291036627,1.7171163312427886,0.31279462409026165,-0.4353707180093236,0.16056140150454457,0.6524296783160378,-0.017863747799790924,0.4989223544247365,0.006290260357557982
,-0.7604138054460032,-0.7152612596539893,0.24680385652966527,-2.262890138118179,1.0414149964317594,-2.5874805904044447,0.6042475580846505,-0.6796234237684794,-0.9587491445092317,0.36447523175550395,0.9250299886815744,-0.28631689259208404,-0.0007799372636824275,-0.08946917697727423
,-1.2631512071009607,0.7644605303863059,0.2877405208684529,-2.1994197208163366,2.119815955070083,-3.558897860251498,-1.6117505806048653,-1.3582781347297759,-2.034611725451516,1.598220589213605,0.27321545009585746,-1.6748427501240997,-0.05369111686205518,0.28718665229600365
,-0.9555576643806916,0.7569806557445128,0.4401242136975458,-0.5038802225073397,-1.2937978569849284,-1.4355061530964575,-0.001957653613179175,-0.6484049517428284,-1.8959753383989868,1.0112566450418874,-0.20988948500120855,-1.4073933970030015,2.1653822146659416,0.8928742948123127
,-0.2433035711438412,0.7741610760191762,0.3733188217367818,-1.6698485999933703,-4.152540790458529,-1.4954084702806392,2.16707678438728,-0.7149682203140463,-1.0597998888457996,-0.8121822452722817,-0.11980057574423417,-0.3648871913879582,1.0992602196263959,-0.371162348925833
,0.724377241316338,-0.14165514582885091,0.0667405383651977,-0.39927739564565246,-2.1855389081122927,-1.6485664487353346,1.2591169302900695,-0.6380779386669273,-0.8431557377553298,-0.21772403947119848,-0.3031011675588034,0.06723346439150676,0.3704953553999867,-0.04747409640454563
,1.1466048006038276,-1.9230969634798365,-0.37627854443121134,2.0489788635744177,1.2348174736055557,-0.38826253711907766,-0.13595920921588253,0.21095239115204428,-0.26753214935167396,0.969551973215516,-0.28037498267022437,-0.3123343467096743,-0.6056787415855752,0.36911360120243597
,-0.0835766605811238,-0.9998744659173036,-0.19789188914140504,0.24667984438755963,3.9653704257770004,0.9057115472096791,-0.234964094008108,0.45473488156457004,-0.31872031554771496,1.7025485556909499,-0.5476905065427294,-0.27638700706088204,-0.5339240203196223,0.047830275590950565
,-1.971130140852446,0.9246299544678146,-0.22043216559062503,-0.6994211466739777,0.6423768347247587,1.9195995209965553,-0.29413030472800944,-1.0760008458082688,-1.4025010021750515,2.2850687087770676,-1.2372501527109623,-0.120910721299344,-0.6256117046823769,-1.3057057997738502
,-1.4650746808155903,1.5303147436057638,-0.30914643150671134,1.2542527469354572,-0.6711255045248411,1.5753385365036314,-0.2525501798548242,-1.3212662732204896,-1.3643368267430087,1.6262807829293653,-0.814419462589204,0.5290023903838583,0.2766640955741112,-1.2318669887583729
,0.16117004677819677,0.41494095328533304,0.21532245608343709,-2.9666115188410473,-1.0466525937186049,-0.10663677549536289,3.180892164859902,-0.7335643406663677,-0.5051308797607864,0.4939248839986418,-0.09000812723670745,-0.4760232526977023,-0.18825553472044382,0.00652872332449772
,0.3040648490667456,0.33238135915108613,0.45594185207907323,-4.7821925474463525,-1.755772349370143,0.9709356264561714,2.2832828691466247,0.07977455955340254,-0.08824568220914408,0.07684671418719581,-0.050071747009223504,-0.6475513450301994,-0.3514085755422194,0.3328531616180567
,0.72413529965141,0.6631665807669596,0.21707028543498905,-2.608621002287915,-0.38107930210479063,1.7193331589844854,-0.5656772556941194,-0.4132160491460437,-0.5931042860953647,0.10956073457080044,-1.1427734835329466,-0.45763730777995676,-1.1279120534143898,0.2855857073957151
,-0.010588028305664087,-0.11722766802098429,0.008658251180837755,-1.146931340558476,2.403144959589364,0.8873517393146547,-0.7932670170965543,-0.09609921678834761,-0.534620268925235,0.8452338970723573,-0.9869987992445803,-0.05669552701584891,-0.5217679241352465,-0.09762573618999747
,-0.28177843023814697,1.0668685233009214,-0.0027814076144064438,-4.639761096786655,0.6692996732180906,-1.8328746821317172,-1.5604523036290012,-0.45238792616045476,-0.6521787528093868,0.8823823464341802,-0.3740192087308662,0.017877613883110717,-0.46725784724943625,-0.1801635834126675
,-0.38027355393245466,1.2920546502849637,0.2574061226177124,-3.8020199238504837,-2.220467506158886,-2.121394033389333,-1.7665271890378944,-0.6938788803374263,-0.726731951872925,1.402219475598756,-0.347863900350291,-0.2780619162804214,0.028481802860143943,0.20816108574960432
,-0.07225434703682443,1.1469922877800625,-0.2719517875389614,-2.4778354415840878,-2.3485586574669233,-2.468743928616171,-0.29083561880122494,-0.03146048338512988,-0.23299878368425664,1.7415861420461916,-0.5560788773856921,-0.586566515068046,-0.3885402138475065,0.8733250230057107
,0.5758557321384109,0.7696743896785421,-0.2948773255707277,-6.911513337761279,-2.2322833410722818,-3.294152383723488,-1.8808890980997137,-0.3006742828257733,-0.21529746124450994,0.7236267564693531,-0.35857846189994486,-0.984658684469948,-0.8012222738905216,0.6710392300883696
,0.4245808512601634,0.46610292562373523,0.12061180872634628,-6.9469923878688435,-0.5614852916504096,-2.164950367081274,-2.054800672071284,-0.9726809693915106,-1.0673297972126101,0.2922107157777493,-0.8180163078576183,-0.9603498290969285,-0.23768308066512275,0.3416790330431511
,0.11785283649792365,0.3691533936428477,0.014045001005278132,-3.5334523579639145,-0.0640180887533484,-1.6257214986632644,0.8798453040249854,-0.38991697269622283,-0.9806598350924781,1.405383849294034,-1.5959581749187721,-0.04955809407151105,-0.16413388130453843,0.25875369883672544
,-0.36895597744379777,-0.2105830502288511,-0.5615102345444711,-0.8915124393027344,-0.6384664361748625,-0.83362625553054,-2.103138178383389,-0.6956871648765229,-1.1138836894985926,1.0293237737480465,-1.8572658462346394,-0.26757602479061565,0.4224849985146239,-0.7025097402741916
,-1.131047692701562,1.3991090894198415,-0.5957031487200763,1.1614717537541253,0.21304632234689522,-1.1490222584774261,-1.878500385639233,-1.1834558840010099,-1.0521219303994265,0.9033869837168005,-1.254962856848746,0.3295045586735635,0.6906914632072916,-0.9135616038791254
,-0.6223904313480425,2.4525812690049755,-0.28481879827102224,-1.3721129244924424,-0.5168685964572213,-2.714265399773382,-0.5632241176864345,-0.5749962453899309,0.3258893636037503,0.1010888633286453,-1.0367354899476,0.18886622436184117,-0.050768433710513795,-0.05114369390611149
,-0.39736604762405675,1.3282368446179749,-0.25431494608084165,-1.82349826710496,-1.9249344061064921,-2.6144590987945104,1.5510676334483577,-0.2788148480558047,-0.3740212318398291,0.6847290864888147,-0.10879887195760692,-0.5879418043012618,-0.8863007940987717,0.11752513889855501
,-0.5194348659710128,-0.9276682601037046,0.14322248088962147,-2.0094776422305087,-2.1950363150302956,-1.3285062734041613,2.015971775189024,-0.3353980287612586,-0.596969657826927,0.748618949626956,0.5171224289417395,-0.39717188152732424,-1.0462736793433136,-0.18916019691193772
,-0.5341212181322005,-0.5657521143555426,-0.4181668732006857,-1.4987012038662422,-1.0147964880114688,-0.7750087424399932,1.490269689749778,-0.08696962821245116,-0.33788196777000257,0.5592424285012081,0.17893460652875123,-0.6254239675351333,-0.3534080976481976,-0.3274507823553878
,-0.5024556455838355,-0.6405746670162253,-0.5652091485364588,-4.452030143816934,-1.758277301788202,-0.42079814453424547,0.946912153929096,0.283970083515803,-0.5021108938218974,0.5764164912503583,-1.0930393481764547,-0.18111691642103506,0.08458387473062849,0.34318254005459237
,-0.5910354606914218,-0.5578127199348417,-0.722021560477121,-0.5559144068067478,-3.66713957632786,0.9233209992432557,-0.7377812160812843,-0.0947197186720858,-0.5972755696392855,1.1497970339686596,-1.9115261904922676,-0.6731790108413215,-0.7486504368871416,0.16078972693456692
,-0.6769028518631005,-0.9798821608336696,-0.518317915299285,3.310048558924036,-2.3000944377818136,-0.31433411516582327,-1.5686469157439848,-0.743518256204632,-1.0931987025658036,1.2376888033319173,-1.4609690088476435,-0.42086423298175213,-0.49996598653424035,-0.10357981782696207
,-1.3570526752944518,-0.5040531267693064,0.11818061099211093,3.32923581932197,0.9862810142463087,-1.3194830680623995,-1.4777076699137,-0.23018964835826458,-0.6782838396251304,0.34522734090874246,-0.40965441337236286,0.29233081976142405,-0.3381971032348991,-0.11928966047046081
,-0.5927848946424051,-0.9151143451844217,-0.186093375190443,-1.7288145022163406,-0.4579629973580823,-2.4197896798969065,-1.3687917744699656,-0.4598980918972425,0.2535525531626211,-0.17526934692864912,0.48213289890300237,0.044932931510451815,0.3019119470987918,0.05640577580078362
,0.31349375206178554,1.1586869113159828,-0.43333367059068567,-2.6576370356324044,-0.2568103264794124,-1.6436396896345056,0.34242846232445434,0.020360837662408548,-0.11032156896025548,1.5150243034751245,0.26111171236084235,0.30674707742953256,0.04250688227704608,0.1494568938137682
,-0.0035814236030795995,2.2082355409509633,-0.2586422995917,-0.372337173669742,-0.5849004124208961,-0.9994504680826066,1.6661204964146688,0.608719883149542,-0.28912645395686576,1.672943034740061,-0.4756138898790622,0.3265920908281382,-0.1609777635875278,0.18436870029266586
,-0.9011285975704404,0.9702725515169689,0.20880848853822592,0.5121115732746797,0.37429559777216076,-1.9226083968557226,-0.16642914265759964,-0.3620842508709071,-0.2468328323139661,0.22990747523092192,-0.7458631240321404,0.2972962962825604,-0.633271119392363,-0.33071739663555083
,-0.3639694017781198,1.4442556178928057,0.3720155171356888,1.6334833882654798,-1.4690552249910147,-2.1824404473959023,-1.0010334763265583,-0.7373439656015606,-0.34395630494072515,-0.2847805398293016,-0.7297555563290938,-0.3853749934175516,-0.8239208825293244,-0.014638640035747651
,0.3649643520848153,0.44848619260547895,-0.09423673660380652,2.184047105401989,-1.1532171732077336,0.21101333807650324,-1.1123613214913364,-0.47577775328736366,-0.9756605267516075,0.3474314456223299,-0.27985819365296855,-0.02972249709683733,-0.034543513211041064,0.13320925083811078
,-0.8613380444668737,0.02688932763563562,0.03438522930168148,-0.08209644760608005,-0.43648344401153305,0.8326237041613521,-0.49875818486831763,-0.38755145876516567,-0.4542464686457293,1.2717040273242386,0.4133618810176299,-0.2797973172300511,-1.0606799475390785,0.03605310241006135
,-0.732774627604784,-1.7861974853271527,-0.15759374043514032,1.2989965954149458,-0.3301718339749883,-0.9608019625712823,1.1675008884158526,-0.9435077054674254,-0.3850405740789246,0.05766956986268403,0.2449957983303527,-0.5230814264929099,-1.9573016522033952,-0.08533448911906848
,-1.0153012166547368,0.013538326507936412,-0.4325230931506314,-2.4638614901522544,-4.090745553497752,-2.6931470090837055,1.8950669308031893,-0.8964065107338265,-0.9021710147840718,1.3153743834669749,-0.5885863825039345,-0.42609986823198814,-1.4781383238874406,-0.23020233494915088
,-1.46940916065892,0.8012973997049294,-0.5211631844943415,-2.9277096089437533,-2.645093900338144,-2.635885169904889,1.1303329897610692,-0.270326790850758,-0.8488696716087969,1.1232713247047486,-0.7402917602354868,-0.8740963292315723,-0.7342929331000039,-0.4138397368033364
,-0.8279690557463397,-0.10809652417992709,-0.25238484935223865,-0.8299290520712023,0.8810935884116581,-1.664676758023453,1.399846592320842,-0.25706373793954507,-0.825534703321604,-0.24851220364012827,-0.009303511868069523,-0.27927002755700964,-0.7462883317262127,-0.0054422950192539385
,-0.6698129263069872,-1.1261364058588998,-0.17364272063504682,1.663467485650087,-0.10195519738447177,-2.0464523940743695,0.24465707173303053,-0.4732607702180861,-0.7929241238525284,-0.2916298372885008,-0.10064489660949105,-0.6799388533253506,-1.2134194158332463,-0.21264642804798004
,0.17604201185650312,0.27842963338895427,-0.4183845963386818,-2.7118875467630685,-0.7003940243353117,-1.027270656367085,-0.5498056518361973,-0.8074627685237965,-1.046905838218258,1.1274735150525141,-0.31585088770075354,-0.2766231127236475,-0.7401703663607755,0.19371244324888356
,-0.24811015477141216,1.0899976521786194,-0.494419164487785,-5.100443686872963,1.0809698440918352,-0.4830541214910041,-0.7753861821522814,-0.7700164496822841,-0.9554906375232932,1.0807050748640525,-0.11485034704151223,-0.8722335193032682,-0.5235687128773188,-0.2552409464855918
,0.8045742499307672,-0.46651802716009494,0.15808792386712162,-3.937307460105963,2.7998702808012546,0.15014281203580634,-0.4016648667220678,-0.0027256150367649867,-0.24538097330864564,-0.1577162805455547,0.4235552042983941,-0.49862624014721724,-0.48072005972072035,-0.2550177326619716
,-0.036482381234104494,-1.4579593863604499,0.18548737305929777,-4.464565360283146,0.28702380122977317,-0.8899582912347552,0.5028303994966284,0.23303018828123748,-0.6931202848010255,0.893984948417264,-0.030497139742790166,0.10296705085131548,0.3874588431850346,0.5412191411054534
,-0.3127463794512422,-0.26687774396711184,-0.49433832066858147,-2.430120397402245,2.883357999412437,-0.9225635601699168,0.4835871931870512,0.6452999941644229,-0.3334793631110079,-0.14573993298057009,0.12443483846759922,1.050812668492023,0.9039140839689883,1.419068209220962
,0.5173469058858335,0.37664742583683786,-0.29453540732919,0.7800339949852232,0.8305280349816786,-0.6235240933969687,0.49627351759657223,0.4077574589289869,0.5411539131748071,-0.2953312493290629,0.5517381835258608,1.5086095551690886,0.35593590707731715,1.049964880752229
,-0.3967800775141498,-0.2571802129740588,0.2891195149147419,2.035071370153767,-2.0964777634212073,-1.6288371097919114,0.5166849800370722,-0.8404457717653254,-0.5343193059044038,0.7123208867459958,0.268737453245819,-0.02095169423201669,0.10246841042127432,0.8305607586828304
,-0.817501261263307,-1.054803422865518,0.08375462355692315,2.2456187152547264,-1.6385153678145816,-1.3984094874419373,0.2213388167677627,-1.1265725446642378,-0.8896005905119735,0.8971348288903616,0.8145214498011202,-0.47840875817912876,0.8917846187920977,0.08974826644376767
,-0.858855896804309,-1.351279877152166,-0.13884129523601402,3.9679903547942432,3.8856265557190124,1.8045838697652692,1.4127592308157773,-0.5406052834994483,0.2500090223030035,0.13510298460504017,0.5157236027130914,0.5508009216401436,0.32452491215766716,0.654680070598037
,-0.9136950630632884,-1.8740619406340624,0.028562735455936954,2.661046470277751,5.316436012630674,1.7401132990030703,2.4481668322327974,-0.33710813289090447,-0.4139627087271009,0.3577729327864557,-0.2841044681364512,0.6855018091768299,0.11659414475087838,0.7199594544328982
,0.45825754362309806,-2.3426204163581628,0.1639752844146966,-1.9259080600605087,2.7416081727274046,-0.05713955019999921,3.7123797409465586,-0.2793113369405474,-0.7916505819240706,0.20318087569299273,-0.12761242657354951,1.2261303637558252,0.7002039553089313,0.33409161651435876
,1.2324784343941808,-0.7624968720698269,-0.14025647914970282,-1.8568841417169797,0.8532749315891731,0.45332422250370963,1.7486598578472463,0.30751662616397785,-0.6228110602967388,0.24556593155862214,-0.3340768833107587,0.9649259877473745,0.18409789721955952,0.6931484257357367
,1.1724859945480808,-0.24274495575031277,0.06405330072716398,-0.4596569549409628,-0.9934507744123762,2.3539564755448312,2.253527028513765,0.5826458634968052,0.012793613230345086,0.09834440485758039,-0.9336991044206563,0.05309979410567594,-0.010040982687962616,1.0375152371453522
,1.1215683341107587,-1.1596570873507945,0.32213100188527455,1.0012772094988163,-0.38843659924740853,3.0704581942785585,3.1667362262023317,0.5418216211134559,-0.014385825802818225,-0.05357564480456186,-0.4743012567110008,0.41283846486739884,0.4790851404311502,0.8725229047715507
,0.2860655082503564,-1.138613363243807,-0.1707662931793723,1.2306008552647862,1.838692823410066,1.6619060454414503,1.901847127036838,0.6243757958362359,-0.1434594080025338,-0.24983194737699466,0.2846398420897168,0.2641981756574822,-0.17795995220718605,0.05109954975295903
,0.17828099180402,-2.804425846643195,-0.13415192001743517,0.9631972340890456,2.0423505884621895,0.9579814145547327,0.6593617497601508,0.5088907323293178,-0.21220399184378286,0.49584107326498655,0.38104581129953896,0.9364290065959421,0.0334779864386568,0.36745470439816175
,-0.04059373520078443,-1.8374553507550746,-0.0056528245543176845,1.6333105844070828,0.7469632429297977,0.2126214755109836,-0.2651767428125128,0.8103531426487962,-0.4717606987419235,0.7382867107621465,-0.14861199864079436,-0.5193377830495859,-0.32270377415515933,0.003792207488135777
,-1.0315055380744163,-0.3033144780707939,-0.22337279670793192,-1.3437145449954317,1.5164373018550479,-0.3936740466646167,0.15336256439967988,0.3927832091477684,-0.6083777144135848,0.38460490273392073,0.3351990878318136,-0.9514298822236169,-1.404426146738288,0.08530014218109096
,-1.4376339293753064,0.49310864759101786,-0.4932475712017155,-4.7315298100131225,1.7578167726690967,-2.0132015188165298,-0.051803882371956655,0.23913274341820193,-0.1861233405493358,0.447952901901129,-0.18145873134537666,-0.9995675476076932,-2.3208261008091795,-0.12468623148636371
,-0.8127461478362165,0.4159046864292108,-0.3431540722843189,-2.967341113336916,1.862315287962199,-1.96011305616858,0.8668780762093081,0.1333129985267232,0.7730568097419552,-0.5601261205270542,-0.7862501362332389,-0.34911487613802356,-1.441400303442771,-0.25380751417651265
,-0.4176045631350697,0.06426102832004227,-0.1006670352573646,-1.6839687525451386,0.5430730492422411,-0.022261101030059675,0.5696082614558605,0.1533387644576587,-0.18227480751786518,0.42385337697569603,-0.29079071284280467,-0.24857039791943575,-0.4409088247937277,-0.1630617062298252
,0.3117608160467699,-0.5363412909649896,-0.10935549228158038,0.9779075754783098,-1.0830072211889914,2.0252062401239543,-1.8863570981281397,-0.20888406998832557,-0.7754261639651276,0.8612087104147444,-0.13955716330552567,-0.5821092870005428,-0.26661341790781334,-0.2913208625699518
,-0.1846986796211845,0.9281611145653407,-0.5665215106981021,0.31319845926991646,-0.7746486817685423,3.362054944100988,-1.8371420064687383,0.297831315327703,-0.07287598140936807,1.0391548938750428,0.20924735704848837,-0.2330122757208113,0.5207535846443704,0.35887714039957985
,0.07514205874794001,0.6388737187524041,-0.30461340181629776,2.685876272020249,0.8686265444411039,0.8351214680286745,-1.5611467148296583,0.28980407378201445,0.9384822144582895,0.08579914421742454,0.6010280423612308,-0.4068434791078624,0.34448922019737416,-0.14832234799791244
,0.18800327791093988,0.7237745624473279,-0.06898999488338411,3.8631034228377517,0.8981755335532522,0.6195036925065971,-0.12024072770006854,0.017256090839634457,0.254302861022192,-1.4225127796162502,0.4938860675883536,0.15517010492854144,0.21624265195055692,-0.06899589763074215
,-0.31730367175263435,0.06495361739669527,-0.19091820807006174,3.4981994860345407,0.21634241699220946,0.6731338435467421,-0.7337086730843368,-0.1563401687262149,0.1575563792807802,-2.2344925924853865,-1.197453502574517,0.2024940533277217,0.03914119270964836,-0.10245302357308231
,-0.7940731339096219,-0.17913934294295425,-0.08219346237061365,3.115860113490844,0.8594884092074524,0.7325179602075024,0.03892945007788301,-0.011037643508836799,0.11021438415558764,-2.8888448075952224,-1.48395058340697,0.5574948409212062,-0.29556670241003646,-0.2280513539063471
,-0.1661721148955995,0.4952664031741754,0.3325277648425362,1.3928774811740756,3.6169495660258133,-0.43919208898183115,1.7158178416215697,0.11349277339259632,0.5473668834326615,-1.1171856073270896,-0.2336833388714545,0.40465743325994175,0.2884448947445331,-0.09225716280270169
,0.690367489995886,0.6345211637167577,0.4407520218680663,1.2072733911101499,3.2880963145013857,0.24054783632839605,1.7882390698495148,0.06100073175801321,0.16379507843000612,0.36348552131774825,-0.04190832662173762,1.0882796771299552,-0.4124122803324723,0.49176406303976733
,0.7981565982092337,0.11514260519839824,0.10387886492627764,-1.562566456507123,0.9581600666563109,1.973254878870947,1.257171301012951,0.10795146923173182,0.5085884138457286,0.23997953102156588,-0.573029285943303,-0.2391990820430188,-0.14246522926323965,0.7230824146599927
,0.32804200580784465,1.03642057226509,0.1292757979344234,-0.710734685609103,-0.7695712451167213,1.2740678481183927,0.6167184884828486,0.23212982158570536,0.05422178009044916,-0.7840975094610855,-0.4897895096903716,-0.005611721234055822,0.6491946414840595,0.024476365889223462
,0.48696972154855317,0.7830862343828462,-0.20991649659086278,3.126087386880791,-0.7824025159553595,1.4412748982213777,0.04618955832085469,-0.155930547322345,-0.4444480316133611,-2.4656477361438514,-0.3667030971973311,1.0094348985550243,0.5763497952133804,-0.2356405988762031
,0.584241132205934,0.2540458623501651,-0.22274860940434318,-0.20612036066252692,0.5169635090026247,0.43679746125444513,-1.6871489572587073,-0.41284695890401035,0.01677434607874005,-1.710637109966784,-0.28552597085215736,0.9318415553061564,-0.44125053855867813,0.03351112737512876
,0.0042901199695355476,0.8436623453989478,0.18125974172144926,-3.01732991138968,3.065348725936368,0.3484111426378999,-1.1420814478074153,-0.2828397632951335,0.41372838087118136,-1.5236520765815667,-0.17645633541613825,-0.7191557677588725,-0.47384314278538664,0.925789529900438
,0.20727436038099942,0.41217793085623533,-0.3688567254000774,-1.8415917528290755,0.9605354431731916,-0.7283232984688407,-0.12245162656351576,0.45072978376386486,0.0849247373794659,-0.49628789477067164,-0.6430945869511879,-0.5833201556354979,-0.6457356201010672,0.4404394416786507
,-0.6839123617484092,-0.6647598453513776,-0.6042784732634938,1.9425666633345675,0.15758293821610214,-1.7223998823185473,0.02809598085563528,0.9751161983816948,0.6641528421092053,0.8014101020205355,-1.1971180924028264,-0.13359479258989146,-0.963037207082842,-0.2218804563348986
,-1.27220815735685,-0.6813345739349859,-0.3609999874307376,3.681756868347603,1.853542615177512,-0.3826678611759479,0.16566437393793365,-0.2025672702869004,0.42942722802603867,0.9992023258315578,-0.4698352558914395,0.09078163126083472,-0.7922001593118727,-0.7136267518132874
,-0.2102985179822289,-2.2002336023629434,-0.19152337485476773,4.263670338212492,0.869128364821437,0.18603872545050246,-0.7452611518211807,-0.7316689210818952,-0.25436329060455126,-0.5204615256736375,0.03482059926080842,0.5440470951971557,-0.1518745976299709,-0.617570419574534
,-0.1078174430113582,-2.235258971254422,0.0859437964538145,2.7177180582587206,1.578160349616771,0.9275951166132049,1.2453090852533517,-0.08434580772965779,-0.5964247641532181,0.4148857785874853,0.15834794604648744,0.9087627470027168,0.35928488038513623,-0.06273290165282769
,0.06278478574684827,-2.110040588836191,0.546978947744691,2.839087143394715,2.2266563926225023,1.6329457097775686,2.1214523736050332,0.14832528135996756,-0.4661050516610893,0.5452012894289339,-0.3712123714667271,1.021955582217971,0.23128431737163277,0.6216123358057778
,0.7362448134304057,-0.5612278848572957,-0.07863299149965353,1.6619963057329836,1.7549900926401338,1.1185569140429958,0.5207685311689004,-0.21425288648876756,0.34775633531915734,-0.08428325114893517,-0.1050492529566368,0.48749439829520086,0.9017849970666079,0.9538320080807218
,0.03104225249884945,0.17760734780702256,0.01902344144861671,1.9645202685410152,0.5364858131811256,0.5875015202174577,-0.18317827853389343,-0.5690719741412323,0.11895005780064728,-0.13491968828530404,-0.8450013260759478,-0.5345592030429605,0.2895447384525668,0.725171002235685
,-0.7060791648532023,-0.11197734207490563,0.20051028600643223,-0.6422429090394731,-1.0564671179355016,0.05370523604588648,-0.27149836268072913,-0.07590646732151753,-0.19837153628676132,1.133866795378141,-1.3933287773499219,0.4623808902814201,-0.5031751831039131,0.8877952861449072
,-0.18428724966862484,-0.35724244768239916,0.004381587229518694,-1.7734308762683357,1.3748494931138107,-0.2801009112796189,1.8603735431016994,-0.047588486132775436,0.20456225910617964,0.794989228233915,-0.8405842635056304,0.9370661471552993,-0.30719898066020096,0.9848278643679623
,0.10094993265245292,-0.02763534636768569,-0.01270185601907192,-0.7540243721312605,1.242986212907496,0.3193911917644071,4.227797610360884,-0.007366518870915811,0.3851509468058027,-0.04182080853232755,0.45344066271622147,0.4898187638314657,0.5342540582138029,1.419814884180845
,1.02206622429723,-1.5915885283082318,0.5922728936354198,0.8481236076211742,0.23836482537149556,0.0744533688277548,1.99059223440554,0.633444380901277,0.3726645800322551,-0.9822661087733154,0.08886814126113504,1.1468043152432967,0.08959041114840345,1.7335626747554747
,0.07485797642838567,-3.506984258682639,0.6594726098910306,-0.6902861382308227,0.5643593049415853,0.5900873421859975,-0.488764569940812,0.21519538457802334,-0.04304713282414254,-1.147876144150757,-0.47222164800028793,1.1751630590630158,-0.2987493274425156,0.112468498447632
,-0.14815525142250593,-2.3511552364482196,0.07174392020699959,1.1316942225354865,2.524104518404895,1.2760161982427556,-1.1114142960181548,0.19808579038655139,0.327484875383025,0.4713498848990632,0.7030887858958589,-0.36349790101730284,0.4490770613723918,-0.3856259377272144
,-0.01962505295590615,-1.9952352690596051,0.08707747433579693,-0.5589511227509338,3.476375323299599,0.3943080198938722,-0.8997383027549312,0.3144360039374314,0.34235852571500586,0.7424989368793757,1.2097570552462396,-0.7905239066210632,-0.10989387814983655,0.1724575141809009
,-0.03446056848181511,-0.8831413207673886,0.060790652560991414,-2.1813484482938788,1.5659062665055408,-1.5864810401010145,-0.5812734706338784,0.23276624859763712,0.07824715011668854,0.1296463793383025,1.043674378174347,0.24645427412702606,-0.5989268702664485,0.7964616840163378
,0.6786284156253333,0.24402929240840224,-0.11880553368715203,-0.7640856569334498,0.6370031853035297,-2.251726343567704,0.31867813233842596,0.5428199784630166,-0.3227482185212691,-0.4309171497233216,0.5379750772852002,0.7092863565311762,-0.21507755375333443,0.6278910108634601
,0.3805947010637781,0.5017290023783019,-0.42636148964090964,-1.7462797454142103,-0.20543863971578705,-1.2286959841763014,0.4536218251316278,0.6437686946219768,-0.6195887212997574,-0.06157744089140151,0.29034576177330246,-0.05003401679776601,0.4152247471119855,0.4226502345808533
,0.12876208196518765,0.1526126707576456,-0.3492280912448981,0.03214877985556384,-0.8190526476010724,-1.1756296215441087,0.24450208471374058,0.07882021931338308,0.04449754655329758,1.1162945133708178,-0.0454720767557857,-0.10864070891575124,1.2762175552624824,0.6706664338391866
,-0.05179569995548959,-1.3193762811600729,-0.0213680479220194,2.366507337914139,1.2883469947092343,0.4436037450011266,0.5692882130623563,-0.19311519170309618,-0.14315051680360338,0.9172741565643545,-0.14704458027366746,1.383746976947159,1.6625081725028055,0.44409844400886195
,0.3506389175800183,-0.18882068343007483,-0.2615931461852889,1.7204780810069704,2.615113428652606,1.5276101663664867,0.26317831920881696,0.4502081045516709,0.24277868086663384,0.6482952513877931,0.0940591305328067,1.2535853401893002,1.1985205003560486,0.5101229520946965
,0.6846373270472058,0.18470193019370074,-0.48591444682203794,0.8127816299548996,2.411836738187346,-0.04841622092273824,1.19311922245653,0.3343553597251762,0.16398257582245032,-0.06854970582442826,-0.12898550396957925,0.0512029888285833,0.14460634354442461,0.08723816453352176
,0.5568499549430296,-0.5049054833816459,-0.009740725597980646,-0.8984191364183514,1.9525716868123364,-0.23115478705741072,0.5747397163931384,-0.25322552174431534,-0.6943658707482395,-0.10477504701471008,-0.11005957531973305,0.24705963333060993,-0.42779587954735143,0.21464444916802125
,-0.6759814628895703,-3.1818292181418246,-0.23268929884544484,-2.5026064845822904,1.12723915256072,0.24423109744240787,-0.33672080073528055,-0.07382837890212025,-0.46613724395150424,1.6605910638911718,-0.7073129959997572,0.2295829724769875,0.09906863847755693,0.10771841164574174
,-0.7315378734271506,-2.068779641357701,-0.32475754831409875,-3.3474516292644387,2.8859499202049816,0.10821809125277557,-0.1376403889449164,-0.2604361263746592,0.3584934464649842,1.2435419122312612,-0.42251247499275657,0.23109179265665017,0.4705192776440541,-0.035743379645984494
,-0.6806242312062344,-1.0995974570937792,-0.3956439601839765,-0.10998361537550141,3.5577367471481565,1.2478601977867434,0.3279296613744377,-0.6144916260783727,-0.2321981904111218,-0.5632098307818898,-0.04928186222500724,0.47158747260699596,0.15081512798143026,-0.5901327144434374
,-0.1433752244754722,-1.4163983525972357,-0.2527486978496894,0.6474874633223264,2.421412874002628,0.3366206528555276,-0.8165768161282779,-0.16399965532307456,-0.9360462865434656,-0.3235744278515757,-0.25926016383318423,0.8926546459470939,0.12825933812805168,-0.25891054932204766
,-0.47734724342488066,-0.14967305028522862,0.06949103529344972,-1.075732279563055,2.0354505249584984,0.2522823210096419,-0.6277556084319807,-0.2523499118805871,-0.879657376677085,0.08577109667494735,-1.0792724660165383,-0.3364358392552084,0.14546844563591702,0.0830582912850498
,-0.5117550703064863,-0.46492176895353904,-0.17361718606617144,-3.5812188240237566,0.22713221457623753,-0.8588020227273374,-1.4090399192890368,-0.24721050865435298,-0.12301250360263051,1.0604895119281719,-2.455211863354491,-0.7448095324623676,0.5085707078434637,0.410512160995932
,-0.1903923027654419,-1.1108725149014669,-0.24587951274740083,-5.202959112938402,-2.6371609730547876,-0.8190927555926852,-1.1170618215237391,-0.25252196802456234,-0.11445905204948796,0.9870403057435361,-2.229135174140817,-0.7910330081609324,0.1015846961297177,0.08883163812997226
,-0.08325628861257181,-1.1275457266200282,-0.07288828981364741,-5.075061105215651,-0.45349083211575864,1.212960766456093,-1.9271335128715816,-0.3346074688770605,0.09432946082987723,-0.5525204714786627,-1.0883724954478742,-0.3324615702343403,-0.5425744519663536,0.03498180346712206
,0.3170723944702928,-1.0860471302969945,-0.3430201307474098,-7.448917906790859,2.372413836033108,1.4642133084646474,-1.0596300678523012,-0.46878849065739203,-0.17740589212986385,-0.9531225914753405,-0.6100231277754653,0.3598350298008902,-0.28261428553812096,-0.4410993197589681
,0.5585731188552308,1.2218533561676401,-0.46091245179781964,-7.105205472970705,-1.5866024789713806,-1.3822398052983147,0.08300886842800924,-0.18671283481825232,-0.4857188806802025,-1.7745788303847403,-0.6390309545354509,-0.29955604362834226,-0.35497035357180456,-0.18661447830737077
,-0.46699779299711003,1.9482811655616081,-0.10564065745073253,-5.112399740068515,-2.2048009655022023,-1.5229095164471473,0.11564756040861668,-0.26919141160219456,-0.44120220193003945,-1.272426961691041,-0.1375718496901464,-0.4698456698240705,-0.403327521555805,-0.06186144396621921
,-0.8913913056370143,1.9936951962702438,-0.65695449251146,-3.0671226072517626,0.6969725635873733,-1.1715271291584284,0.7328220426136143,-0.3216107103147088,-0.3606516879224697,-0.7564627696374778,-0.18601707079509563,-0.8889178648538131,-0.35853207789635,-0.632941767895322
,-0.20273848763309155,-0.24953653343900375,-0.597216231573758,-1.7626080067258127,0.9241347974024665,1.3924751524211092,0.26483276730031324,0.05738783379186018,-0.07899780357222344,-1.164185834267325,0.012525230413964483,-0.04553509931070725,1.5470011712081018,-0.15689477192902168
,-0.4149297151258825,-0.634284851289586,-0.8542677875125004,-1.7264018796392069,0.5072769665150769,-0.5827948049735223,0.672426688107117,-0.27510283157720833,-0.4011090014036231,-2.880937859412548,0.3600551037417984,0.49478329112319575,0.8732557016200667,-0.2374672930629978
,-0.7278691995998456,-0.25664900310099675,-0.5140856366180062,-2.1482291101809947,1.13146617590768,-0.6608661631280722,0.5532403516504492,-0.6228403565017963,-0.6417923335910887,-0.5431447687351858,0.09645733113842556,0.10147909998135929,-0.1886189233387372,-0.4859669211624808
,0.44934287176644677,0.7817297552427949,-0.2936344562506956,-2.5441220164513845,-2.505879588237069,0.7870126917369508,1.0312994003736213,-0.6103662256255943,-0.6176857602906533,1.4081436811276853,-0.7894009099557776,0.16827339352161208,-0.353019306629176,-0.20162270565842288
,1.5834507376226628,0.8310700062551573,-0.04041623214389085,-4.714366760676201,-2.6997539980196894,0.7784539689997302,-0.6051340928653998,0.11624488359660276,0.12166074447564117,0.9290123461122802,-1.44149676163811,-0.5260271051340946,-0.3532212002292787,0.187070827218904
,0.6802378364646194,-0.4984431430105769,-0.358292469857928,-2.2509556224105705,1.4772801129581972,0.6286967961616157,-0.65045268426461,0.25687229119327115,-0.0863717007901035,-0.25440633462640966,-0.89074827231327,-0.41127845752107,0.34461198636176904,0.36439857608454634
,0.7201825884503161,-0.997931327024884,-0.3202509176323479,0.378894133468025,1.8585444175758488,0.6543526355596185,0.8519845844175945,0.7867344938529468,0.13115368742573616,1.386734102925952,0.07559295288826802,-0.0739589483701212,1.1525112486370948,0.5409394703567082
,-0.020705447030699306,0.5338238267424733,-0.09475825625711484,-2.0957256256573147,-0.8395757004743768,0.4268068203895182,-0.1575959679622913,0.8318212031595638,1.1519047009997225,0.9051661043598025,0.00850823488172166,0.4612968525397566,1.1028781573933222,0.732349420579907
,0.2876441912999703,0.49689246290312633,-0.048970464396827236,-3.4130520414547005,-0.7409173594944929,0.6259209963149811,0.04525619377246654,0.36756468995177416,0.1928629506180102,-1.8861573159192613,0.0071787593414277436,0.35865961380396777,0.5302246807167407,0.5936205095992065
,0.3729111350149555,-0.543963173682141,-0.39821996248462127,-2.0990286905552837,0.6980955092794953,0.8908023587522979,0.6865248588859472,-0.6898476475388352,-0.27961885342001486,-1.6396986037366101,0.36112843495404634,0.4687049569804615,-0.23195008588324129,0.720289737133496
,-0.0635286056617218,0.35510528404724945,-0.4433542338817089,-0.6565430792219763,-1.649093869330488,0.3688740404712454,-0.3519023843320582,-0.5834375981734726,0.2717236226735797,-1.5748817067013876,-0.04436785959682434,-0.2096666200091034,0.13878892724836084,-0.3025277658908186
,0.37634862437975947,0.18474332914901198,-0.17793600696022294,0.4669930131178989,-1.143111102173849,0.5605435694598954,-0.5066400220812116,0.3366524682223989,0.2574529798102163,-0.8796357824852749,-0.561995005336854,-0.44512327552297,0.6363600851901787,-0.157355357625827
,0.6547822225593086,0.1771663699428806,-0.3949535627669929,-1.1210666146517532,0.27395194823660435,1.2352395986164157,0.6908340627669655,0.44318130163088365,0.4089894786010872,-1.4913728817126934,0.3557830888658912,0.7097448887590664,0.5593777976258439,0.0553973690258375
,0.3263850819301017,0.7282126834243371,-0.1677116694420723,-0.25943096709792257,0.6451521942489847,1.1164726065036086,2.0075897401263796,-0.0928294869967121,1.1747178536222989,-0.7489466260566126,0.7703323574955365,1.6786255519257907,0.6014511039126506,0.3495285872517349
,1.5318404370162073,1.0329776259516328,0.5878875078871528,1.934721682978915,2.167646341138699,-1.694021780065757,1.3038326371467048,-0.060285804480281015,0.4792252804311683,0.2688370391943413,-0.39633016884839495,0.796392706619866,-0.7465642853444476,1.3387713880024719
,1.3273289497211433,0.5526065577138632,0.5236906332434678,0.7524838206846144,0.5235615176018997,-1.4933306889128224,-0.24155843085937903,0.9312019026461992,-0.22875198333918137,0.8289225089621817,-0.3545312276341099,0.4554254797611575,-0.847559167742943,0.4259196955573856
,0.3010817090113967,-1.5796555721330061,0.12494727388910551,0.8424596354291407,1.9805768517833702,0.3152521919909191,-0.09945287080371537,0.990553530098019,0.333023438385635,-0.9705677980546256,-0.3783015484897063,0.09638879275560658,-0.27170017094311344,-0.0020468801641959546
,-0.27431763580092416,-0.7403837555031827,0.1493321561354929,0.8911783814569534,1.4978842185790087,1.0825262833656792,2.9610271690458805,0.5981465400843115,0.3237564000123001,-2.050090131535609,0.231800060302473,0.7164298664139896,-0.10805838499744226,0.16608079097960485
D1,-0.13029099831035726,-0.9741384153410179,-0.07846923665144837,2.254999389280062,0.44216290688072796,1.7699852581966966,2.980087450775043,0.2243295898922804,-0.1799440309238114,-1.2294321744709387,0.4452269662570182,0.42009973480759216,0.20317332887889594,0.22710132815249734
,-0.40620652751732267,-2.3282865348081545,-0.39453316385238135,2.6244516220722605,-0.8310229117933805,-0.5201920219718921,1.2117323009844732,0.2316510836479656,0.09477273070353745,-0.8936159675123064,0.6156961866015481,0.008291431301498134,0.27650288675659934,-0.19970996226653026
,-0.7213265723301918,-1.532684944400468,-0.47082261634644623,0.9681275257670083,-0.3716425559948265,-1.2042797363655398,0.42632632369955753,-0.2779186947355502,0.2257671384521282,0.6110013691565046,-0.13842469444779035,-0.6682321925633076,0.8524779314101706,-0.5644259358544695
,-0.6599010885718494,-1.09875255769822,-0.18706561913657138,-0.5884527082895479,1.776735835397934,0.08791809062054765,1.4379054663220263,-0.32787330178728213,-0.4050655430080776,1.3929358063450221,-0.2853859977882052,-0.583827919463516,-0.5356932517796775,-0.33094195070736965
,0.08117534281040246,0.96848720271563,0.09096517820359995,-3.59843389763898,3.5642236770537057,-0.45663996245356353,2.2296875365979774,0.4667412099668634,-0.22795236967202862,1.5095783703877272,-0.31490700898277496,-0.15672006207744674,-0.7358275317480063,0.28220243807360373
,0.648015473753997,2.121846218247101,0.027645378205151484,-2.7159922709404167,4.388285407593431,1.3290079777551156,0.813283384028662,-0.34441167317290666,-0.06601200509069637,1.0412919068608255,-0.03768244113325546,-0.7876628139005065,-0.8981304929803928,0.14023206230374993
,0.36430531213435874,1.6517767785628514,-0.09196553932132327,-1.66875399091414,3.7897443066937146,-0.13033854587150653,0.27244568626611865,-0.831167032010352,0.108829466542635,0.5613633788063095,0.13499713509894332,-0.15946510844656508,-0.9587818763710708,0.34112080046906224
,0.6982856304163493,0.13777812089311442,0.016526352639554393,-4.411423256362266,3.672154742337906,-1.885869402692373,0.8782605370237309,-0.44681601183621605,0.28171244349918106,1.1622838377500786,0.5318178000378618,-0.40400318494803583,-0.7208183631070055,0.7069089656753087
,1.3975645768811087,-2.757078750866115,-0.3253986515773865,-3.7571186330485475,1.9168756624289087,-0.991887105184475,-0.5521318178343199,0.3897611060723621,0.05551390163124154,0.7613339004722406,-0.39112242867419733,-0.10256411081546786,-0.18469436032670386,0.17731974721713073
,0.6848043233711525,-1.3656365638367647,-0.5100380748586345,-0.949186760063807,0.8013321578039246,-0.0007979642651436534,-0.3261646562484101,-0.23560120294437645,-0.2997395844330202,0.07132006247084986,-0.5179183406006573,-0.1614521714603247,0.6302992668107384,0.13366081365264873
,-0.18062525881042257,-0.2609414542825369,-0.3401486660352019,1.154036958595029,1.5720017008575449,0.546387383439741,-0.16156972752751053,-0.3186806490067354,0.6046265136025081,0.6301270412167099,-0.1969989381726926,0.2958623375028279,-0.3394305809902305,0.23946891658195588
,-0.516276145097813,-0.6518995714096896,-0.16327853212242918,0.39123238665428695,-1.4842799510773015,-1.0748318557362224,1.2956896652689835,-0.12362325339777322,0.6951505350303617,0.4958476007461854,-0.30829763042602587,0.21883458015149143,-0.7827912218346733,0.18940817133637713
,-0.23891282096873231,0.14186499139948833,0.050985445676756794,0.9044842885673436,-0.751213735224264,-0.6375934249402059,2.3934554955290888,0.03644953117339883,0.29706148909355234,-0.5729469686572913,0.009754666230587917,0.6699210858772767,-0.37742250046939635,0.5754437324563365
,1.116071480942038,-0.15865649694347775,-0.22558317564756583,-0.26084726645305445,-0.3694492977320797,-1.5982373294145114,0.7835253942117337,0.21740727656745967,0.16193904699686743,-0.27502140704082023,-0.1270727677535683,1.4530211744156576,-0.21512694989349257,-1.296306856218893
,-0.2833199694976538,-1.4381714686395062,-0.23618024596199966,-2.3163336257339773,-1.9279962326805902,-2.4950672171613277,1.2467318215311582,0.01139180989789775,-0.9164825637596161,-0.6120964507904516,-0.5840718505012497,-0.4201067234895713,-0.4804088997824313,-1.474680137521942
,-1.1002322754521057,0.5329889692031595,-0.46382105964992276,-1.7952219183292517,-1.15662257976759,-0.25047194523211086,1.1938585242135062,-0.4644042515507454,-0.3501018349471077,-0.21842766504446137,-0.5243366349024209,-1.1055133818784877,-0.19210479597739874,-0.40511743337617245
,-0.6955528769668409,0.8618887831207821,-0.3500277003494533,-0.7876580817092661,-0.4196682244989432,1.2817083662890014,-0.9729978127730998,-0.29180779384580957,-0.30655009814503253,-0.5646703642163312,-0.27559998721093326,-0.5413607054503842,-0.4467815230437234,-0.7515854552776358
,-0.6044212791395764,1.674068427660311,-0.11377479134630966,-0.7201476883729484,1.5006032310663655,-0.6907285499824062,-0.7916467027286103,0.4428122211572284,-0.6866539517604308,-1.4194818171244852,-0.6381145500748094,-0.7759835377254903,-0.901406931018775,-0.24860276281744265
,-0.4912116454093582,0.8823979067071162,-0.0028787156611998726,1.928406722301022,-2.6491899699141066,0.27860039032469547,-0.2638954040448468,0.7993978983049403,-2.2081816132969854,-0.5854097517303969,-0.4378992065912013,-0.34862124607312966,-0.6244070847663703,0.2537452907141197
,0.00010809888103523714,-0.26395141763812746,0.16496088991640787,3.1709443398094854,-0.3810129037001452,0.6667280878889713,-0.6821021808132948,-0.40389081500586693,-2.6311141863737673,0.912687845363354,-1.0205804528456475,-0.45958419301386655,-0.6134222275426976,-0.13682864710700532
,0.5412929570981104,-0.8194798813489678,-0.556052297768799,1.6644725092123875,2.23772695382944,0.08810925143404724,0.10605988350539934,-0.3593817624416888,-0.9182297794295667,0.9778201328987293,-1.2581065429743885,0.7292324284080731,-0.8977197468590721,-0.30165593012778236
,0.24632907789240296,-0.8492822649162897,-0.5637527707760681,1.6884729637484817,2.24314708439749,0.5936223553147947,1.982426692003302,0.4036130451234476,0.6368945192832085,0.5976095486914211,-1.3753031598240812,1.157020649858504,-0.033830728320861515,-0.34913551810357046
,-0.05573285839387353,-0.6363451883798039,0.3309997348384306,5.680792092719976,1.631564867130824,-0.14522468195383095,0.7285227070370395,-0.05095123064122783,-0.4947364922678546,-0.21462360394117594,-0.6111885690067631,1.2089023294065155,0.06108111789133636,0.3369100848528943
,0.7765829345477321,0.056376473676174405,-0.3606509435430505,2.989331421441038,2.498814711159845,-0.6588941597249455,-0.0026411325150436306,-0.2053871532052345,-0.7343448549828979,-0.7769345227977469,-0.07807550198548463,1.1243329115302942,-0.7441162337889801,1.0048257421952183
,1.296936033640054,-0.4705368888010341,-0.532590291046691,0.5035440456379725,3.510677252772358,1.6273007646446218,1.006971491948583,-0.6061041868531376,-0.563319649944482,-0.7711341493754298,-0.4180922642686636,0.6627683444672775,-0.3983187298787245,0.6298507542968803
,-0.48179796469387287,-0.6886053547882803,-0.08116862724357941,0.33533935131747517,3.311304722046878,2.6270377100773237,1.51720809701329,-0.6478676717852352,-0.39569102271505346,-1.0807056208687598,-0.3849259278798446,-0.057592574155643866,-0.5735555087094656,0.6619055427126632
,-0.6264808208153545,0.41278153378848,-0.03612366748316681,-1.4484131778088476,0.19502381653917059,1.043108073377805,1.1859027181178825,-0.30867723602214797,-0.9848124163510341,-1.0508936326800278,-0.014791089514705247,0.6515870164066423,-0.24446880616582353,0.707597502244784
,-0.35773665903400126,-0.13837010340871153,0.28402369164802094,-2.869678818080962,0.5748202444097306,-0.2343412196514257,0.9585029049530117,-0.3858019340440395,-0.5928761985217912,-1.5843864916136665,0.4881162459121713,0.622673505771907,0.006230911767963418,1.2206629938430955
,0.21944980562972383,-0.14127938136137028,0.11617138717497888,-0.6816464592965765,1.8241135247205977,-1.071264820196258,1.7370286302747937,0.20222779958033377,-0.013250102187318806,-1.3034690842815186,-0.2551570759857297,0.3189435742128255,-0.48495442586586424,0.6969927730165206
,0.6928510692194606,0.4156814767634777,-0.3180527006477896,3.263371264834983,2.3116056986400766,0.5154138136531883,2.5687234940010097,-0.05731788366911727,-0.28161751739049945,0.3197145574473147,-0.837388523813711,0.4648274121620296,0.21772081857628917,-0.25983723215879867
,1.150438476866926,0.9773127889639633,-0.25632537406001876,0.7671185077190434,0.7526780078204873,-0.6429231589036402,2.137464633503555,0.2541491180518955,-0.2924148907876802,1.0476039828698256,-0.3610729953015663,0.039251163624170186,0.6684170788572686,0.15786918954449686
,-0.4414510499046059,0.6927366127779419,-0.09685391858944478,-3.332287651877355,2.1160630757792496,-1.892458341034031,1.8973831003949044,0.6389124148492014,-0.007429829888044991,0.7653067881453972,0.8025602245666279,-0.16858903825047578,0.9140637561038389,0.7364748878829236
,-0.35179338076107913,0.9079574459129074,0.04755205497328781,-1.755136519126791,3.7865161348447423,-0.4721829023381033,1.2915777799852097,0.48145405639749755,0.7189094874387775,0.5414551886954143,-0.19846018935263485,-0.30036482154717414,0.6319745159083854,0.3791363495174361
,0.05228053385277574,-0.3023739530362417,0.09427470815308532,-0.054843058094885974,5.250026934217622,1.2343583761822012,2.264767364048302,0.7204918381291471,0.9617919785110188,-0.20450244416880356,-0.008449593297501938,0.16660017963840132,-0.2899999916402356,0.9965429840511032
,0.5929480749932924,0.4192262714606609,0.06083743563246969,1.3624844498066897,4.03297123652506,-0.4387789944229017,0.8365199173138158,0.5110203094851324,0.3043024154650023,0.803783175269325,-0.33829090317632365,0.7823675773596196,-0.8258206761551852,1.166000024651221
,0.12453657080651763,1.1260945423090998,-0.17093218396624257,-1.577647034186404,5.067869813385274,-1.063122695125769,0.7342979995055335,0.10776793351650595,0.47038407446078,0.8894517290154511,-0.01644562267929814,0.821202938693302,-0.11305249455547453,0.24797329290599013
,0.20022072125438875,0.16133271840035474,-0.3411090729845315,-2.1457158031449364,1.0479581359043728,0.6123419179423689,1.8036914339422854,-0.1983121304329389,0.6786884413456287,1.4540148008479514,0.050515832563745415,0.705117207167546,0.30591549094775017,-0.18941750051994033
,0.05472301009506916,-0.5442423896663376,-0.07163530272390993,2.258126672946327,0.7648097428437822,0.4393994549792707,2.153552414754765,-0.6084696595098239,-0.1638737979713211,0.7650525036268664,-0.9470425613240432,0.08355801864347993,-0.9736824718261881,0.12142714801914475
,-1.1912120748289947,0.09347828695679494,-0.02220740486319998,3.1292214336130986,-0.25066825853033475,-0.04658557037217635,1.8176809595873926,-0.4363822536116205,-0.2686293102323775,0.2818950290445283,-0.6072395142506714,-0.6743981699906089,-0.8258102179741373,-0.09543139885563194
,-0.9503496263096352,-0.5548011341057533,0.8310896465822956,-0.054128419905482214,2.570772940743398,0.6187073893376781,1.3887324182339613,0.03718583731930518,0.7947150351310502,0.07559856471155449,-0.385762004217756,-0.2937914355750858,-0.22998535108189103,0.001023281750007029
,-0.7385854291051543,-1.9924998146984048,0.32434457900623953,1.4520391605909386,3.2676416925164085,1.0118905723050877,1.3460551081432892,0.03229479972493251,0.247490990056951,-0.7851948423793431,-0.060889045373596115,0.637139687235526,0.062452336851049055,0.26693497219435985
,0.3436484261675129,-1.2895992469046185,0.09495152964605665,1.3714925564370983,1.7451940902580811,0.9550690091140878,1.1786166031882315,-0.26627164178850016,-0.35634870359433934,0.13903756957207272,-0.3172087369739874,1.2462436408232733,-0.33314097887542227,0.010423303824766724
,0.3292392181099358,-0.6544412014384781,0.3879501943915341,-0.6628394196282213,1.4223374535509832,0.9388537083220042,1.5488388740144867,0.157963381190774,0.1043270938046353,1.0141469850421616,-0.7110324159116309,0.39386397748776547,-0.20756449285147305,0.04391157997312868
,-0.5207995558042844,-1.6981658105112212,0.28481198713849154,-3.3332701327493717,0.751618171582605,1.3751956165827188,1.9819809802508943,0.005112133655701318,0.31100134694585446,1.4591986522371734,-1.1050825892809153,-0.3943401848942781,-0.2228548192981617,0.03820255480200049
,-1.2810823689700062,-0.43139289186778523,-0.16162220212385278,-3.4547913025788866,0.6653121020437448,1.3105778729938318,1.75412517737748,-0.43353809304866336,0.1052258300009329,0.6713995201132319,-1.0757805606434836,0.18693389262590362,0.18761110953594437,-0.47675251880449326
,-1.0416811364978764,-0.2114981568697619,-0.5526671253418183,-0.9039223487401696,0.031482396866241866,1.5653626598231907,1.1871803345095184,-0.3091144510860229,-0.4187186922060263,0.8832863937166165,-0.1379509923024902,0.43868613971639475,-0.43495236397402415,-0.3045160770127769
,-0.40699124201796194,-1.7788085511829792,-0.8323718163781634,-1.4298294858319534,1.5360126502416307,3.000247348061449,1.8640426353345796,-0.16597598300966468,-0.32047815976409755,0.5259356209721823,-0.1124661273065449,-0.5199087072534864,-0.5929375222906137,-0.4026152715030332
,-0.2466472895153041,-1.216214585891699,-0.6708947588152268,-2.0623301949995643,3.5936749772197105,3.029737849913647,1.9586876073779458,-0.5343710009190642,-0.48460661473757677,0.12388058653406052,-0.2635927428407961,0.12056337047183349,0.2500848919603278,-0.6550590881089954
,-0.3538021924167223,-0.6082829023750792,-0.18752437364523866,-1.0928336385550015,4.621423248883314,2.160852339506572,-0.017757762781467665,0.03027674573631722,0.15469553407562667,-0.6483174527572596,-0.566510988122812,0.22551302456749842,-0.5703391181861522,0.07808197273717556
,-0.6787989271937032,-0.5121935690145482,-0.343013356042125,1.1779820969108181,4.470856214818831,1.175700482072128,0.772124290679016,0.22617538679897528,-0.22814991592181688,0.4547739121141542,-0.19053229436820096,0.4674477501352264,-0.7141752732579398,0.7397454551780256
,-0.3333734632997334,-1.5465983307565425,-0.35672345015730167,0.4775879592409056,2.8761445305046762,0.8148199817804138,0.6446939102398589,-0.18257438085411878,-0.15532682989866203,1.082197327149366,0.8758496349957205,0.6644077278475788,0.06054674365164074,0.31978832183935546
,0.41301881767307236,-0.28898581843607885,-0.33971419877675774,0.8985678680529914,4.374503145146232,-0.01536236211088922,-0.31299015159265403,0.37977839061030894,0.22736655009665963,0.2733739794563427,0.505612561246338,-0.23634651217027225,-0.3077043613936,0.25579771587340344
,0.6510416451227229,0.6904447351606646,-0.015218115024202696,1.487186465978955,5.4844275655812345,-1.4689452683223714,-1.230606134541421,-0.13386568375230554,0.20849201056576305,-1.1942800097069544,-0.1768682352758841,-0.5602552680822365,-0.49676636031031307,0.6499127596197567
,0.05717634799436375,0.9550218275961316,-0.2102333765510275,0.6180780470726783,3.137557277362122,-0.8429932364254683,-1.0395622113812688,-0.6318697082231964,-1.0387638993355204,-1.0871912495573566,-0.2770082407705056,-0.20572349952627136,-0.4105474645100672,0.6848108132992512
,-0.233269682717732,0.2886328884374927,-0.5346841207557612,-4.0899876364557635,1.2123760278363152,-1.234012749387407,2.1751746202416116,-0.5212200266183759,-1.3863522544355522,0.4806954620359225,-0.09896051507469117,-0.04750806929154669,0.2587373172248749,0.3251559647131039
,-0.31061117080826056,-0.1737401237220112,-0.7482623370250455,-1.993299242006952,-0.6320187782683622,-0.3841743412383208,0.7571645828840565,-0.5863892344239107,-1.1478431033368175,1.108102843953725,-0.32486281873812634,-0.2059421262995971,-0.47515079837181956,-0.11370841287504149
,-0.13138515916581894,-1.1117276437133057,-0.2574900745495161,-0.5802864104445308,2.306501101622249,-0.21385646611325362,0.330353069329576,-0.22056845426042368,-0.15302472302110995,-0.8044775239063625,-0.15438186395598572,0.44654089987871837,-0.074436053392599,0.06562649006108319
,0.4131840509037348,-0.3546701502325321,-0.11004395382154036,-1.5320087314040451,3.7122341802119716,-0.5573084078925299,-0.5150812185861073,-0.33006420182751595,-0.3127110380615574,-0.7108360001005066,-0.680689405041533,-0.012252082514754436,-0.17313047234240425,-0.09360751054822054
,0.6491807168498431,-0.18491159337020255,-0.23578902632940035,-1.0762790839160088,5.371372033249233,0.19243735927229738,0.6053500597613094,-0.32933204181483844,-0.16994769133058968,0.7604674149609802,-0.9312201666924661,0.05036483034088693,-0.15220924361107296,-0.29247926034640975
,0.3617047902077081,0.11528223377973228,-0.36909863101393864,-1.6055675157379838,6.9270046263577605,-0.16087569869909052,3.47804038892153,-0.04533454137785556,0.4073585247301335,1.1667681984048435,-0.29591616053512504,0.5865508500519502,0.31030814032941484,0.1272568329197897
,0.8805399691033665,0.7305389774552299,-0.23525661426515082,-0.6200958200753797,2.766078135863335,0.4751658271273,4.4901278290683315,-0.07739029490231918,0.0628208997623383,1.0635953956751922,0.18500210196835307,0.21637739546841048,-0.09489111716743723,0.6889902620570723
,0.33177240422846727,0.04040172571693313,-0.4214222132979333,0.6542391995887367,3.199491676136411,1.546222561943498,3.9752173855748603,0.1962456606834792,-0.41907475325244525,0.7951130350991119,-0.11981158182826938,-0.06941935530789892,-0.9033597539203716,0.6431072653954112
,0.9656225414413724,-0.35469478566073853,-0.6074410728761409,-1.2314061954756776,4.792815506264612,3.532193315392277,1.6094221615455204,0.00646257861937198,-0.2587651927349703,0.746631365820672,-0.2915682665177939,-0.030107824441343904,-0.07276175421668035,0.31176170961625443
,0.2200919788999575,-0.13373163645193958,-0.3818965407970638,0.10638459493544167,4.158474793125422,0.16445274945541352,1.1433622930693248,-0.3983189370799766,0.23926121816487037,-0.5598673336715383,-2.27800313358624,0.0590491046883251,-0.3384296297631999,0.17637916165281026
,-0.6501399998850014,-0.5289987250679301,0.006031146178697243,-0.19147526157566327,3.4488587671665663,-1.0990055763658,-0.002657368974331459,-0.2977605523233491,-0.3101347449635095,-0.653235503628712,-2.497335349757602,0.31848165574848997,-0.28441562597788533,0.6673906618616056
,-0.2206642427677153,0.8883971088650269,0.3254868470517492,0.858698118563231,0.8132431940193952,0.9813889264098554,0.5666875727141968,-0.4314616605070568,-0.69150488046025,-0.772437421638327,-0.7733665900157154,0.9072043375955751,0.2437385231147332,0.45939559126031904
,-0.30731637156894887,2.142630779953099,0.0066702516872420865,1.216046726102731,-0.8164828250588357,2.8522999088005827,0.01913436418723293,-0.31186978069300014,-0.6505852879781475,-1.423298708906065,-0.29327575950293056,0.1559144309738399,0.010342725708197473,0.24707221975215155
,-0.093955484981125,1.5470460010114468,-0.18662472777216577,-1.4472721721271231,0.11520610537838062,2.774363049075681,0.1799700155065189,-0.12035511383327518,-0.6247774843478802,0.10668983351661437,-0.6215933115170809,-0.10251052526114854,0.1472704713733977,-0.21798874084716918
,-0.5585297301746375,-0.041810140358463053,-0.38178192367051966,-3.501128107259796,-0.5995330479889117,3.302250602891717,0.6387733510278222,0.3701019918052802,-0.5484551808268471,1.276941450285504,-0.6694085780509555,-0.30969943986662546,0.22155099176631948,-0.2721673093453347
,-0.5924891887856347,-2.5412863207566616,-0.08903079933020903,-2.292428315321719,2.345629080361283,1.962084278196299,-0.5589328237504494,0.37443052266588855,-0.10467281586144768,0.830944101331885,0.25077227674733404,-0.4413325986840929,-0.20287622575236372,-0.2556898956523635
,0.3336692734035509,-1.9825218569400243,-0.39527922732231147,1.8771578919368457,1.2810130766061503,1.7296600942652143,0.771176500453683,-0.007550107409848287,-0.45496075910776823,-0.3051163733652515,0.4801288811739851,-0.13379527749296283,-0.5748007423283454,-0.42044339615757303
,0.650324760577107,-0.3760502227296097,-0.07042770354297626,1.120224410568997,0.2754024594457047,0.8470656128313434,1.2068169753278275,0.047515370506346376,0.07252632291609287,-0.40210411420080594,0.02511291880284275,-0.11044935451750564,-0.6023251710765218,0.33971393951507256
,0.05145007277466784,-0.792239360088731,0.06108961658047869,-0.8733720160998003,1.1421935188413859,-0.18975548330474862,0.9302156619500235,0.058592226318579195,0.2002749477430607,0.33266185771072937,0.42981252723820956,-0.006987528808493559,-0.23064624104399845,0.10388321263546078
,0.3829572645461291,0.48207455857018244,-0.044459939099599395,1.1231548193334495,2.6017674169755085,0.7131294090985043,0.76166453602462,-0.38633582406128614,0.19782362416343746,0.43288490745605274,0.644322873150454,0.6592048055194493,-0.18087742458593428,-0.3938765564430161
,-0.5230088512372337,-0.06761574353568595,-0.11795978680863653,3.8079870151678987,2.606235508103345,-0.5913547343576215,0.9103397442218097,-0.13297812245717458,-0.18169025865843003,-0.1478334044694703,0.11441343882300618,0.12292318930666282,1.1877004963440267,0.040020351673733294
,-0.4934070013993124,-2.0717630233736317,0.3484652434594151,3.286685036749465,1.8361224410725905,-1.112785391501247,0.09189959616388736,0.1402607047934274,-0.5149631290564437,0.34580526440854337,-0.6056488467260444,-0.2136136142011264,0.7821783981226356,0.14036947422119542
,-0.31927417772245964,-2.622555729199984,-0.03806826254689443,-0.5861672521489889,2.5446678155083773,-2.2996126117373232,0.7763439034640883,0.12077854527486791,-0.28328731743951807,1.1991625276179607,-0.15577937944628245,-0.37011262502027786,-0.2916344942021661,-0.4384200798282077
,-0.15424861163118073,-3.2311223011761236,0.2509625093233218,-4.915104329890433,1.309971442642593,-1.8785298624781923,1.1874180741924547,0.00683862183040768,-0.35938372015428804,1.7165425924695583,0.2789509808659628,0.37660698962051664,0.06048056991410234,-0.13471043041471792
,0.5664496857199123,-2.938665461691196,1.0837293856004364,-4.864323622802196,3.99123958990009,-0.6629908469262663,-0.21816186448795205,-0.3361968548123291,-0.12952950147023304,0.044147224363879224,-0.0069746466094522475,0.20614332203328456,1.083778770738405,0.9905151374031486
D2,0.6540427026409502,-2.4002559823925433,0.7726473939329673,4.539646511728166,4.430689085151102,-0.1603671875265146,-1.7233132946338774,-0.7385867576858681,-0.22522141986994984,-0.3612854743373301,0.3455254956697889,-0.37589089253396357,-0.09353654699814534,0.9503045107701352
,-0.6074260009827093,-2.0361810428419878,0.5576513852798217,3.3434986951859624,3.6089693216625705,1.2354151390714474,1.0477577103024842,-0.23985233269310885,0.43200994158289874,1.3889172784657895,0.051726385092151855,0.2004723925016763,0.5086082961627303,0.3400420833392764
,-0.9320293731335525,-1.8655657434054516,0.203041773839921,1.5960830465434086,2.802565553693531,0.1046979067516245,-0.02344441102487778,0.018373114022195755,0.8234491857984767,2.4374186537850195,-0.15403794954697866,-0.04727768775834673,-0.0011462248611862182,0.3318535479494573
,-0.327128855737899,-1.8057738788439854,-0.05692267085674818,3.483953898427621,2.4721445837018914,-0.007548707230068802,-1.100965569498249,-0.12581564689831537,1.7617647725383316,2.0452047400347033,-0.19437821798321134,-0.06828663573926212,-0.29420161929138655,-0.23272727551533798
,-0.8601518118195971,-1.0884762790671907,-0.08472501346898334,0.2296390690417292,-0.5195002787846897,-1.3424326910017266,-0.4569410175024457,-0.28894937947304816,0.17299888299238272,2.3331804830936833,0.3051255711551951,0.11730800314726673,0.23025997626252198,-0.30946377824999477
,-0.3305053104478137,-1.1765428672754767,0.2561443986875604,0.7793577647051269,0.5529010054118083,-0.9351818003335471,-0.07358241825237759,-0.11045775564967943,-0.3007148196666949,2.234703239594473,-0.03707290392574277,0.6046590456512326,1.3517802500446687,0.49181252999989755
,1.348642612684273,-0.4775376213453043,0.94279613236725,2.6784108851562474,4.860605023749365,-0.8374990592621837,0.02445381736918318,-0.09672115153016687,-0.4659253091710419,0.8393109247512857,-0.12265594572909391,0.3943960659018652,0.5406607337512994,-0.02032133132453912
,-0.013164898611814923,-1.1271655187521286,0.6726498642645427,0.17681409766032727,4.606057382472995,-0.9851062079736786,-1.5024055593461345,-0.4756566355166506,-0.6481087198889132,0.502818415186761,-0.06924671585857486,-0.18837895140716238,-0.5328717263526264,-0.709520617791996
,-0.5825810799265162,-0.9235592568346381,-0.14520121265491626,5.744523811090013,5.303902706273189,-0.532977919927943,-1.2635054766451614,-0.6733342243207031,-0.8890634420977741,1.028336277918208,-0.5681116468215097,-0.34035476005485604,-0.5598127423833597,-0.12953640648166742
,-0.20887061073669427,-1.6351982785768664,-0.47999022037640454,1.2477053993848022,0.9402882460399071,-2.025758909529744,1.3163546125368133,-0.7016812099758541,-0.9767861636862937,0.6199828221396007,-0.6396435136966887,0.25339859914349094,-0.05510886600707221,-0.0031796322619125064
,-1.2779410281013501,-1.0693380362460359,-0.3262296133813296,-3.400776453497807,-0.5840514819954354,-3.532873780749699,1.0536497456544651,-0.775462239581684,-1.24476051039825,0.9029672309989031,0.3681649080572832,-0.7942448354338435,-0.39289891451818093,0.08211595895016054
,-1.5727612340522434,0.5980199081631531,-0.25794982074268846,0.28069072349933627,-1.4953164479885692,-4.626329757404678,0.7186436085128943,-0.3634986786469952,-0.7280638306517907,2.1022713710374417,-0.537006330909088,-0.863550536660572,-0.45500565169918583,0.8334151783161221
,-0.9739552050875048,0.11178327793127006,-0.45199083024997483,2.7627110658799503,-1.9741511860487821,-4.7503179154541515,0.14922333046707767,0.15467811036074675,-0.4924460725255924,3.173639756584641,-0.8420268320265384,-0.8077411406805903,-0.35485576216007425,1.5533458657025945
,-1.1139507028752882,-0.8778365057843112,-0.27821215117480796,0.6581381927252281,0.2667353544359778,-4.3961468267009804,2.3511083239485413,-0.09243132104034889,-0.42150486865863995,2.675016731039916,-0.5850567644629427,-0.47971208947232835,-1.2866534281064186,0.4762324777076046
,-0.6039625286432527,0.4243010543271741,0.5076179004325473,0.6504708014730067,1.870513260261265,-3.4895348406054714,-0.3235713155909819,0.14515786792246554,0.3597506089339774,2.002309206784761,-0.384671354227876,0.016560973674433238,-1.1535851567266597,-0.05324328909983919
,-0.1642822062841951,-0.39946379850607516,0.25197885639861994,-0.37187156186466935,2.746477051349252,-3.4460963439147148,-0.015830398766155142,0.3324251450977039,-0.5724458805111187,2.03551916125037,0.5039775768410639,-0.5934915540025641,-0.3486026840599862,0.4745451810835467
,0.2998484457619202,-0.551521158253952,0.45905847792553434,0.8883455416938058,0.8924394807624954,-3.638582932613274,-0.9121292031086785,0.032578079106401835,-0.6821319196666757,2.385336110260414,0.25137179947579247,-0.6235815190611583,-0.26366920933817106,0.3980643195459503
,0.13753735643952303,-0.22441116625353696,-0.21496606549458186,5.004805747591961,1.8603504309607277,-2.462834775291308,-2.1197941152326187,-0.2310195555289023,-0.6067906756817367,1.8886398205872952,-2.212672845810978,-1.3437069538228275,0.5329360654203136,0.20595569208224693
,-0.1992102673187188,-0.5718518187355675,-0.07553058592907017,2.7197401116487594,5.269092813651796,-0.5189648966037206,-0.7632218122689541,-0.07387319109941097,-0.20308909617128035,1.0064946194128077,-2.306519655207062,-0.5664306812771934,-0.7065922015844563,0.08083895026602637
,-0.6190734263612756,-0.8785351914378946,0.21751873902259067,0.13429922770572925,1.5606267764416748,-1.5039887445794247,-0.8630767129956564,-0.40060092661609326,0.13019414230622064,1.5956809427111922,-0.7797967944863418,-0.3543154290188211,-1.093248974493957,-0.11558225182756271
,-0.932691040251838,0.5941518420616819,-0.28798510390618226,-2.926707040891834,0.8484027292566529,-4.144792831121218,-1.6055080186601762,-0.5418629820216565,-0.32255259897877137,1.6464957374756437,-0.19901858254536253,-0.3286043963433181,-0.7247903362459308,-0.38084761111474735
,-0.9208852307841848,1.3501024619195425,-0.2125813804706614,-3.828800965568107,-1.1236400388112084,-4.63759010224395,-1.492413310436815,-0.6925372960308485,-0.24575893009786065,1.0818180285777188,-0.7502635460637499,-0.6909351804620354,-1.078157107346784,-0.2466314514401377
,-0.46792950968565883,0.2948214098490004,0.1277893274239916,0.20139314704518008,-2.3500791533839402,-3.1558300142878344,0.5833600085051459,-0.11286386207976631,-0.0922597240704728,0.38850752392348653,-0.2277055361636043,-0.4814428010283216,-0.8373292920189254,-0.15652564506590888
,0.23313876237312423,0.7400745035345134,-0.34448543633097484,3.433319203637558,0.8381633649345048,-1.7367754100142274,1.6959722110712652,0.11893877051824975,-0.3019704781927431,1.9051050023545317,0.5344536113340115,-0.3088212694016241,0.17656237810869013,-0.16003671639856346
,0.795315865156884,0.47921499837218146,-0.5138214332553102,3.224597292679208,-1.9455560786649113,-1.4443436325007875,-0.47413923626944865,0.054944921366207565,0.14106096066195142,1.6272531872041218,0.5654678572950466,0.25832757274466683,0.05748404972388161,0.0733816545398236
,-1.0634126298035762,0.8909263127751106,-0.42073117586472925,-3.8764112489314027,-3.2121280692845957,-0.9548349545410275,-1.0071015081763401,-0.0772073071065495,-0.31132967495285024,1.3042488575923188,-0.3953619285668933,0.5095923255402197,-1.0059271774926486,-0.613467011180396
,-1.3634345613896601,1.4714140359379433,0.3570375658111495,-5.682049774558999,-3.4195057686891994,-0.7474252722149298,-0.9095417952925907,0.06965936032443955,-0.6623681216649812,1.5693429794658424,-1.1991407518617798,0.36727027799613454,-0.5904314788128555,-0.3425228828690274
,-0.39831066672478743,1.3834341576685096,0.6125839307843285,-3.928161351269919,-4.342496156879494,0.23542629577971716,-0.3026746981409544,0.30455484857311954,-0.4479696944218735,0.923352377224913,-0.9036608495998241,-0.4346284647425266,0.4013440569874643,-0.16389742715221903
,0.40471986908881236,0.5973670967953117,-0.013049996502085524,-4.1262598222053954,-1.6640846038436035,0.12366003114464005,-0.3045933999732005,-0.19484315555730455,-0.3931664520090111,1.372697696450427,0.302336253313401,-0.30184196444496325,-0.5295405845698581,-0.308875414848096
,0.1826340223173048,-0.7430360973612569,0.04767287458826186,-0.6300000168502564,-1.2278634606141066,-1.1574108994375554,-1.4840795421373116,-0.36437651958124134,-0.023034359536368267,2.1442376146374484,-0.17584196185516332,-0.5278041407515699,-0.47297571695364876,-0.09826546546585074
,0.30051778738942087,-2.1544162022254914,0.2272745171842803,3.414810374904515,0.17784939028265503,-0.4411923682072754,-1.4039905968017359,-0.4207440801355488,0.6385192345215963,2.5188852365987713,-0.22429671969290485,0.18333076140630034,-0.23677672474074463,0.7113617094128047
,-0.4019759137276513,0.05400242172354034,-0.5304012025413857,-0.309671965140233,-0.5438028271650527,-0.20871044499545832,1.9942387556113483,-0.5540859169484893,-0.3604923837677637,2.1322743263826838,-0.395805009478378,0.16763049142322478,0.0031453204943261794,0.7975584833245014
,-1.6183560053623764,1.8642320646187838,-0.6007656388583279,-1.819169409478111,-2.9103349534876837,-2.0223688904314323,1.0117958042001232,-0.2060618249339543,-0.3879930268601581,0.3894717797441048,-0.2774865976858483,-0.2982005804599409,0.6062524845456801,0.33640743398264256
,-1.2717104084152773,1.0837333340597866,-0.31673503978679063,2.825569911694705,-3.3696040657878443,-1.3799287554317825,0.1684182291566636,-0.4694571341875884,-0.44449790383005305,-0.057297034794685245,-0.10066737356663005,-0.2812710740628941,0.9351148880943297,-0.19817754782104396
,-0.748797790697207,0.4279576618617146,-0.5585371137501989,3.0594153347874347,-2.0470118384669105,-1.1325026364710362,0.5720612893340469,-0.86688786209981,-0.8038923200067651,1.2113314297557243,-1.0693305062428462,-0.38704043522587406,0.018829394804796305,-0.4272894451645803
,-1.019972584795774,0.37032607701952525,-0.5124741557727224,-0.4147815128884859,-0.5473241899299911,-2.9970587906886186,-0.7820995426495956,-0.8942788934414435,-0.5987958423811087,2.6901022717243492,-1.2653460495125581,-0.43150847199187425,-0.15348290336518228,-0.6349868058703948
,-0.09209509186096473,-0.3852256619264412,-0.07109704933247536,0.4007432156546392,0.9922672750451672,-2.2692848632305025,-2.2437070154990706,-0.6942676106634923,-0.8116820037330218,1.4931092696522081,-0.1538021340443724,-0.392219294454903,-0.7354927949725719,-0.1712736704270864
,-0.8142506969962087,-0.32784251048719787,0.2995214734394099,-1.3533658006103364,1.2135573251299718,-1.9606611297057936,-0.8755513569010646,0.068529339653863,-0.2450853979236506,-0.3697252440468146,-0.17430816747003128,-0.7242386737453129,-0.5892337233416421,0.12153447575885357
,-1.066945418751747,-0.2132673763247486,0.17339781241153557,-3.241106389038792,1.4442774747885077,-1.3772647137615894,0.9740044524984076,0.37084420810117474,-0.10404226884742002,-0.49550055221373934,-0.2831487934888717,0.22540069260470358,-0.2903191436650492,0.6690205037861185
,-0.3351699470759892,-2.1657808369398333,-0.4024994607143249,-4.381486753541041,2.239299949993469,-2.4865601081327156,0.13181321333463306,0.07080789304029776,0.1224181950241276,0.2487138314188322,-0.39985736272743505,1.3005565213442658,-0.1400901794158842,0.37056359394685273
,-0.7759364180229685,-2.281679428777445,-0.2788162482157427,-2.161079165588053,-0.7340394016468397,-2.739547052335628,0.019168071687663334,-0.08197006248116226,0.7028684648343707,0.9831395729270541,-0.815576838301573,-0.004060208774911811,-1.2419429652870857,0.19168648691899395
,-0.8526974224569666,-0.7099616066991236,-0.33948278441180413,2.435660337803091,1.514770919023433,-1.9874986540409347,0.4280541494633998,-0.22084875807702406,-0.10866894442602132,0.8821184292564652,-0.2825698794260806,0.003115864026895371,-0.5236018438082951,0.5180863849789816
,-1.2077532131190398,-1.3605300127933804,-0.15964504623806056,2.8193396667328177,0.47102568896750824,-0.6705591887812863,1.1150258232518728,-0.2025860478706878,-0.17990571762286692,1.7766754994773504,0.3035057992788632,0.41076452765142313,0.09328795579435613,-0.19265002727687452
,-1.0624622586369217,-1.5593146475304691,0.07791219491791111,0.48962398488900577,-0.1442874092172726,-0.6338473596065652,0.4834393312314366,-0.2539855930963945,-0.2693881057285762,2.2239942210206185,-0.5831840542560427,0.7533977823592934,-0.3330317071233711,-0.00177310911406977
,0.150990433050898,-0.3731832213075955,0.1108191280266965,1.465970848942978,1.3537908146802966,-0.8223911608590581,0.22274988370445956,0.15415753181913075,-0.47412275085190925,1.1258415604585217,-0.6318437925501951,0.8036275669817841,-0.46619778833167363,0.6814016941301811
,0.9634653567824935,-0.19731908671382153,-0.09019063902474982,1.3638025760929204,0.7414779741012598,-2.135004263755211,2.3905880912655757,1.0602711793004587,-0.1519287577909781,0.5468565453021474,-0.3666974316134978,0.05637727990167336,-0.11129681969295367,0.8517220451679898
,0.27159567510542343,0.05609457910838081,-0.367727834972027,2.3977740652228614,1.9905617961204032,-1.7605637324412846,1.550519755372494,0.6110527716625859,0.8385325072305772,0.19236245324012807,-0.24541257091403676,0.056285614465006725,1.4070983843028302,0.24009220666149747
,-0.4790447186729557,1.1645492996915645,-0.08650597817378686,1.0440672126626962,2.6153657168078372,-1.1595070240027656,0.4771897579492886,0.09105306462311474,-0.17588248482383767,1.350878442870779,0.3587839311875401,0.29512429053584754,1.167855734661426,-0.005316772605796853
,0.22394106646515827,-0.3350176292811503,0.09250074154859275,-0.4835165653311881,0.8467911458312103,-0.8448329091959432,0.4016620438089536,-0.5543870815958992,-1.098369804604226,1.6326238589081823,0.5038176115413708,0.6191071631861177,0.1126850930903069,0.07487664089747806
,0.7847826499511182,-1.5845798728256517,0.5435523134733703,1.0751057505404593,-0.5275091665313824,-0.918549000378934,1.8070635404978712,-0.4712355179130555,-0.8124082774192517,0.9733738121314033,-0.08578975930829075,0.03918110624614104,0.0899749413234707,0.6028277568522947
,0.4522993702902075,-0.06631920351749847,-0.12393503510152093,-1.7264512069579905,-0.21959655818060017,-0.2979296193737047,0.10795138038218335,-0.3177564252278122,-0.4196794996474683,-0.01809684353452147,-0.34346674064080424,-0.710718920787987,1.1788513241405723,-0.24619567942974036
,0.6693118192279568,-0.3332081127270438,-0.12527178248064558,-1.1152900512672255,2.753558689189562,-1.5581234612472825,0.08124794801777689,0.047199724609133895,-0.5094034985612242,0.657284512303012,-0.5155859422108434,-0.18494908314994024,0.1518130030972435,-0.024690302285564448
,0.04903668714250178,-0.6133328010937517,-0.24398024503375354,2.445081270076005,0.8434096758762551,-1.6155588347831589,1.4609095658168876,-0.002308483187161086,-0.3153381056111865,1.4397724932122435,-0.7415439301324467,0.6798057618542734,-0.8513329977790648,-0.19277249415431622
,-0.5219505397053807,1.157827260668523,-0.11902124558852548,-4.440866144522169,0.7372161684492111,-2.2597358014487217,2.094326754079193,0.06014293931223962,-0.6360907478244406,0.3205541555075148,-0.8790062095427713,-0.25180589861455444,-0.5395826656430277,-0.48680650435013967
,-0.6626266645626704,0.9582221172020973,-0.3789966665752187,-5.4042692389500075,1.0697916076977245,-2.7266901714726397,0.8416615340397382,0.15155147821158665,-0.6499419996135006,1.3796065279356469,-1.356825767446036,-0.9866768831429908,-0.2914187045143658,-0.20786035820743615
,-1.2144327906728511,-0.768822649921875,-0.4791814400677458,-2.3673477971034584,1.8036010506710012,-2.635495750801416,-1.1464801954243842,-0.3876487555703086,-0.5071751316356705,2.2279413596297784,-0.8053831498048212,-0.33635123897073926,-0.6311074737079105,0.05448750371514619
,-0.6383689781454077,-1.07434729659468,-0.24881516947778606,-0.38883632620973524,3.0466718472199203,-2.4557502672903104,-0.4082579056243633,-0.20810464223751474,-0.24732513506473527,2.248057642349053,-0.3286547730652619,0.06744925517627806,-0.2841708008616348,0.2959178229632364
,-0.3549719765624328,-1.1734086453391677,0.20275399499965288,-1.9262981271406607,2.767643074152909,-0.49224716635280835,2.3472208412635935,-0.13975680176710253,0.32587410583461873,1.6325309382831177,-0.37986407162131103,0.06664768633308293,-0.17799517934421247,0.43383938195845706
,0.06144640147908997,-0.8951056841495997,0.5434859337199799,-1.721365566027947,1.358026919454312,0.28268246622493526,1.926321273695489,0.3734100631669566,0.591440677237453,0.5076976003558227,-0.4246951600453685,0.685947536931418,0.008716801631013805,1.01538345030995
,0.11215790664557361,-0.1160029793365628,0.2014359112457213,0.032821420470512376,2.12645201685518,0.4977500416712006,1.6916904636741599,0.7683680540637831,0.12061191849195192,0.4923971065309406,-0.7822989079305347,0.33944855741394747,-0.40146773969775995,0.024939136498045546
,-0.04419280654611769,-0.5249936405919602,-0.11163516948169455,1.1891003511303413,0.5574616823424778,-1.1167378203124172,0.7808210126244202,0.7960341834152584,-0.0733926423314157,0.6576343334438164,-0.5051002841637676,-0.17534682710806887,-0.13803132964432127,0.3084698302825443
,0.20858824453860114,0.19751832063339897,-1.1096035525716612,-1.0569350832557887,-0.03909682740544256,-0.6816719556544916,0.9135600392953949,0.38191665986103585,0.4272401712514691,0.41794129696286664,-0.16622813309162196,-0.4307411936409787,0.38191515981408314,-0.31850817998064507
,1.4256132504968653,1.696277750668187,-1.1091567019706645,-1.6169217652229844,2.9361936839182596,1.2846398073080902,1.3375637200026007,0.30862249290494076,0.6237073390682115,-0.3673548768380506,-0.08405458749486759,0.09277109342291048,-0.4750511147373551,-0.43433391815731803
,0.9893086983190476,1.4490791938870575,-0.453163357101103,-3.285439031500123,1.7794871720533851,3.3447272674128485,0.7988825690333791,0.4611406788269432,0.27337274261414896,0.19697171854902557,-0.22409015060473295,0.3794677922194349,-0.29534864652741094,-0.33183729750918356
,-0.16608063804867879,-0.3819547273920974,-0.1465526515232578,-2.102673800789899,3.4279228748922166,-0.09259745769840759,1.002566516340161,0.5187590382613585,0.40078460177823183,-0.12966006371296238,-0.5441456098358552,0.6800535923936233,-0.27123057777605813,0.14110309106656804
,-0.3226076800378832,-0.3182950888916632,-0.38639788546891324,1.830143604569882,1.9741223020789866,-1.4969612804358359,0.43342185694224566,-0.06071678227908378,-0.08268702037979811,0.6620791904746831,-0.5273793180286672,-0.6562642062949701,0.646573514175913,0.058126403980654516
,0.35377859163860265,0.04698670560959045,-0.4933438753170499,-1.0304947551841261,4.096018432590227,-1.0726886600893897,-1.1287977927902986,-0.4503036851828013,-0.5807307124512756,1.9318352832505103,-0.6235248640801747,-1.1195194441960865,0.12026675341428107,-0.6729870052807941
,-0.5376927188681297,-2.6837667684788626,-0.16904886712017236,0.3564141237363419,3.1773787913401197,0.13064807815288623,-1.143172608196835,-0.3003960308924191,-0.5443668849387419,1.607306967353651,-0.8076934885487885,0.30677631534583916,-0.023156208694132305,-0.2642244848713918
,-0.8668409486747832,-3.0861520885530505,0.09746977944236195,0.5048635237185032,1.4860756219126012,-1.8423705842310414,-0.4504468897356655,-0.045335209497332496,-0.09643773343422327,0.20237304222831157,-0.5494926274923619,0.3428894901063473,0.8041956511888073,0.46488373728383225
,-0.4056518467106167,-2.222478791212844,0.4775364881941873,-1.052541432984789,1.257247872455484,-2.740500647679346,-0.7496193832797982,0.16722330615191966,0.30876827549281805,0.12269270822783336,0.36075606035259994,-0.3651539684089621,1.2310627616310799,0.4158811513773872
,0.6199113635555608,-1.0630263297917413,0.08865718140447781,-2.1473742987440936,-1.7816553133919433,-1.2259518397008007,1.4382009671916667,0.22796230589890062,0.3948685678189551,0.5487509868969032,-0.40869202481611644,0.6329213161729118,0.5562123494958082,0.06816714279807226
,0.07259430897905784,-0.0782853825779868,0.08589789979943235,0.6645210327304422,-0.5475718569280763,0.4539342969277149,1.1700065421034114,-0.5553721012723871,-0.05043694087633195,1.726076427109376,-0.7620771003933072,-0.2130914819275877,-0.5244809749905008,-0.511983218170607
