event,eeg.af3,eeg.f7,eeg.f3,eeg.fc5,eeg.t7,eeg.p7,eeg.o1,eeg.o2,eeg.p8,eeg.t8,eeg.fc6,eeg.f4,eeg.f8,eeg.af4
,0.8762959901577443,-1.0004626990597303,2.018118347749525,-88.86766620622534,15.615131060848338,-0.5114931053427111,1.4460715649888856,0.14847303701017495,0.07672112565452556,0.9528940436876282,1.1313639931081878,0.9131018479168975,-0.04426065635837662,1.0048730487334803
,1.7714460792249198,-1.8665900836073122,1.199261094494996,-90.32254461121747,7.81569960598612,0.020900496892637656,1.0106474068319344,0.6005696005495075,0.18025629605598378,2.3804238134370412,0.5488912784270127,0.6973566131121132,0.2027992300233054,1.3823163057531376
,1.9499704181247646,-1.3865008867624142,0.7933864699717027,-76.00861358059834,10.89521774998311,-1.5061041282136047,-0.7355625621009444,1.0592777852514423,0.21105781048725236,1.5910877913483787,0.8811249846370458,0.47688026614180506,0.26324990707354773,0.36920774957315233
,1.0996763586876357,-0.8817575371489069,0.30752100516764136,-63.30680645661222,-4.699377854704412,-3.8002353957372907,-0.677127182546444,1.0936228203050704,-0.14870614359314052,1.9288531692837856,2.2721798862906737,-0.49414691518251785,-0.19757110216769247,-0.36689952495987876
,1.0202629223881317,-0.9572311927253673,-0.29525011580504185,-31.561742700296193,2.864547846631904,-3.371533866664848,1.0117552808234411,1.80058427487106,1.0783785832184647,2.431591492006427,1.1046826883225134,0.34393831055801216,0.2987545100659983,-0.5937367972597145
,0.2804220971418132,-1.158519594459595,-0.25580039209996674,-22.895706867512533,19.866953176458804,-3.1025837930232156,0.0796866133509537,1.2996162285060555,0.5132850681631874,1.580710875680091,1.0319986829284291,0.10093974263431939,0.20046410816259796,-0.9731103678024955
,0.07907541864664797,0.1378697785651705,0.2663947402292981,-65.26416020686794,13.31438724107661,-2.8731803072363067,-0.7787041506738492,0.05180870806768156,-0.11396975166314532,1.702033895724796,1.8217629689591277,-0.3768209037842158,-0.35449826956068986,-0.3692906734501943
,0.24189451560445707,0.1385120858757284,-0.2757628296460064,-49.77152006425141,-7.8364172707456605,-4.35413626895401,-0.8392514720859771,-0.6782272915228399,-0.8670127476360707,1.4169505465328722,-0.16598781325554662,-1.007104867122832,-0.6778805807308597,-0.3354511565825902
,0.5489544613564901,-0.969189419628535,0.2084670156792235,-3.061836774549303,-3.7425540203441807,-3.6227933620880552,0.23032198188506267,-0.048371281732470746,-0.22254977800952755,1.784789851443554,0.17136496981529475,-0.5769015177747684,-1.0089280601503068,-0.24943464214127326
,0.6423078507997465,-0.9693939769396089,0.8154346350234893,-7.018003977078958,13.120447947915823,-1.3114272515945078,0.3054646491006084,1.1099595023940707,0.18245196238608544,1.340175216141924,0.5576802231537945,-0.09234790348895452,-0.4243423304975586,-0.5583829498525656
,1.5075197385525487,0.18983360893956444,0.39006403743949036,-25.48476632661003,15.610244329036368,-1.3332769834548246,0.08844143204964584,1.0090302849900379,1.0197627997110525,1.734736813249577,0.024859067284901944,0.5324016125901996,-0.02209104691496613,-1.6610948940138401
,0.6034227965494114,0.22493128568898488,0.09489657734250719,-8.267973101892975,18.644099884838713,-1.8339482426728262,-0.07158216563388102,1.1913611758545029,1.9981288473533372,1.944255061880684,-0.3343573860859267,-0.5589663847757271,-0.233221504041601,-1.2375578910498362
,-0.17554216397354877,-0.23301275698156274,0.21270833355760652,-12.962046160843029,7.985798001769235,-1.2562648819407063,-1.2822714944310412,0.4999603646729972,1.4117282911466222,1.9843725209046272,0.4542832008939445,-0.18383192400627973,-0.8959631779660043,-0.5552105807229849
,0.35778326889310635,-0.18828087982606573,0.3761497157187495,-35.97166619922701,-7.0595908731577115,-2.5960865531738393,-1.489687269166146,0.23439519864919653,0.3615824250513816,1.6846974313052316,1.11767077070225,0.3099710738596368,-0.6657260495879206,-0.11082622662502964
,0.33602061826614416,-0.683303749057668,0.6159356449927041,-27.84777470388593,0.9412810051581406,-2.3258529539809802,-0.5980748496144712,-0.26762062095960604,0.20877385145763516,1.2453641308171528,1.8469713327841435,0.22249829790213346,-0.06063657693656993,-1.8725659675619266
,0.5668886127063767,-1.0750069108352944,0.5158651657781853,-22.495348001693934,20.846819658278484,-0.48627919904662464,0.898041460757781,0.300067642027694,-0.5653915977224735,1.728719275099439,2.149066172445995,0.9152167882994029,0.5287809136792255,-1.9664647711868717
,0.26068937308384305,-1.05976291145467,0.8063586551635844,-13.122347872293338,8.502430822072144,-1.5119552066749884,0.4073723884902528,1.0391047853631261,-0.10342923825259515,1.503624768101806,2.3202982451238703,0.790959591658959,0.7436852698419705,-0.6310543467815012
,-0.3363574516059217,-0.9178269785921199,0.4746254827163759,-13.839919268760836,3.0667170249503743,-4.718156137124636,0.2888589497300574,0.5304592944155444,0.9360913878341214,2.5827715699709453,1.7902843744466779,-0.756430231822608,0.12831748439511534,-0.4026569315886712
,-0.6716096963784476,-0.001146842577144231,0.8367422266740367,0.3041819482540437,17.426741448214823,-4.744946349405086,-0.20386198847428863,-0.5465726034123066,1.1671270448371156,2.466791994012983,0.6880875970748522,-1.1127172623545956,-0.34825258950019955,-0.4863718528759213
,-0.2669711221350196,-0.3691635367727743,1.049170982927834,19.87701927137877,1.6099360904975306,-2.425760238983373,-0.2504033302606481,-0.34688988825018063,0.22079976301608775,0.7655927991209597,0.4333645686301401,-0.48938992110770657,-0.43217899133689325,0.4967564616009935
,0.5194405587390177,0.2319531110588153,0.24613551299094916,12.832440334537804,1.7676582240427885,-2.581342937735479,0.006513332545838149,0.8432560278154232,-0.6809970397600053,1.367763063646831,1.1974785465133393,0.21025133046053868,-0.5173594491173316,0.11563963655845233
,-0.4324898256631698,0.24402775810770067,-0.4312236973750799,-14.263430268993908,6.72220184153309,-4.058303261200448,0.9919000920007371,1.3805523511221154,-0.6028845010377806,1.6310974640259452,1.3715171187811972,-0.28875896266345363,-0.19188925025853237,-0.5641258809999168
,-0.2722223046496864,-0.4325382392948289,-0.49009827373768317,-31.456747995919834,12.984450625922582,-3.3839992829723005,-0.4258600800943319,0.8037218520204884,0.33496919644946493,1.4554023992194207,0.7485901814078106,0.383208280067675,-0.5007382936061505,-0.0726163698382574
,-0.046001480667885675,-1.0942010976092098,-1.6020652711097787,-54.68357421300865,19.16445820604031,-3.4838263660007227,-1.302070268765927,0.4860236911351512,0.686704992296647,1.2237655881972818,0.42386487532693795,0.8482250759935696,-0.7388860025123435,-0.024526847957707903
,-0.005868307932915542,-0.6961111035346388,-1.0852065720250446,-23.86014167542046,13.389213179275062,-1.758948530023089,-0.6581845569391069,0.23066885636355278,-0.38018449977758945,0.7110430608988458,-0.007930607495635468,1.6981924246680766,-0.6833593630058764,-0.05014975796052069
,-0.17078031189646103,-0.21120658600588418,0.3731118148207185,-36.209421373821414,2.8568297568835823,-0.899759059812401,-0.4710487665952919,0.17425305884061595,-0.12660338324475642,2.128471315564992,0.4993195852521632,0.7197902507092065,0.32294338852550764,0.0007020182719071562
,-0.48355312295338454,-0.6807766574629684,0.5878043651873918,-45.69086463190442,2.1102383423118054,-1.6802414719166703,-0.7346308329364574,0.13696062553481705,-0.24568962699088487,1.8276849507423043,3.147277113033462,-0.037244294161701885,-0.057206168116749695,0.1506640420304495
,-0.5523961605367139,-1.1875812790634634,0.8804204236107385,-67.76776910112488,1.5087974112658176,-2.679116442534462,0.5616803093324019,-0.09731070172589962,-0.7294777496149656,0.8229272031026671,2.4815219816295677,-0.4093775051014061,-0.6360547644479199,-0.03169477539887372
,-0.8717813845312099,-0.8201223321975637,1.6448960544169202,-27.567162558098698,-13.553770931122576,-2.850215892155551,0.33049836621195505,0.14251142191100233,-1.0059745456018792,1.714345167473136,1.4148349242169682,-0.5453121910483565,-0.7101702615787074,-0.7727597267685354
,-0.8367814654102042,-0.27625958723271005,0.723335412718258,-7.076374058689678,-7.016607717496777,-2.2518960158615147,-0.5321612859894963,-0.06518145022907403,-1.5081407425094688,1.4085457776553032,-0.057765178677713566,-0.4019817158882107,-0.8934376644983795,-0.9147285159964437
,-0.2649433843832961,-0.24083530773115924,0.5357351338865479,-4.1493941679427655,6.09766679115283,-2.9035030101259953,-0.39272878159679414,0.44933046329068005,-1.3459438658491483,-0.12032516514220004,-1.8813991986635512,0.11379152495616525,-1.2763024735117692,-0.18055476102032283
,-0.20582460443757317,-0.26290863701757794,0.06891469200191057,38.560200402873164,-2.003382799852903,-3.097907458457801,-0.8403288658678932,-0.22886133762677127,-2.109793387323407,1.161277940352406,-3.3434671343516653,-0.80855043607154,-1.490030256572186,-0.031706462384414574
,-0.7611933677134203,-0.0827410462540287,-0.20824985153170217,46.166623858489665,5.485500664982315,-2.847720808773386,-0.6533984637939272,-0.8008740001541357,-1.6873036001314894,1.1862557548806236,-2.3166164275129115,-0.6396235550417582,-0.7452665428382014,-0.3301266403935933
,-0.6799599406739453,-0.01325721740129161,-0.022320670095495477,40.44284009866233,7.916815223298315,-2.7515050225710573,0.43050924771860677,-0.5432712489616179,-1.3072921098858716,2.0296133823702562,-0.9593976696341343,-0.8882694808835219,-0.8315562191901447,-0.45641948391251264
,-0.1857217088593789,-0.11793896344986968,0.05661671882912988,56.0720077729447,7.690193989225634,-2.2323036230577626,-0.6346362703856762,-0.5080076104887845,-1.0908068630143122,2.7698431846473524,-1.0448523071464253,-0.9041457384534647,-0.47287398846967776,-0.31057053356418707
,-0.9010474344492667,0.622187061542646,-0.059955563183590355,-0.21392496472489445,-4.67396068731709,-0.4666096058646448,-0.8883817948118657,-0.11975321450533,-0.0434344226095921,1.8899915025065166,-0.7132496024249297,0.0775517500304468,-0.7418657991102183,-0.6254312607929068
,-0.8998837988051059,0.5555453538746241,-0.251022419795888,-10.77018413782665,-7.893019497723902,-1.7537275062535773,1.017497315613237,-0.37059514938733623,-0.36714704543344734,1.106156361155706,0.6837933439401785,-0.017610544562569875,-0.7423773914747309,-1.1741928149367562
,-0.0785197245981124,0.1644152483062638,0.6478519497563154,14.050462591910433,-7.589946406538094,-3.447829775334303,0.10420991981727258,-0.5222834375300102,-0.4105308544125046,1.8166587433388355,-0.44901240329197845,-0.537885807119972,0.5063698372516019,-1.1881596491902215
,-0.13263884924513175,-0.4948468729053802,0.6841956511390097,-14.361307151109544,-8.320145906991097,-2.210436640094304,-0.2807326362112895,0.32961574101370195,-0.07691547000865602,0.8346134120244407,-0.6733025256310097,0.34459414472366473,2.0056813737704777,-0.19388314203535548
,1.0474793571193928,-0.31250522071458664,0.7927217684022574,-11.62715767129009,-0.6470507342342305,-1.0490095363101128,0.22354991767706167,0.41332867470987755,0.19086549599371117,1.192741618611906,-0.8002960701097446,0.22514791404659826,0.06376423011650262,0.14055299214388928
,0.8479199068610461,-0.38081240564118823,-0.05644126210754744,38.782272073173296,-4.122185862416314,-3.5291131854532036,0.17874040310098663,0.7216685228159285,-0.7773846100156957,1.4257522482064795,-2.0278752949037835,-0.45976371363262153,-0.8714872662103981,-0.6820545102752765
,1.2615045761104546,0.16190466740402662,-0.27526262745157715,6.94001783589584,-5.260678940350045,-3.7239528228670196,2.134943239235682,0.2796859888160829,-0.4535785925878016,1.4544851669678098,-0.5025787474026787,0.09637426906315885,-0.403394952273337,-0.7567491063410945
,0.282042113912367,-0.21806134746426353,0.10241188045868034,-2.5780413755688394,-0.3434472725403883,-1.6858971426041907,1.8307204896385751,-0.5640070612939045,-0.11784440979004322,0.8937104837713228,1.2299677737913137,0.3305105916916602,0.20527968479031686,-1.717524582995949
,-0.5430070243997063,-1.1499357645100992,-0.05416311943996352,25.145244355037065,-5.726401986677079,-2.8911978017229276,0.5342576493487831,-1.2890905934913919,-1.424620414572185,0.4934250284986158,1.643493591042957,-0.5882423674361684,-0.5616132367098853,-1.6240523089479841
,-0.31971490460742313,-0.619503839698402,-0.119397518930856,25.980391589081204,-2.3858983840805874,-2.5164104068663082,0.11494121624226329,-0.9163385450062508,-1.4948941409205994,0.928890198782932,0.6939371450873625,-0.5386174878828194,-0.32573156228619266,-0.24026833063091033
,0.5409951656048122,0.013575980029811323,0.22622264501425818,1.6504502378595636,4.021117477849804,-3.2118077622826426,0.9481190225713892,-1.1263433295086918,-1.4907947771882635,1.0208868627930705,0.11928020077065088,0.41081319375335756,-0.004199178361514669,-0.3156567935334319
,-0.24639844081306425,0.3505412154705184,-0.35846853452801436,22.957837186759825,16.66424605709545,-3.7773650334071847,0.7019880375300042,-0.19297191307748723,0.22450711022103517,1.0541695890430955,0.1283047392570167,0.43430498189228756,0.8976094078159386,-0.2854178497601329
,-1.065345026257298,0.44815023287765793,-0.5662560538155487,14.865376307667479,22.109852821781406,-2.787251365769731,0.2397280170706792,-0.1711319805696859,-0.05543841894203883,0.8929853789551874,-0.01154227811216273,-0.2572825507326147,-0.24892114485375255,-0.5385053493950274
,-0.16494781233767022,-0.015184584604466396,0.37497616710938303,-11.784198825404928,22.406687553185332,-1.7566166522061213,-1.4378354811415988,-1.0041627547439946,-1.4240160711702947,1.2558542466814129,1.0537004748118735,-0.8282048870198475,-0.5492227310302537,-0.5964698498660412
,0.26852548953736594,-0.1639576740021702,0.40719569120361887,-45.58716167823997,14.43590969956736,-3.4269717690090524,-1.7917946662540094,-1.4965960544858654,-1.7867550824212517,0.2710146524363128,0.9928550311902297,-0.9527655106918127,0.3458527537017538,-0.5342901889203828
,-0.037376088320191514,-0.9626902747070191,0.1978186466749033,-82.99739736637979,-4.420114837182089,-4.292020493103912,-0.7613623358771691,-1.4112546405799427,-1.5358991686773222,0.3937432072555322,0.3125181386706708,-0.94845340191945,-0.5096987789522376,-0.6235355818226715
,-0.3508377769046571,-0.5794491766433031,0.08180920048691637,-31.176192183459747,-1.7696097235693664,-2.8781456309999025,-1.6247350834814824,-0.943024432714809,-0.9790820581124727,0.3347308556530066,0.27457385858647665,-0.3933201817424197,-0.857092316571939,-0.4636774445512007
,-1.2367904406110193,-1.3562197369817917,0.07837687322235708,-1.2305846985010818,0.9303344475972313,-2.088151731843042,-1.2920867561828642,-0.7264218496356186,-1.1775217257193182,2.251554928924896,-1.0390307101598877,-0.1862217944163156,-0.834758309321202,-0.09826748747441359
,-1.464689582547829,-2.058202853550254,0.20534396930655455,-22.55769117555469,-4.669856947454309,-3.4876393788363287,-1.1848942316741435,-0.39668035724369977,-0.8377982703249114,2.866457580988707,-0.48348227311787356,-0.4115551566901288,-0.5478457565683689,-0.23986111414074685
,-0.254255631174944,-1.9839398022726145,0.2938759484280783,-36.353297249417004,-0.8043991576636618,-3.374771202532258,-1.1978154977722735,0.8317416274751634,0.41202423186118126,1.8097077340011598,2.5272729394560156,0.4395254921940317,-0.4201710077959218,-0.4204121170704269
,-0.5549663666465683,-1.1654622429342674,0.8092863648169704,-26.782774440382124,11.542562557603391,-3.182639872756066,0.1157954277480106,-0.07545112573412094,-0.747479719100916,1.9591665807011258,1.1297358931189565,1.3458228054138617,-0.13058941733156104,-0.23007720481844582
,-0.693612334347465,-0.9518990055813484,0.33150264457986645,-8.530207223811649,10.636368512253348,-1.7499190457913643,-0.4088981647534855,0.2616223874938845,-0.5729581972951912,2.205953310529344,0.15443751690727012,-0.33377623115132954,-0.2554455167815229,-0.37738884948523227
,0.1318013167328392,0.4387870868825425,-0.6400425269857287,45.28821387391097,-11.347671416195258,-1.122552784865305,0.06942678924508215,-0.2170984519474419,-1.1259298641634647,1.2361663860181102,-1.4168919349029911,-1.5456309310239258,-0.5383212467145889,-0.46895794877671004
,0.6827116130800787,0.5088814880765486,-0.9720425961879948,27.923384184628112,-9.895388166846752,-2.804754184678353,-0.12239220014263799,-0.17362669262633199,0.02182788051696489,0.3393852317244392,-0.8440121174029898,-0.9981711431474191,0.5322662150414225,-0.12762182955225312
,0.2572428139171653,-0.9651825371941634,-0.03868255946721572,7.754179721997765,3.227485380323584,-2.1131484304243995,-1.4099866240116197,-0.4723116593454784,0.0044473845379413846,0.7779112267641576,0.23703861657331282,0.08973847514111127,-0.012561360866221912,-0.0532180490320997
,0.246650841948963,-1.3989445216152325,0.4208579590067063,12.207021204885782,3.660823524689684,-2.407047626027285,-0.6832992491324185,-0.41333588339206756,-1.0571633088764056,0.7887205536510862,1.3161882373090912,0.20315310717738386,-0.05495010873150591,-0.34520157424849723
,0.9630611158177985,-0.5118935301246984,-0.5241310305256728,-16.522222485025146,-9.366261695212234,-2.02242465846057,-0.13314584787597444,-0.1408091136700863,-0.7638955776113949,0.23021859439565892,0.414327960429144,0.040510486019632745,-0.5604749742541058,-0.01670555687685619
,0.10881732762297423,0.015546543033798502,-0.6857378646855122,2.895909148542288,-15.489492144992216,-0.6936652906276733,-0.20589373788453263,0.7021277333708891,-0.444822746078089,-0.036886201954802675,-0.3382557578602411,0.476506085135935,-0.39687028913461064,0.07068846027933089
,-0.0012015436632129626,0.07172358829603803,-0.652850901629274,16.403804387087494,-22.539944968275446,-1.5636407229173972,0.3643335421485095,0.4452761601034603,-0.6025661202370585,-0.00761000623922509,0.6970552432713413,0.04598141872162455,-0.8273709028055424,-0.2150652414523299
,-0.24942106631227906,-0.18248990497563589,-0.24557170587086127,14.542455443302638,-11.175001422630386,0.27029581136712966,1.6110587124801408,0.017097638258528836,-0.3404320891035457,0.2946081739969045,0.38827605017188727,-0.350410439285644,-0.7740896365589047,0.3516726105986005
,-0.1129941743985437,0.17618769786696528,-0.13520051874109992,26.849263984765905,-9.567248870409772,1.757959314860645,0.9547362464677382,0.8924766172989599,0.9745751865256196,0.06415594254726091,0.5712796278720629,-0.20695878711676158,-0.6371284335445186,0.2847878587296886
,-0.9086363766552288,-0.079235722365592,0.2684603725706052,-12.353324693520756,-8.699047979779177,-0.28868826122084434,-0.023649619897903793,0.3221548830403261,0.38945781952806147,0.8504263369077965,0.13895155751882876,0.4870275073026541,-0.865847517485099,-0.4981219533487683
,-0.56212436424019,-0.9308633339855816,-0.1292244285067271,-87.834492529532,-5.145510438343038,-0.10601977967912363,0.6189527523494955,-0.1255235572019675,-0.06262648483247965,0.9499242142742852,0.23699926578114458,0.2034033887738076,-0.5819826807793556,-0.5709919889043594
,0.14052654279540405,-0.3079064088038939,-0.3062180186025552,-11.56135794955324,0.06545359807809839,-0.5323446119350972,-0.5067213871897172,-0.00904436753029732,-0.758968568630887,0.5488948433850519,0.5595491087416147,-0.5162486514981652,0.055316460704138634,-0.485621704658123
,-0.177616565950876,-0.12461836161193621,-0.15139271012996627,12.7444947156192,-1.9070047563624133,-1.7743628575947987,0.010545928120977089,-0.6819149837556023,-1.3482589933077884,1.4240142477646704,-1.038144184316922,-0.3701374023992602,-0.29077404135263013,-0.11689674677271965
,-0.9493225675920791,-0.38088155982795485,-0.20793347867124978,47.71092108629059,3.4672434703276243,-2.2228052561814757,0.1667159140657002,-0.7959892387904728,-1.175750288403428,1.5491044810721277,-1.043499317793193,-0.2026214571294425,-1.0809023833587237,-0.5349081931148765
,-1.4085880083309814,0.4397081443397938,-0.004181265093143631,26.801458727937565,14.660979641134302,-1.0192483529870935,-0.07066294351659007,-0.6583022286598689,-0.8394576918908702,1.536670176363911,-0.834683369041931,-0.15496885608714656,-1.4803919934918615,-0.5767161427311195
,-1.0572816974762889,0.30674866295942155,-0.09171223501849743,-1.0001090977564975,9.38726675767576,-1.4193462127899723,-0.6305483013480961,-0.5494831050612641,0.6861234919960535,1.6465874840128059,-0.9717708430843466,-0.4170183009095923,-0.6706737785401448,0.3743307223468433
,-0.2740444208288406,-0.347993211261487,0.607989685999278,18.714594292591244,-9.107065615133004,-2.8399340417695864,-0.25031011175835893,-0.7321096816477584,-0.002529656925553567,1.3543073357227415,-0.4992728034381953,-0.4954984463248815,-0.4158865940018907,0.10171380570101657
,0.12596458048613549,-0.45760197054218565,0.41765833332271823,70.11329789833141,-12.502915784360708,-2.2350528839762314,0.06752983127303475,-1.1552751722727919,-0.22709004182806206,1.8875813075366805,0.09321924662227413,-0.8526787064301795,-0.0949527063606876,0.10475884237070665
,0.25601285275832064,0.44685763796131917,0.18498906414182592,55.30054065389548,-1.397962103077972,-1.1221614623798992,-0.5673868588886838,-0.368573817225323,0.10968198754652562,1.1956446567358059,0.6357078135646775,-0.1622548946841507,0.5117698921345508,-0.09265584213472026
,-0.4313755933595256,0.44948739331643783,0.817244167201653,7.7902148795071495,20.846665274769627,-1.7509800896873045,0.23455016279969274,0.22448083469874283,0.05323234651341559,0.8383492587144128,1.0809281355130924,0.1877344713531559,0.368377814503557,0.21377682076741994
,-0.6342000401605798,-0.1425612134065365,0.16336070716217066,-54.97896060745034,17.099565320436536,-2.172919133273031,-0.6975028944869118,-0.7631958690939206,-0.1408001287779484,-0.25067566620344667,-0.6051792871051098,0.07517546940310121,-0.09642864675173847,0.04451007649252962
,0.1973887991349139,-1.0696803657681961,-0.3050857797953022,-83.7822613959481,4.389428195619647,-0.9127521196759114,-0.7746138270887,-0.2271994440690353,0.08130737722329288,-0.5221314183286907,-0.33463756913894166,0.633057388325539,0.5275487482342335,-0.23070310997464277
,-0.334575555254939,-0.9749262678178723,-0.009351482983452997,-27.083468241603917,7.80478717327686,-0.8094168812455582,-0.5308706010399227,0.38772317106598414,0.8517871400566274,0.024345796752699513,0.20161932471288738,0.2233167365776126,1.285030278690235,-0.4901259631461383
,-0.33851224220247805,-0.5766187422840475,0.9222113097541665,-7.990274058851198,17.50718556466973,-2.098937980404116,-0.9001305297924728,-0.32000628565755124,0.8403613194007913,-0.658262369947182,0.39018065587613726,0.3245911151103183,0.16096941460605266,-0.14676130576353
,0.21979136250805242,-1.4637417870848588,1.035747020098571,-25.288064689307387,10.555148003176011,-1.700315032118795,-1.188322077532597,-0.7084409620787837,-0.0371854520443503,1.0368865308742041,0.5964519201796008,0.2822508257958756,-0.7090498358542073,0.3451498440538959
,-0.3239465426718706,-1.2391375100064734,-0.20262102404872595,-18.620339825526997,10.208677167241255,-1.1629509436365784,0.0858053698445104,0.23550064767318402,0.3941409922903595,0.8321777580062321,1.398918718552387,0.4995134718686643,-0.480210279172616,0.09673443808373959
,0.3137339151560001,-0.6082290211397837,-0.38583100398867914,-0.08592606614732483,10.881898188641351,0.32715361368925433,0.4707100681187635,0.6614458020217195,0.7304842938115246,0.8209397897282448,0.34624398638694864,0.12201419652484186,-0.41001598570362136,0.21263978020228025
,0.3098251995401593,-0.4911307012588751,0.2660344339652552,11.828241708388932,4.991573213738681,2.208878944698835,2.5725491016622,-0.37000921789380314,-0.10294462466233219,0.35253453100420185,0.05826355607444419,0.5867827720544653,-0.5478497714219743,0.7334343840137023
,0.2842138048999715,0.14903878279621446,0.6087256034281224,-15.814948094649557,2.4034982431575624,3.8399428513021574,2.304935450907138,0.2860991453119827,-0.592839227330238,-0.8143771674370535,0.4621202382412309,1.029115280921296,-0.5343346504831603,0.006354343296588525
,-0.12315495496414283,0.16664745814660928,0.2415310384950501,6.322978688745878,-2.2202642247873565,0.7416250447131902,0.3100889679553572,0.4850138716712226,-1.160674957452899,-0.6723559072102346,0.4789297088641921,0.7028483917568616,0.17632839484025684,-0.2398397001170705
,-0.14258847375518904,-0.2082627641446209,-0.14476280469605787,0.6666134945795154,-9.008587921755861,-0.6554533639525305,0.2784466702634885,-0.3852147953670228,-1.1683226804052032,-1.341963449347473,1.243762984662469,0.5761107195940552,0.45277198105683153,-0.3490059364138592
,-0.14130673048913672,0.6147765123896107,0.3112213683196206,-14.716553712758586,4.2128843728846554,-0.8134441751306712,0.7294148207797339,-0.36726071704539714,0.6136041644786304,-1.062458797358923,1.659285323122921,-0.026145024289905932,0.4826316154807009,-0.6360288210773785
,0.3912995307550735,0.3214573484354723,1.0727695144236682,-44.59044919857945,19.15711721309676,-1.0101338637904231,1.6292470523161389,-0.4751353622486946,0.003085942148718042,1.0530734400398922,0.7128018012239465,0.4199760133399123,0.34388577975877677,-0.06307160078121482
,0.9133908741581548,-0.4790013765092371,0.3990802994354256,-32.457175989750155,9.47419207517751,-0.9270860023186615,0.29821136675617727,-0.7126886730248411,-1.2085091309428844,1.0847616472428816,1.0051577033671804,0.3935701740731945,1.7327294971170888,-0.02693000494227377
,0.3382136237238207,-1.0134263688090028,-0.0130626901076475,-9.547865339547778,6.289116293681718,-0.9329482452583916,-0.371990893073008,-0.01213610216438891,-0.890512290942121,0.028268458739689622,1.2489285859510808,-0.23980019090091934,0.5657455916863642,-0.08401851944649855
,-0.5371400598879844,-0.8705479228841265,-0.20251080855162654,-39.85104548970498,2.2835858855999276,-1.930973903381617,0.20977283944715353,0.5626920338330219,0.3822615661045416,0.151032470084328,1.5970258781210218,-0.42356803996758613,-0.014546149576987123,0.026547810545149705
,-0.4985201938047401,-0.916875518531665,0.4651670522378294,-63.669719391358214,-2.7276234074815657,-1.629267067211485,-0.3725602786660516,-0.18967259776336945,2.3118005146284673,0.09195834194087685,0.7582224632299109,0.00728649882629368,-0.359087064752548,0.46509175432752403
,-0.5509400175637174,0.22136319755175243,0.7251841659268994,-56.72429420172182,-0.576758198173478,-0.7764407434046423,-0.8253608337751298,-0.8695995915964769,1.1723781906991912,-0.24821686868395604,-0.08615572041445663,0.0019406183428291584,0.3326550298938921,0.00783012818503801
,0.09376033011524562,0.45078947402347064,0.795543839345868,-54.740175789753785,5.243863191357828,-3.249586667791489,-0.5570045892143785,-0.7136172682220643,-0.5480120434309004,0.5943067345785862,0.13119692701136101,-0.5657562524161258,1.016651692427015,-0.15287388999921261
,-0.6769221404367902,0.30057801091527536,0.3817930281136348,-16.038693979124435,6.99282186582478,-3.4319120026635397,0.1495494320860619,-0.13799341561999745,-0.47060508274672885,0.0832437468552019,0.5570279722968781,-0.7285520722931511,0.41606788698205127,-0.01661919225389309
,-0.5598912208229894,-0.3817298889719471,0.18073644775271605,-0.1657030833884984,-5.2629487628989216,-1.3198924689692195,0.4843620698671545,-0.3265617131613787,-0.4575013637628015,0.06462294524661896,-0.0024786076428256836,-0.8645824403757462,-0.23692220395148197,-0.378037060755947
,-0.17863587822787258,-0.4292074820839433,0.5161778198788185,-17.904752661447322,-10.525704371709585,0.908229234565557,-0.17008651274538475,0.29761269794283396,-0.7459280929999067,0.43585357531317614,-0.7077279593189478,-0.17802751037222073,-0.2815437506458009,0.26504346428531
,0.1657674169572844,-0.06100373295833819,0.14670874742092546,1.7621577668784305,-18.596968905911144,1.0080427194774784,0.34378501837828335,0.1846558149783692,-0.8548955270891433,0.9289121897032243,-1.1833042656620527,-0.6044541872243339,-0.08563906909415273,-0.03052763726602356
,0.5808051250636093,0.4534966732769622,-0.1638564969316081,27.39228942165115,-9.656184323542824,0.7848536103112984,0.011446728413946079,-0.9450821298828026,-1.6710898321422023,1.1202134916161235,-0.8469746127930747,-0.9220428649016806,0.19977818976854037,-0.10840740460340366
,-0.3149234462915726,0.4101987139913459,0.13266927292350852,50.54101092504927,2.4615016704366113,-0.6935840605307804,-0.32889207049075275,-0.5837620760605869,-0.4757039110632986,0.12566547230845376,-0.00099419542368908,-0.7323129216796163,0.3572723676928507,-0.5167762688384425
,-0.5143183685368149,0.33319188507047715,0.17029618637787353,17.016125504543623,3.0601326973249714,-1.4255736828273857,-0.6026434817437439,0.3182594431494195,-0.1971606442134712,-0.5612897969797375,-0.800971881935959,-0.4109781641842206,0.5516571932720193,-0.3536264860489186
,-0.8842371760981264,0.8314137706870103,-0.08818143058077146,-18.471305943353936,12.82422839505313,-1.9187046078840735,-0.20282135221859604,1.1474108513270747,0.02845491438275682,0.4781423206644532,-1.700767313600141,-0.49905791667002813,-0.2881335473195355,0.2542275203227147
,-0.9159652388678584,0.5350174001559489,-0.4705615132359875,13.773732685839242,19.629447507206006,-0.9709553352867493,0.2534395313603438,1.6516059999356607,0.8257301812098943,0.21268501753153435,-1.7489113547119524,-0.2738109795014181,-0.7640106911746659,-0.2902456132395813
,-0.30661779675864187,0.2914568193928528,0.11851799887073988,6.24148929904204,8.880159431433166,-0.15086149803424478,-0.5306805657773613,0.32143294868345695,-0.671174726176606,-0.5071148672772177,-0.8315889970719111,-0.16908989621246334,-0.09132358903510752,0.30491629801362635
,0.11017759746939666,0.591467533803713,-0.09862421507537734,50.32374707166572,7.012128678285564,-1.2094020076898273,-1.0597073139037794,-0.5945297047221576,-0.9701308072607088,0.37274334439085516,0.41195056471153346,0.3020512653165767,0.6777628351858943,0.27987991618561253
,-0.06897030499195629,0.551787629661602,0.1974506894406628,22.663566394525347,-9.308001800493683,-1.5734306689439506,-1.1864156257262197,-0.4987425098037581,0.15061031549212348,0.4694005441034401,-0.4996521943655626,-0.34883099680641705,-0.35516000000919956,0.25988927036627557
,0.6013465328530248,-0.5396776466606706,0.20426609262368353,-37.68936146961008,-5.305810702685672,-0.561612615687759,-0.19724821110732718,0.34515750673449747,-0.6216515737077623,-0.3823456557309366,-0.34799148649164213,-0.02602707849840669,-0.5332351796290177,-0.004229769426877852
,0.5481667082476871,-0.5950943939891572,0.0026524606022660007,-18.17740676490066,6.789931137143273,-0.5265047997924592,0.1854327992262852,0.484265976107507,0.01676504250144648,-0.2455035607291089,0.18882892451650846,0.43649145004835455,0.07144123682824569,0.20268393601978044
,0.7500012562039692,0.257822789207312,0.1659665354426361,-47.68297465679295,9.409645869707255,-1.4243304806977017,-1.5120476056735148,0.34829569936363486,1.8925063866066474,-0.1274515937151065,-0.19136984438405402,-0.14789032735361288,0.43437902829051667,0.2645282999604275
,0.7536915283566563,0.36596614272197525,0.7774489307913284,-66.6384904737291,10.244447526259805,-0.34205941163985293,-1.5827640512183534,-0.30398834992345525,0.6105815249445243,-0.38611286557209734,1.1164742863659742,-0.2958271872453849,0.8756094757078963,0.2213868509215197
,0.5079143590106805,-0.5406543263017523,0.7064770337516136,14.658589406167916,0.882847123049606,-0.17266712309791865,-1.0282553378323676,-0.41650883192184657,0.15745290621081323,0.38537345566820624,0.2645721853545471,0.3447602435127043,0.32854423870915295,0.027597882880745748
,0.5651167707889261,-0.4893685395983214,-0.534508701434141,14.39453078720394,-3.182490686001193,0.16267334137973166,-0.21594889367417872,-0.8911771910083773,-0.9819781082919782,0.64391622125786,0.2834228374916533,0.46769403194698206,-0.4075785800053757,-0.22199563710772244
,0.5391882601755004,-0.7962571425494643,-0.562791465519223,-8.217223759844607,-12.944693953117199,0.5730636370777089,2.0829764488828433,-0.3226540435173757,-0.6308230434577031,1.3624001798558616,1.7673005563776367,0.7937164894107492,-0.4483570529899236,0.004104311807724102
,-0.8111109940477602,-0.24257326504900006,-0.6260487769530029,40.508188731441294,-12.209182123910884,0.01782886109018085,1.8410170967775634,-0.7324577104767988,-0.8705876537911827,1.0753996516420903,0.4629374461445162,-0.32296131430656444,-0.3228158033507861,-0.7500263920291276
,-0.8447409751389183,0.3622726996871179,-0.7144966897809504,74.75191378349795,-16.74486965445029,-0.054913216516361496,0.9767058063449471,-0.7202461787293858,-1.2172849812661175,0.5450176685150684,-0.8610299280893041,-0.8593519460841149,-0.27306728722363816,-0.5626396974486707
,-1.2041495376904268,0.7187086006537429,-0.4949769289077341,53.74380832908548,4.852636905939666,0.5998528399378924,-0.2824658252967814,-0.5042608172797245,-0.9776410497508174,-0.8187098004564914,-0.9187959639335322,-0.2105713168354381,0.07835612195201966,-0.19345253739179188
,-0.8362870036029735,0.658419888229606,-0.3684319882815137,16.536297465124026,1.3030050068411025,0.6340695465231774,-0.006080355790380536,-0.16241916348209165,-0.7343671246562254,-0.11517544823020481,0.11368660934430176,0.24861148095711347,0.6400008652854318,0.11182647344205311
,0.339908305654931,0.15538318972149934,0.2219475359142598,-42.4242390610963,-8.722534872507918,0.21242671006671687,0.4757977687357536,1.1278836210741132,0.704282390301626,0.1640127271242755,-0.08878835050956801,0.9231461720472834,0.027284848291734186,0.5305323922877228
,-0.30318783068371763,0.1437462712308182,0.11428337434269945,-39.85960912228364,-2.382576372587702,0.4286645363392128,1.1810083324596339,1.2775931877246014,0.6854001836389308,-1.3136477600642285,-0.6431526881884194,0.16672080082391502,-0.6039734006729005,-0.12754203693605143
,-0.519496987565631,-0.6905951253212776,-0.25352930891005354,-9.45498982583583,-1.6495933728260452,1.2974386779363538,-0.33620649758434185,-0.18854469844095978,0.6476331904982204,0.14192964302506428,0.8885918681220287,-0.8527043322419611,-0.08222384865432956,-0.1913369315863952
,0.2146683709179428,-0.6673575171249452,0.7379041296117839,-36.37695301973003,3.1260649861493084,2.182088408907498,-0.5097672561407107,-0.4980032843353998,0.6946474588500444,-0.3311971481568142,1.3942858049928961,-0.38976967358451337,0.2858387095937204,0.013614211940973732
,0.8803469796691729,-0.0704710078716003,0.8770548067063079,-1.074615799769718,0.31943936656586325,0.8786305981283506,1.451209755937949,0.2772975440178633,1.2900294881048326,-1.145619753182047,-0.7607702756756504,0.21364311460661944,0.46252807290033277,0.12050877133975614
R,0.29312604617553745,-0.317684185461396,0.5292433490734256,23.340829639010668,6.147064851428701,2.9060953306110373,0.8772871357736899,0.017358848210556825,0.7104810857366257,-0.2485427552920567,-0.7214623496761404,0.49955087018576005,0.29527908687025517,-0.07884038540802199
,-0.1519709854717907,0.6315060742970924,0.31801375261019804,30.869570887577357,16.333353022621964,0.4589296641152802,0.43277403625420807,-0.4211081080508812,-0.13872613281592744,-0.4232076723043349,0.43370428887763385,0.27796070854435295,-0.21711783176176222,0.2491407622458842
,-0.5509080733029474,0.6001854149951229,0.5215651008252206,6.017858617226424,-3.031552035881576,-1.224867591850909,1.1143889782974807,-0.13651799294429356,-0.4359969940671999,-1.347655523369434,1.9604410567467874,-0.9563695491053704,-0.35139754095910003,0.5684784003676803
,-0.6878736117021352,0.3696231375909509,0.07482574062653949,25.662655658426733,-1.0498081225838556,-1.314701322432579,-0.9558468497275626,-1.3617697309046095,-0.5856769369143643,0.12172593053787899,0.18521711458723597,-0.9569339636549385,-0.6617135250006677,-0.39828935730084525
,-0.9181204295983401,0.08901158943716461,0.5240273403788449,54.98327161039478,-4.219981698604034,-0.7228873267774687,-0.5904885151990092,-0.8862703862387296,-0.80998160595114,0.27541449558221437,-0.07366984708304601,-0.33770406139012915,-0.8710092834546901,-0.3493107450719443
,-1.154192124088401,0.06496355857619847,-0.03541296203297426,49.942041768380314,-18.868807676515665,-1.7017695953327157,0.7714883337187164,0.3214375449596027,-0.9339266891783816,0.24551920470702768,-1.9040913920541311,-0.9504332418951542,-1.064313955582062,-0.011671813436385074
,-1.3391688210649193,0.1089483599313935,-0.07785919471430362,43.07765486425677,-9.039318079304586,-3.475358166091264,-1.288881217888925,-0.6893491855950916,-0.7512984092841314,0.6495687264295529,-2.0699321724745467,-0.8012130240273424,-1.3914940781283025,-0.765369479077491
,-2.3678955678378326,0.30449716483779854,-0.514108149961939,18.72748390207869,-10.110659661748125,-2.3222416565910717,-1.3172310772959044,-1.2163910876735646,-1.0257169624014735,0.8137636895964303,0.4588622417257379,-1.2867117349740638,-0.6136205960235097,-1.4247549413611638
,-1.6191212258663574,-0.13619924701149166,-1.1009143592822108,65.47179079703825,-18.53090623275717,-3.1306812833154334,-0.4344661028928893,-0.41612897802470544,-1.0296621225347724,0.47389268161172154,0.11671993686468436,-1.591102258904263,-0.24673603302517647,-1.26337490531246
,-1.1985693334162624,-0.23963136205037341,-0.585499599547865,30.15735770676179,-13.470897685980894,-1.5614944340366628,0.20913254498111028,0.6553608731211161,-0.1343989516042078,0.2903631484205927,-0.6906051550740092,-1.40616868263984,-0.2952373162639423,-0.7961675982994004
,-0.1363068236696447,-0.6369090935695416,-0.1322934957814321,-22.506613665927237,-0.5242270663191195,0.050216115374717395,-0.4375244991776721,0.7126828231072082,0.043699284431304136,-0.055018490870970195,0.8178943004484354,-0.35986328650008936,-0.776771133377156,-0.6171659079869165
,0.2737650671299969,-0.8859972066742736,-0.11235864316490467,8.012218398528631,-6.592598150713419,-0.13924033565856975,0.06990772056547487,1.4155841592363856,-0.1574326395291377,-0.7353346467024692,1.1030719769665502,0.7963331775016588,-0.8159246946210684,-0.4808911664918388
,0.15105909939246884,-1.0666649914438278,-0.18505643255050125,-17.57290387964652,-12.798650346238668,0.6049906730900819,0.47556620394093285,0.7522063986309899,0.6999283961007543,-0.16729443345479417,-1.0833958836599284,0.7067329535045611,-0.905369043737362,-0.213491997879971
,-0.7801444182875229,0.040179314818360574,-0.3669403822888474,-15.634337488405533,-8.95993581296575,-1.1555765845902903,-0.9560352672716602,0.1853431223790416,1.2149841800520313,-0.18063896070447644,-2.238631225886863,0.1989482871252793,-0.9861639010241668,-0.6478437458853005
,-0.6983925013504375,0.9133273108241287,-0.07741688993234176,37.06347041830825,1.2265522356740721,-2.0344063092670037,-0.7430381077876077,0.5409893615138952,0.6246234538185357,-1.1412910218198735,-1.3427862824367869,-0.8857241946385478,-0.05618945046276069,-0.4271928963256327
,-0.7038087046357918,0.14590798982126382,-0.17077162643876273,36.001737694719885,-0.45085995460398354,-1.221812187716079,0.44787872227272923,0.35285756104626925,-0.5426887934928224,-0.7723986291157675,-1.5764248201806197,-0.2904789281272172,-0.5508017070512601,-0.12572775664382024
,-0.4682872869902753,-0.6035852300219604,0.20572207256861547,6.718501020908157,3.030711095171983,-0.17511312326330639,-0.20898360614400863,-0.44315931289179616,-1.0164106819748697,-0.3170670635703168,-1.2043821545421198,0.8623195274680436,-0.8015139486757661,-0.1102018081743192
,0.09672495953203838,0.1736377228057454,0.14517023400293713,54.345223713588666,3.838888544817063,-0.5056023508600702,0.3576443600208244,-0.4103442005945867,-0.24872747628480094,0.26234178047131523,0.9216398989392561,-0.3558470290101272,-0.5951863406858652,0.06421284902057142
,0.12816126147309403,0.0481458176247987,0.22732719341056878,51.36790789186578,6.979257336634082,-0.3655182207920829,1.381186265485942,-0.13327958968476677,-0.020438637973191683,0.0691593529534096,1.9215336249865058,-0.573994758073898,-0.360387017948966,0.4220013837296118
,-0.03791652105946219,-0.6790367471750375,0.7356225099401159,-42.929798567720944,-0.1264173910088039,-0.11355941923275295,1.7375984861338791,0.350979995701882,-0.35201974428718585,-0.4716556755177411,1.059479793771993,0.1655806130225222,0.35453670170894475,0.7970906808833207
,-0.5297857220088188,-0.9296145103686296,1.6369844727250735,-64.4819466289457,-6.686644417866727,0.5784067241756273,-0.0970036647213212,0.21117366276769098,-0.0977530369295471,-0.46393440905761796,0.5437049581442531,0.28491133731740387,1.1091450499315052,0.12496476888322504
,-1.4756086642114221,-0.24557475121005876,0.15761487899469293,-31.413355185153126,-2.928877058457994,-0.9853605419712803,-0.6843545894055795,0.32561632782729955,0.2321998465260524,-0.20170661283042332,-0.4560771967196813,-0.3225285725377964,-0.22468327349843686,-0.6118766319742361
,-1.9634480526505385,0.9490117270719876,-0.5046610764453267,33.420273816940735,-1.6026764452382278,-0.5738400350601383,0.192104909027686,-0.07742997300340966,-0.30547896340432995,0.21636052249357843,-0.49122210968945595,-0.65473103982609,-0.3221906709663735,-0.8302235047391452
,-0.8202085834525012,0.17464174091872336,0.5719295223766243,29.107443035279694,2.807739003704152,-0.5497800100415365,0.9978966898276032,-0.20585404584569414,-0.3160145945604664,0.24308928038558938,0.39132106075778367,-0.28464686809065864,-0.39215426464707265,-0.001442494612845618
,-0.4560437256886422,-0.8340731272499485,0.6391675019243668,19.417208153491185,10.359908739732893,-0.40298015225541634,0.5957439171485914,-0.8115833451778965,-0.7853548890892356,0.13807287375412616,1.306613251378779,0.45217124034052286,-0.68659032936964,0.05402628052401096
,0.3062212033614365,-0.5557104271370052,0.560455590777973,-10.84746226213617,5.497217830081204,3.1253312423833464,0.7207217299623118,0.010825988474584837,-0.14693715459673706,-0.2995692931777691,0.8987718615564682,0.11347852958777367,-1.0925970727767227,0.41524476881430455
,0.12452330843789515,-0.0915751109407652,-0.5198712907192468,-0.7313359344374032,16.33282946038017,0.7780875745754083,0.35954228269564614,0.8706010087386241,0.08403952403053107,-1.0557255574861126,0.1196310060321151,-0.14189110034755387,-1.2828512741541216,-0.02330531939527451
,-0.05563184367849343,0.3826835697779494,-0.34364404531593906,19.42592097752969,12.42728065620217,-0.8667516021509906,-0.46093398133502916,-0.08996488777521498,-0.32978024603661826,0.6683527517711643,0.9777591075928366,-0.3312565492024504,-1.5626871519280547,-0.13216937317912683
,-0.4607126556399997,-0.25832872997504686,0.0990918539113645,35.82594941433857,-6.538090294199155,-1.4907177570257428,0.16043788047333118,0.048550663843313385,0.17022927621193293,0.37084796809658704,-0.7602495028581252,-0.49997728737313646,-1.4653992574685442,-0.21994605506957365
,-0.13928834140990584,0.2536632182959477,-0.12843690398576413,20.45336525899703,-11.650527066177428,-1.6630259099877753,0.8413417104123565,0.7196558303177549,0.8788634893709495,-0.135642963384927,-2.078736826654372,-0.37913247304454417,-0.6088602802597141,-0.42439901265022106
,-0.2828740625322111,0.2361850668610435,-0.3182473972865973,-5.316413119719846,-6.360566786519949,-2.1876123609501805,1.2618554379547204,-0.14995886555285465,1.1099922437946228,-0.48737597138505534,-1.4087109191522174,0.08073674353610641,-0.28561962465695034,-0.09342040138561353
,-0.5375982466982469,-1.1597044222251216,0.430789193880529,39.524620779023124,-16.447595572862085,-1.6367939744188102,-0.2942773239229387,-0.16114048181362026,1.4282196397904456,-0.7106212963748937,-0.7786114757315983,0.3456669669938123,-0.30411625467086445,-0.3953748496016235
,-0.19223301973985416,-1.5224334777285653,0.40695401649340246,21.997783218396894,-6.032798519192853,-0.24147636480101098,-0.6772909482630431,1.3307660566001758,0.5634538266982119,0.02851126816823676,-1.0177355991517563,0.5469856072281064,-0.5927780530114722,-0.1951951774138335
,0.5852624883257586,-0.7056151880739883,0.9529404528995639,-0.9647782569359312,7.24803798628181,0.5687913112724081,-0.5774150785261772,0.8998045495427824,0.40697160540405597,-0.5676503495548706,-1.077822327132891,0.09722677471875389,-1.1529145469024047,-0.24861318381188868
,1.1478778427589764,-1.289495057087324,0.7686890762354591,17.335137845878624,11.215999182560422,-1.5563658576662738,0.0806246844300296,-0.5615252347470436,-0.5750252461874289,-0.8602593056430097,-0.12854518055859943,0.02768207023057128,-0.8279780494154529,0.26612409162769274
,-0.8074643764498375,-0.9960743462651519,0.8354428616060536,-1.1322927074868514,28.523424782109046,-0.9418705618698023,-1.075581092597885,-0.5992072121630875,-0.8568837071142358,-0.10195438684584429,0.29392241408084535,0.4031876134882419,-0.5118573510990706,0.0010187827689319287
,-1.0345371424589094,0.21383177303002504,0.771322119522737,-1.5906893999860188,5.420894204418401,-1.0898312434688033,-0.9319541621344531,-0.6765377615834713,-1.1765441337062463,-0.6952858919723778,1.58332158144001,0.599503709388416,-0.5848685347685902,-0.23852671578515583
,-0.5575357921466029,-0.17038010811835097,-0.1690214254998426,-43.730104648263875,-7.365500766801909,-1.4097079954999696,-0.32359966958231823,-0.0815647691939255,-0.015569943141734427,-0.06418220865210178,0.9924613055216603,0.37145519972891267,0.029157658204082663,-0.32684450707880885
,0.37019727092646554,-0.9348691221837853,-0.032215324225713264,-42.141198297712734,9.335695390584538,-1.3405042788892525,-0.5266973062263715,-0.346355252870631,1.7991032404934013,0.188316893278618,0.4534584631710829,0.3375334443993111,0.3156783487329356,-0.30672067853754487
,0.7507378683666527,0.005440233555855624,-0.2985992708325011,-49.37899630345249,28.731140132534055,1.0218472054111676,-0.9049715123725749,-0.5877318628574398,0.045485964755688765,-0.38643227988229045,0.372264823120001,0.2071090402501082,0.724286744434762,-0.050211207647517984
,0.48095152742475333,0.41730335397167734,0.29547492010478765,-34.25945563610104,16.861212004950797,-1.4668695777027123,0.4186985517407369,-1.0605799752466267,-1.2836813595096457,-0.2142528552133317,1.1389198830648004,0.6459135257588137,1.3015217197800775,-0.18107685945917512
,0.20158811112633257,-0.5093769151551591,0.7580970780299688,-31.982078187988122,-1.6081309947352278,-1.0506404457778993,1.8041809635704775,-1.0589930498309839,-1.359103180401135,-0.10764032467294041,0.8061384740510066,0.7239971425388092,0.751184462177913,0.08109289639569996
,-0.6142783110903777,-0.9321009264352771,0.24431875028115163,-8.671767605418978,-2.899582202653409,-0.605581020141614,-0.14186929608916055,-0.677470257943689,-0.4857292587062289,-0.22228629618849635,0.4509375358999101,0.7323771117701322,-0.10219916750887052,-0.27182029717904727
,-0.8909263694360295,-0.5312467707426455,0.23222447433141086,41.65410054287291,-2.6496370830068448,-0.5454672323748859,-0.8509748068791865,-0.8110060083994307,0.03453313818357575,0.3376330150173803,-0.5426131224154915,-0.6626595512758136,-0.3064705814448806,-0.6212359695927949
,0.571131350775167,0.9547604853859745,0.3724558475736767,20.492359771730538,-1.0407440798188716,-0.028253292619752082,1.1523603163617577,-0.6434614339089535,0.055219230900938256,-0.03819398369843488,-0.2951175165470301,-0.7915783650565638,-0.155966872489662,-0.0009004588229979789
,-0.03180766497395804,0.5838572322732957,-0.013814430644138667,-66.56667325542135,11.410220212195512,1.2306836828294483,1.4522692608145435,0.31265282417481344,0.5646125332613043,-0.08784603854247172,0.3292553824045607,-0.14713579487668882,-0.8160700569491719,0.566225437001581
,-0.7762389342959145,0.14542827435365963,0.3934607518972828,-45.25663146627786,6.654271222779941,0.0014228137269043158,0.5641580164529018,0.19395953478402025,0.8710459883334728,0.1246115852332271,0.3968326829102007,-0.7127362305786703,-0.9570661518112533,0.5347622588647755
,-0.6899810585421089,-0.05940980893261525,1.136286575418726,6.292633688521709,8.223694651014805,-1.2741369664629658,1.2104088781094073,0.36740367507066846,1.2714035753058865,0.2671581637283511,1.6062726485539134,-0.2318153463307521,0.06124292304799295,0.4193485492848206
,0.28683156238336616,-0.6909219585449442,0.7415889467256153,-21.80125483973295,13.63383726993795,-0.755147039160521,-0.35143961799492046,0.8390309694279827,0.8447366834057798,-0.5830877889690186,1.1420261593282086,-0.48131465438529203,-0.4004406641408282,0.24836188039438614
,0.022468219775561245,0.20344874030819027,0.3166207187895481,-10.364751248408039,15.964607411087206,-0.47218178575548575,-1.7127256026247641,0.937929057474785,0.5465342785317224,-0.5793338042863679,-0.030241552446443165,-0.9418628749104754,-0.6692287446242852,-0.11684563754154824
,-0.5714243517109993,-0.1571550638935083,0.7736912135514713,15.575636319371442,9.909153509975802,-1.717357405222175,-1.255785536181181,1.1369185451051933,0.07066711391474859,-0.03417880277482983,0.5733943084220865,-0.1694715004720055,-0.5835908159052099,-0.3093339900966872
,-0.21017897339746144,-1.2084192577627444,0.7145283119703681,6.221997869218581,9.9451200781382,-0.7604800021914452,-0.11517974106068332,0.7528829711635655,0.7346436662141951,0.13221744340300076,1.1321951955980374,-0.1471481177958895,-0.3151661109038802,-0.3474154186001592
,-0.37483358594296645,-1.180287794564672,-0.3408995804400563,8.534622764114802,16.484555985749225,-1.3879122047815144,-0.2454103289194674,-0.3695512761104875,0.2775878714651115,-0.4052963840272347,0.7294800541419765,0.2838374586166362,-0.09935458267305484,-0.4244686525869918
,-0.14673351735842186,-0.796598560921623,0.008906982043396556,22.22925252222178,16.21243683018816,-0.41500906085126477,-0.2923570916925292,-0.6178453454479756,0.020277190281870486,-0.3445749147570279,0.6182742167881359,0.8075472552904579,-0.7414360817219817,-0.2303491264067663
,0.32643316715833043,-0.3988855133589605,0.6157681764798022,-5.24792941289482,27.523292329410374,0.6015407329928368,-0.8195322304979242,0.29641170758634666,1.5877443474286634,0.5868429436097802,1.8166630305856055,0.37965512993386574,-0.3385743428217228,0.5220973524073149
,0.39983787746611243,-0.24451357949682162,1.1808932277257314,-7.5888069023028795,15.506093392420075,1.3950090141955178,0.43328701700839584,0.6282127999875851,1.6258855316534497,0.529576145090967,1.2707036798886389,0.7222298106542758,0.7197397687529714,0.09326165686283193
,0.15324805178812015,-0.9551311328172802,1.2291570549113093,-35.383990472151545,9.595887200932845,1.1266057544317483,0.4639990933833017,-0.5533791756822749,0.06841426303704805,-0.2057203510052861,1.375842028085646,0.11579930728682501,0.4028020698468679,-0.46548863001964924
,0.7439082207497585,-0.8211107698620377,0.4904374790880975,-34.37219737704404,7.228214844316608,1.0578727731859845,0.5599070960134469,0.11709055326794426,-0.0979994590757507,0.18243215995204082,2.7590929831736117,-0.01490100548526605,0.45672423278137486,-0.12440415801487309
X,0.6043650893449731,-0.17651261384478073,0.30792270289925366,-19.838859291071394,11.506179993700902,2.3390991721207155,-0.28863113749913033,0.3100087433362262,0.6246636967398337,0.1459101441043623,1.8764937902507526,-0.4931933817243393,0.7475130714428917,0.2736057452063016
,0.3068767964748152,-0.08523443466558227,0.6283776606462803,-45.501372849170906,7.409467431828363,1.6020287519889542,-0.3692351323999321,-0.2473704271769715,0.4780357449660274,0.31686287678806274,-0.39326637594134634,-0.41072095847760304,0.120144307330612,0.16462290002575206
,-0.3108149573711174,-0.7314437014320359,0.6289244899781306,-10.177915979563924,0.7312160811748832,-0.570725960452263,1.4353433075434718,-0.04855174796465753,0.22287988908682502,-0.20428919893572228,0.019640346740513473,-0.07478308773112398,0.42042262456305207,-0.22545989217532347
,0.278848139693651,-0.3411216319035499,0.20899928923390818,43.82706737281621,5.0696489078185625,-1.6866772170100581,-0.22990196973973,-0.1810819188572775,-0.36795934272721426,-0.18881002552750967,0.40726227993462044,0.15912892047064728,0.5519000957289838,-0.2732338562917475
,-0.8839025589740998,0.417927220899117,0.18006114539227727,28.291699407527926,15.566997055242993,-2.5454008511169604,-0.35899093976395163,-0.2958220979266061,-0.2352448987820496,-0.006041870630080979,0.4773909543294224,-0.2943627532901173,-0.18750980850213841,0.24427700267901303
,-1.2930543001364294,-0.7578235096901694,0.11156174190055623,6.9438265550741,3.059462087337161,-3.1021935077010494,-0.3542232398745792,0.09967135646443497,-0.07842515432289275,0.11846016557202255,1.3454308525145726,-0.5594395983944587,-0.7779973060137417,-0.12656560453227217
,-0.04997097029509245,-0.18829582398914554,-0.2516214146685483,3.634614426954009,1.9131994600017475,-0.8732462275069,-1.0602676979310843,0.03198459509160423,0.4488076402766261,0.6689924293202834,1.6707861320028254,-0.5948827204026513,-0.5234364753455939,-0.784866919037275
,-0.3253688672059727,0.8056722501919645,-0.41074800796417155,-5.108104414500917,-5.817049298574455,-1.8737763829822744,-0.20981321335930328,0.6292054640693273,1.8898561586697666,0.6191732763861781,-0.021239829354837036,-0.9620588152340608,-0.6591324763629444,-0.6097789031705396
,-0.33121043435603165,0.5217995786102606,0.6139283664542885,10.946454447522427,-0.09599611849069928,-2.623994747589499,0.7623118510062006,0.8487121592082002,0.5230050767099413,0.23974323249299495,-1.0712547824138785,-0.16086241340157598,-0.6700048809395964,-0.007822153609336512
,0.680255661025529,-0.2550438408847372,0.6734583304583153,19.284307398757203,0.7719396077656271,-1.5004657052303079,-0.23286516774536498,0.937570133064569,0.4003317232192959,0.42474045246483066,-1.93901556012875,-0.7132453998149842,-0.5432229702383253,-0.024940398275340118
,0.4021858481020939,0.25963984829583653,-0.7214963141589517,-14.028808759798256,-2.145974719935659,-2.7483893278143454,-2.2042664730588992,-0.4075188020590535,-0.8113163030579416,0.23295313905475695,-1.874679263868363,-1.3171430257837176,-0.014771192442294098,-0.6216786966121168
,0.0633055798006348,-0.22166894033245263,-0.5130502700843826,-18.1223329505577,-8.673801910121309,-3.102196367406545,-2.047279339749102,-0.6760467802876449,-0.7881251196201807,0.044005422894899754,-1.7611349175053685,-1.1100387453088119,-0.13434588076055304,-0.7003807553976231
,0.29401172546169985,0.030544198100307736,-0.15953185214057947,-0.20212510595738833,-9.523455598425082,-2.255778788783944,-0.4851820064082073,-0.39243202686857537,0.05991535736265137,1.086847365984101,0.7971212040033897,-0.8320249941156305,-0.18961158495539523,-0.5535354421053735
,0.09780442208599299,0.41970372567996844,-0.5035759591727235,6.337518408348701,-2.5376067571022887,-1.8551285802220636,-0.22954205067727212,-0.5640911571549678,1.0484423223752735,0.35112590245885067,1.104521364736328,-0.6936669357964772,0.047135247904616345,-0.3294857668677971
,-1.1244202241445893,0.14932521799270795,-0.6562661508924839,-34.648830134528055,4.055477794960156,-3.586278950712975,-0.02765918423234304,0.022666416210560668,0.376374372035263,-0.10950818940512116,0.8706107797005197,-1.2241550462303161,-0.45027895273797947,0.05786955555589144
,-1.0533410960498852,0.14115195715520468,-0.14977324514494947,4.388791609089983,2.074412783834362,-3.523889345948527,0.9822514390294692,1.106534418042668,0.3786255819027695,-0.5549460909331915,1.3519586322943355,-0.752636631313695,0.12745812098565212,0.5899064289075684
,-0.6055183886633445,-0.45134185252206777,-0.44202446495768505,8.378179330811978,2.051234910654016,-2.458033430875296,1.9253017939125816,1.4449926281798995,0.8089176262553365,-0.357295105410002,0.9204230551634308,-0.2958078025751994,0.3521714457597088,0.1278889051406864
,-0.1494170223285393,0.34344110559956914,-0.32037506876062866,18.078523946237876,-1.2379511686899016,-2.802486587432585,0.8070220245573724,1.2069502513084838,0.7733439105150821,-0.11040802513247044,0.7517054939041337,-0.5417642804181075,-0.4122242451272554,0.19121780099871102
,-0.4248951251060658,0.4766177408081736,-0.11138208364142264,26.29360709725814,0.2908411202537569,-2.340538278243515,-0.3409161060667368,0.1148359031059998,1.5138256397469774,-0.032659118585670534,0.6821254452975417,-0.822174201282928,-0.9735060625094615,-0.026379926640646992
,-0.16991468021328784,0.10562591793431382,-0.0016268522083811915,14.291148493670958,5.3570770126047655,-0.8181667945160537,-0.1873726738980119,0.25957333670995447,1.4304056227360527,0.1458990286719354,0.05673419788254993,-0.9393133301599838,-0.42033876488259364,0.08120289367079771
,0.00839471663006228,-0.06637879887665325,-0.27520568746322804,27.022867267741226,-4.434037890933037,0.28746647030194955,-0.44838854153930213,0.14737735132461566,1.3949040943082893,0.773890498824583,-0.44032867457584185,-1.038350891377725,-0.08341851037512932,-0.03481413613836433
,-0.09197870850616621,0.44452966200397076,-1.184080574712968,1.3344464636131368,-1.6366070587101345,0.11889432583792146,-1.0660205594190668,-0.11689640798035704,0.4299347394668382,1.1978905407416824,0.18951083437276042,-0.17207043482870654,0.028366838375256696,-0.4166214871410214
,-0.6372312486685549,0.6264631494409089,-0.9923782701647124,-11.102298246499519,18.00070048939679,-0.759089900325024,-1.0543453949186075,-0.2856639644409866,0.5547234758473488,1.2826486145872575,0.1522335229003061,-0.14927125865387406,-0.13213267715879573,-0.6160610870995349
,-0.9298755365813056,0.32725292157359787,-0.7267285264612642,1.5901394590986788,-9.36341683313572,-2.0720411506799046,-1.5097375845660812,0.3132564789816688,0.6873232799952722,0.2460620235340138,0.6664198767058223,-0.2942522446999679,0.2613896443624532,-0.6441310434850358
,-0.7339490840461728,0.1073917246590778,-0.8130017374250019,26.574147134375806,-11.456813407337263,-2.540690314707539,0.4814107344051001,0.23680789229940247,1.1443451236785658,0.3129551471187064,0.7501797121425101,-0.062269837046140634,0.3801343289954009,-0.22070984058997148
,0.4278186667512726,0.04486839011973223,-0.7640015926089894,-10.394960193512464,11.004740991372458,-2.501140851471239,0.6604696397244942,-0.0033333292090919953,0.9912598634012775,0.9798428639895403,0.6179731599628236,-0.2766559093640849,0.2507440993185432,-0.39986611899891367
,0.9076553470433018,-0.05714738376029177,-0.14900002042775595,1.4878636611530367,3.600733535286459,-1.5316121007982073,0.18563334299289555,-0.043565729401857926,-0.29941195531548,0.7483833807880382,1.5558419191731845,-0.27682522058170245,-0.43509221275200866,-0.17839981165244442
,-0.4726045328807056,0.4314322533709916,0.2902829918640632,40.97160097276682,-12.882686730011452,-0.9080064555433064,0.47139401058400093,-0.494674861354767,-0.8384607520497429,1.6713718067126386,-0.031249655262350042,-0.3733089711333566,-0.25781903910968296,-0.07477232086921781
,-0.8308571121137986,0.8702609461654875,-0.3453730675724848,56.78295199581471,-9.556762914539556,-2.260517384499128,-0.14379012190286325,-0.42828523961520015,-1.127324752009572,1.992081014571261,-0.41200369390837593,-0.6994622719987786,-0.17733608309800605,0.056175650935522216
,-0.7518846760517758,-0.08210752130673021,-0.23713841901832702,46.82804859781292,-4.040123000894011,-1.408956021711565,-0.15326757942927868,-0.389962553051245,-1.4996496580162473,0.5887629929538922,0.6400234866727177,-0.7788419672270022,-0.6836759788561433,-0.19985828337413117
,-0.6405111715308593,-1.061985810113949,0.5342736914696765,20.338395451824137,0.19450158924555652,-0.41544067277412455,0.46090382514581446,-0.697511580924402,-0.6388357696044905,-0.884146885210394,1.2784349290260657,0.06830401011716515,-0.3399783214753975,0.31933502959999405
,-0.21239867695112216,-0.4306196278033588,0.4846712904547407,1.1774946553277539,-0.6009778720654821,-0.0779482796612277,1.5741246835175648,-0.5505877004327684,0.887905629963013,-0.4824450675566968,0.8505416809818005,1.4775004414082122,-1.1913168790202344,0.14422738912858332
,0.41200275436046624,0.03771279930666617,0.5164074345266142,26.685695255692337,0.2855655050196811,0.9435505307643575,-0.7307997518540056,0.6419289900981249,0.46690716293700535,-0.7471444191051424,-0.3845094716667553,-0.13797424658635485,-0.8996555699565814,-0.0416438768778498
,0.7173963095625819,-0.4426484870134032,1.0702095906840263,-4.986438750956898,2.289441220057182,-0.7615754117187448,-1.3512575447924404,1.1333773346455613,-1.0681898075494722,-0.04671527333287375,0.641303033778378,-0.5241070592576113,-0.1841308390834248,-0.06823858737913333
,0.4432272333880762,-0.4103158517634109,1.601903030598497,-4.927408050349523,-9.131155062380257,-1.2809152876788583,-1.0241897498115948,0.9614066324844563,-0.3005370640667857,1.2018232003864788,-0.6086831049254202,0.3696643852122695,-0.4988592226426981,0.20053253108414046
,0.21440153338940526,-0.6657109738226717,1.1150891670178487,6.907204374776466,4.575051258258717,3.29691885387112,0.35595559236132646,0.8106386560748841,0.9605897405259978,0.12112413175940465,-0.3856710663706477,0.5621353276554714,-0.5484478896921382,-0.865704320314611
,-0.5860389631503541,-1.4915069894045248,1.285128222527796,20.652934746990052,11.210870644249239,-0.10603169270094064,0.5478347793724149,0.32889949797553675,0.5464311664558005,0.4927361148547586,0.6422765017177791,0.44439667708197284,-0.5696916590590899,-1.6417528005930626
,-0.4166133237413272,-0.6385677528260373,0.6189837811651796,35.45264715527044,7.58590714101095,-0.6437507190807291,0.11333846299094444,0.2675302933850757,1.011860924731993,0.8106169745066084,-0.19213800384186575,-0.11101863188985278,-0.7274213910797096,-0.9840527068909497
,0.3752650578567691,-0.35131636865951493,0.6561946495696133,14.69153855259181,-4.183113219921936,-1.3731752215998552,-0.7062293134272613,-0.00998180624628497,0.2048605898550621,-0.16521927557845537,-0.036216023740481905,-0.8268453176571298,-0.6289572496415319,-0.33601851880561834
,0.6775641882476833,0.4434234790001024,0.5610499129053362,41.42894831462844,0.7551732207934381,-0.7806521802411853,-1.2554173688576422,-0.09681212815059224,0.4388568938777359,0.028929465847329357,-0.809008251938061,-0.8799532963037884,-0.3161831921342524,0.25040781425643466
,0.16646716284949437,0.7572995321457154,1.099606710371672,24.840755818855758,-0.6647763669900689,-1.980773071872028,-0.22766929238162806,-0.0424227813281354,-0.48342932852004356,-0.9320148322663997,0.2980209141824845,-0.14474878951710363,-0.391776422085848,-0.2534128686193493
,-0.39407487999213375,0.0757532381959334,0.30871523560281156,-42.41951679828604,14.904931483586115,-1.0880251480421925,1.066832946938086,-0.039530004739149964,-0.5366679252761817,-1.2716304108059315,0.9442980291335364,-0.15489523819837006,-0.2569603532917527,-0.439461364232554
,-0.823228749938587,-0.04697332386394018,0.1188518290913837,-41.63346124584397,26.35190992078759,-0.4946241091306893,3.3037437224383326,0.06395908634366419,-0.327454416991116,-0.7389608151134734,1.6586460848042788,-0.11975318136887139,-0.255004284837642,-0.11364178110363042
,-1.1587099056795835,0.5268419727401656,-0.5280298597888086,-26.999637195828104,30.700834057433102,-0.845688785905332,1.2951280540375345,0.7016062196979195,0.8994118960722801,0.29524970442115506,1.0035257837412292,-0.14755354640710774,-0.24187802727296345,-0.6036180800871626
,-0.9052838563821239,0.5589362812542392,-0.5118461504575552,14.99792951209243,31.043416487307198,0.5667066535313154,0.903688292533431,-0.18039755629808818,-0.1483952562988943,0.2911047297887365,-0.017197900534123525,0.28180905500937237,0.8906454504080651,-0.48282455996239537
,-0.734651903347167,0.61155789209341,0.3528804314365954,4.52899487642671,13.018854908985332,0.8460226493982189,1.8164636828257226,-0.7808097447339122,-0.636037408106102,-0.21539823777814854,0.5015285431975915,0.11233187653746655,0.508259779204825,-0.5162987642956987
,-0.11749955358637625,0.4430680248912378,-0.1682718915871167,-33.58146675840359,3.5874579733630894,-0.24654567028257907,1.747910547219543,-0.08962972572758632,0.0408540449671011,-0.02737468213703166,1.9632463088537062,-0.36741145545664833,0.09936321845779326,-0.580606808568532
,-0.8909722136334746,0.4130659598912003,0.05492555770036861,7.797561368811946,-4.230865825726638,-2.263771171036198,1.2403005544368524,0.38393302940456275,0.31736482770817936,0.5882622769648397,1.3609122183622797,-0.22836914438059264,-0.006640220199875876,0.2527331831056262
,-0.9463178276698708,-0.40616368680065623,0.6192645087544844,25.519246841117674,4.214121594827433,-1.597997692328789,0.5927518630305211,0.7330097545523178,1.0474244787739369,0.09464427217916503,2.05742382442339,0.5558421279197054,-0.4570141686605321,-0.0015983532373725286
,-0.5898094600776368,-1.2886818572626615,0.5281822315086537,-5.011995611833152,22.747624897761213,-1.3827652467834868,0.1470746569771928,0.929498425878957,1.0215114098667246,0.9123972087010357,1.7088041839225074,0.9302099730020309,-0.37470513987046766,-0.0010335296868399927
,-0.8467238599758853,-1.2656399710592088,0.7345953632460405,35.36954571158596,11.29456062559652,0.4561946885777134,-0.3806223627760749,-0.03520936679731969,-0.25613300167334063,0.8376426353595597,-0.5926282138887636,-0.8421651024402717,0.12463491476564238,-0.2666667692463942
,-0.24185252907830973,-0.9093943914632805,-0.04196971289504989,41.53626543860072,1.763647230875178,1.7497871306039052,0.08179472012339838,-0.23090520652774962,-0.1874598497614612,-0.07859435821447265,-0.5108440894186134,-1.2204450855692002,-0.9960266314070958,-0.5402324035306425
,-0.08721735204885007,-0.23815471273730046,-0.13725178858428105,61.05544371964479,-0.18636727671858086,2.28310254156266,0.34320772249857057,-0.6756760333441647,0.15224069123001477,0.46125293855340216,-0.2083793961678883,-0.313520221706973,-1.1525906901974259,-0.5844649780561256
,0.4372207826797445,-0.07231626401177263,0.6234336455975841,32.88901213701119,5.022963740537288,1.7241177283268556,-1.040874847100233,-0.5435699338233025,-0.6420364427943015,-0.27241641045691023,0.3115026893591742,1.2071134764812106,-0.9580070032834053,-0.11816881670171929
,-0.3248058482143547,0.13721972687619752,0.7734064533714325,10.587789838540813,-14.371207758473203,1.9705268464242467,-0.500591325161934,-0.2297729141137287,-0.8933280166423968,-0.9456490775800249,-0.46546301567507886,0.4290431984927799,-0.1303242807782868,-0.0102866301373714
,-0.3614594328444694,0.25608598104103925,-0.06288085041285,27.344778775141386,-14.695629101146015,0.5898932221551708,1.107485015106985,0.6315928986696752,0.332400915829767,-1.4412626144998053,-1.258040164038672,-0.6165926841470106,-0.18163884017673704,0.009107168298289482
,-0.8389097278404983,0.15857512508275814,0.43694133167897475,-5.098711850324132,-6.602010290144784,-1.9540519862716237,2.0789419074521964,0.19609616285774828,0.8072815120810592,-0.6920032451809591,-0.6237329849635883,-1.043639767879562,0.14306705560948396,0.5453304334608717
,-1.0554218689980168,-0.056725486062149014,0.23930208342732812,-16.874210713937202,-9.827481275671081,-1.643716752467279,0.09938147176259667,-0.7404194029073897,-0.769813814499477,-0.5162325921234825,-0.11106198792595734,-0.8939728620702928,-0.18685384056161422,0.0066803634250762875
,-0.03958526900766383,-1.1335650075427366,0.176223583703585,-23.097745929470257,-4.9568871706030935,-1.6192184499306645,-0.7634888606534279,-0.405803949034862,-0.4667287927850303,0.08852671171023073,0.4597189168417124,-0.4280291038450777,-0.4766822106377566,-0.07149924157313033
,0.015289501065627882,-0.1119765557776047,-0.3491715318580957,-26.438053199556318,3.630474258297973,-2.6466257273410467,-0.7602075548218913,-0.20047176830208002,0.8273118637758835,0.45444505605752544,0.9288888771450066,-0.9208783951610515,0.20384816423777544,-0.5311183310976875
,-0.47596086935405435,0.4765748539868726,-0.05477451164359694,10.615963461420135,5.65474882987796,-0.9549418022160601,-0.9216088798510197,-0.18979250419584534,0.09479747483223504,0.1450714390130309,2.247619614429993,-0.916592841171987,0.13709633146213004,-0.4311409537350538
,-0.4449301147012943,-0.43631282278774025,1.3224120702421303,22.14136296122895,16.196018990309394,-1.72654417191302,0.00025560458600291605,0.6965981716005635,1.2052084911140808,-0.12172599446382147,0.5872505149157786,-0.06413690928107221,0.4307702484617137,-0.10708219101915854
,-0.340106750053204,-0.4407778498171787,0.4413463108960093,16.016672217473175,23.94597847604082,-1.511332178961308,-0.47771321713408615,0.4316649223926596,0.17071077416645866,0.32087891340508945,0.09029075412810005,0.02457753780784403,0.030208625436501272,-0.27170836936811815
,-0.5342559863328603,-0.6942690660348237,0.060763141267131685,-23.35628274802411,19.41629110854729,1.095466161656026,-1.0693002078238252,0.379612235918756,-0.45864539933592746,-0.009492568331814529,1.4803780175672687,0.3962536371073715,-0.45137135780715004,-0.5228715160264396
,0.02493739863514524,-0.6939580199525514,-0.18278411287921167,-33.09821466523565,14.319615458174374,-0.3094338860128185,-0.44364741411942515,-0.28676536970551453,0.09046997162410123,-0.09992588845423252,0.8947256067850388,-0.002562040724841852,-0.741762299608925,-0.12361258990339062
,-0.22742350535426648,-1.0171173162924445,0.03222871583962932,-38.78224829601123,13.761726784908038,0.5246898501231281,0.32492092439105547,0.0549768090689674,0.7712319742737457,-1.1120340972537397,0.5357883168106404,0.17880617080787528,-0.6608798368311327,0.5299083039350599
,-0.23472539932543776,-0.01041933120961803,0.3632929115551029,-17.482379376874885,8.9910444250531,0.37555423927855025,0.1746474160625301,0.10559238330600958,0.4041144434672353,-1.5523402412411038,0.655901779939444,0.5828247296778435,-0.17485593801458618,0.651390925329456
,0.1353289951466216,0.025729329222275023,0.3256728398386445,-38.50133946369354,7.379536441672755,-0.15649990016432344,-0.4091452267326088,0.15463844931379897,0.7447224673052297,-0.5885451442567966,1.5781100533730785,0.5094622016731744,-0.05915676587090965,0.3679508674746355
,-0.11974754718242106,0.38573718169610305,0.3994019650035924,-37.65295871683621,6.091991384322932,-0.7794632365528131,-0.1221535165686949,-0.06517620325433278,0.43686712991512155,-0.5517914727056092,1.447822697579346,0.10676862365426942,0.02748772024263264,0.45298819675826313
,-0.2179718193138974,0.3465839403991393,-0.23146460716381465,-30.291440956633146,-0.0358995546704938,-0.5169250388412183,0.49257931709786773,-0.3328992763113079,0.1071973249999658,-1.3482308202982682,0.5448007992092198,0.12158902126625393,0.4627523321587403,-0.7292881533033475
,-1.1829380510240088,-0.21765320104264246,-0.41552424448422204,-10.231764622395136,4.693868091049194,1.0326458542806467,-0.04537578732520826,0.3062406005872061,-0.009107208604667119,-0.252286915541709,-0.5933345390519976,-0.3430546921724709,0.8490771233486256,-2.541725926326447
,-0.6409687280305586,0.04283991620782162,-0.5972223371981294,9.407145054806595,6.850464110232377,0.15005482280289842,-0.9004021102032367,0.2005729683353685,0.020657328991499364,0.3010992437224944,-0.3344281197644888,-0.6580117810371549,-0.04083920193382627,-2.4292287858746593
,-1.1525071959624866,-0.2924731642378552,-0.44962185126113074,59.48280931977074,3.0697493828097793,1.821341002970047,-0.06945718936055757,-0.24114282034552015,-0.13185213090774872,0.19526883459022776,0.477638345570219,-0.7437152172929478,-0.5169069753007942,-0.8184341851017035
,-1.0022161215759195,0.13065200585686493,-0.052720178117011934,31.120535851889603,9.397688963215103,-1.4506670393903238,1.2819417263469874,-0.3701464923632505,-0.020215060922474756,-0.7818333718205901,0.07559917586685563,-0.44341977220900664,-0.12930906700882866,-0.8354032126548661
,0.2890516468823512,0.4272163100893366,-0.14511140833250108,-4.227194296744784,15.163577995681594,-2.2969016161980513,0.2777322295845186,0.4702521066852681,1.7742387402669328,-1.040195853177357,0.6099454649827258,-0.22899593736142257,-0.37917471661383734,-0.4910177865398771
,0.04318880241107307,-0.1012477759993012,-0.011479731103064017,3.4254806746493847,12.863682348080808,0.6104006208423528,0.023784988286522507,0.6575910000962951,0.31619070921058495,-1.423029541790661,1.2623620034600986,-0.21761378468327203,0.00936681791846027,-0.39095358120414625
,-0.3072070415391461,-0.0842374354919429,0.40797452745398793,-22.17272208001315,3.1167817806799176,0.49273154112601414,0.20510164758036853,-0.035416335152017024,-0.6406308468602087,-0.7545751236528467,0.19971709721345465,-0.7423898523362409,-0.08602150419573325,-0.3489375692315256
,0.7015763201898395,-0.595954118505901,0.002326892128662688,-26.8837993466326,9.775258786687608,-1.6436699062359743,1.1961655011897852,-0.02914051325784229,-0.2272720798891107,-0.27739713848042546,0.964965158480262,-0.20284120133853728,-0.23730609850330597,-0.12956233453321375
,0.16420011799129186,-0.35097843578058274,-0.47549195896671814,1.9474625787041462,10.556661129810127,-1.2131280252385532,0.5275595018080277,0.01543532952065945,-0.020386224410887874,-0.9430723286034305,1.3863816364481825,1.0078355269273898,0.3433525377367647,-0.2877943099584089
,0.13161824044028125,-0.21702979007622528,-0.6037706501073138,-8.207928721977325,-8.247159000698273,0.4529268841084223,-0.48065622695159477,0.06543250432119968,0.3334951559132281,-1.2257965406925588,0.4067194530898052,0.5448898693770261,0.2764667173152747,-0.6964006395207988
,-0.5537202491020178,0.3193354924659209,-0.25014361140111835,-21.18359894762367,-11.423691267727255,2.38189979658698,-0.022668608964021758,-0.8077769890669976,-0.5791211456224898,-0.8029584899766262,0.79382533559694,0.008804660378266273,0.16528675883406024,-0.6193224617417046
,-0.7259096671860299,0.5022926079885915,-0.1823870085818454,-37.77837384468277,2.3424667216791777,3.2392379104546407,1.0621698843625877,-0.4420387361485116,0.18546984593055468,-0.011758363543632196,0.738980183095047,0.4667916304632582,0.009640192490148991,-0.036427512981836295
,-0.45789251622746546,0.7817533444956366,-1.2646895376771399,-40.47819580030185,2.401620471620715,2.678341756574233,0.7635038136602375,-0.44424459507020064,-0.0285461116037781,-0.32515089043880746,-0.0707368572344688,0.06227998457184849,-0.2693496869732819,-0.7750828322630929
,-0.006466929766379554,0.8700998469061404,-1.149905353288713,-13.060840604492414,4.738291658444697,1.104514776541103,1.9712322621782365,-0.3539046591281914,-1.2874518775647255,-0.47658144437990657,-0.06390753134035307,-0.0564544336311625,-0.316320334865137,-0.4920334532220301
,-0.5116897719684769,0.7310645217127282,0.40960244673238494,-9.11636825047312,3.482039696845744,1.029045812696298,0.7413235368123189,0.23502294145561925,-1.1280890043397964,-0.2680402431041877,0.5206582997656197,-0.11111255273614737,0.7045929215437787,-0.3421118906012553
,-0.45864170852076985,0.5069477521185447,1.1380279176841146,-21.593281064985362,-3.604073430107343,0.14993669598506462,-0.11856863072693365,0.3208714503867171,0.7872979883412322,-0.8387835224568114,1.6925745607045386,-0.10519083457025748,0.044912326441524555,-0.5415384045873288
,0.12365459933710488,0.5726156878684601,0.7694677264641656,-25.85942686046849,-1.0677610326887461,0.3460791562395691,0.48994509734574837,0.5993990731847789,1.8124989992878937,-1.7241687838143562,2.3135853767870853,0.15051604067353253,0.11170075286223899,-0.09835250463201484
,0.6312299823208927,0.4325118716948156,0.7139449816730754,-48.94206345855868,6.02023065619362,1.2191446442476332,1.5119773135415058,0.5471201423768658,1.0593933802845708,-1.4276399728427798,1.5951820189010446,0.27043284592175026,0.27164552047582635,0.45435671477749795
,1.5908194628236563,-0.20369916289972606,0.7191344779472062,-72.82698259803496,3.616920394251905,2.0968061562513873,1.8546318391741594,0.16287963753049073,0.20105702178215118,-0.9210118793138632,1.4283257619200558,0.6975373206152835,0.48561712374590843,0.5918410825754228
,1.3158900770389668,0.11820922638614856,-0.5351042653424858,-11.0758318438804,14.72239007394498,2.0097517356064056,2.1720838151155384,1.0795089432545109,0.5837958933300768,0.27883094326708396,0.6120085421537237,0.822925423589031,0.6000112402276705,0.08681723900748817
,0.5396368869622794,-0.7238883849007949,-0.7296347312609479,21.55428095723711,28.371459932592284,0.4214463538677939,0.9340780976308541,1.1057426548717753,0.12312553303974448,0.8003853153627816,-0.10518060309948796,0.6575089209398429,-0.09505520500097445,0.12286601709943565
D1,-0.585478736283083,-1.1715603655292712,-0.4369124313915912,-11.581889647864694,42.33182034352253,0.8928057065507338,0.9993097966862338,0.38679934743848043,-0.21232695278855346,0.6574828543971205,-0.14254952657148418,0.38564208077447754,-0.6987847467548554,-0.249307093890293
,-0.7141895720010255,-0.8361129312498499,-0.7921561177857986,-63.28836001977164,12.68117046279802,-1.3960401120078645,0.5437692589878507,0.16592253621498604,0.6011119633074895,0.19555339656923043,0.6260636211318374,-0.23315188098548673,-0.2398156340556539,-0.5901344503850644
,-0.35211758283194305,-1.5426143859883963,-0.7599579750503991,-25.16683172351682,2.601318670804448,-1.0857291684636692,-0.5990952955542889,0.15588881585533798,1.3501915505506916,-0.8363438793605567,0.38404653237657516,0.705919543623986,-0.10591466479568587,-0.7776322753352526
,-1.0588461344022935,0.23754859586365676,-0.4430939157062536,53.15582240913411,-3.9907768492101074,0.1072572890210229,-0.5546640512409675,-0.19844554671876322,0.6332552498091472,-1.0624657069631769,0.8100618646499289,0.7728076437333726,0.49100874304897246,-0.7133725468654134
,-1.045304843668636,0.5568447284051901,-0.3584825662476326,90.57220778908382,-7.215667276692416,-0.051358897769383044,1.233673150735392,0.41438419485989864,0.7511399928809147,-0.8793313550547941,-0.08075872850739142,-0.189316339700919,0.6318312097102786,-0.3373868085388944
,-0.03962759073373063,0.34098609462258384,0.6050895590992598,62.57967109252958,3.4459842317029934,1.0244300890342732,1.360121531301799,0.5624445723378417,1.0814701131177598,0.12525938472133724,0.20095877645984292,-0.31119621410154846,-0.29450261767655833,-0.17062504114623087
,0.2984828959908178,1.1378087894738156,0.03496900819014149,10.38376637258723,6.075461151184408,0.45189969110560574,0.007576638300033699,1.0140426473738129,-0.0683288431088474,-0.4921142636129619,0.6867393650502666,-0.632100288971591,0.04964579352159016,-0.4015618552394565
,-0.5396543281912214,0.8489171315569256,-0.17872808816273048,-24.929702899770447,-1.2413398369192468,2.208838882635802,0.5345193334752296,0.9099317329717626,0.5049394852804872,-1.8339143323806444,0.001608121528268618,-1.263742574750401,0.7032019821473056,-0.060277889257439425
,-0.5197436667461285,-0.7669519328728545,0.13605967417876225,-49.831909537487405,6.160415130700384,3.561718514413936,0.7731831140556371,-0.07679886192486546,1.0001531440374527,-1.8610723351862366,1.4572368048739637,-0.6401363633817875,-0.29236250960447463,0.34646469502285987
,-0.6201337034195269,-0.11592355937807253,-0.40268042240951585,-76.02224400840798,17.453498619956843,3.1266448424124347,0.13343812150750264,-0.30437893646112285,0.9343101442563774,-1.5497345124127204,2.198287078122558,0.15710850105553556,-0.3982890571282281,0.2308296620364446
,-0.4593953863621166,0.5244859766983881,0.2594858933630507,-46.44122656706995,15.58231390678589,1.1014286270565943,0.5715731702985223,0.2162026730191683,1.9103644704737803,-1.8458635698633994,1.5621004205395213,1.2733823271916043,-0.41149953819980334,0.23948603557266787
,-0.545929390519659,0.5525201532330518,-0.04075628099363178,-12.87654580876646,16.904041519490605,1.5959442661557202,1.6744633465252678,0.5597718226791617,0.8198295472937028,-0.38395911821295725,0.3432988267829463,0.16526347710623834,-0.6163013076627968,0.22836059044805224
,-0.8099772699838249,0.24984245894646076,-0.5199152705410747,1.2968865913941552,16.76450596791231,-0.08606187302557493,2.2124198794830443,-0.6192208663712213,0.09989702072929947,0.10418891001943745,1.1746249790305532,0.4150488403072737,-0.5020037282961342,-0.002493057040837665
,-0.2078171848432227,0.7398849517405969,-0.204642903267615,-6.606583499063202,5.746503488566298,0.3488602655446786,1.7026680283069524,-0.27127481437266515,0.7136668919592333,-0.17228319808452286,2.19356782644402,0.23834221881378692,-0.2528524097661844,0.0061947333410891595
,-0.11413022268328896,0.7530140925824346,1.1108052663579178,-10.197792738171362,5.7762203670894,2.858724762570942,2.0486061012168943,0.6393299937461192,-0.4132067604536402,-0.1496348780339883,3.040461510901438,0.5034729391865794,0.4619898717204529,-0.1944378613828173
,-0.2443766959867884,0.019030794041808706,1.114522373831019,-29.81502822033506,5.626627056006131,0.626525842050039,-0.08219321842517659,0.3234105816512119,-0.26964064810658767,-0.4262733669926198,1.5130038983755385,0.7921065176501091,-0.3702009841329721,-0.1550535497991091
,-0.06585190484113404,-0.17581517911590108,1.1550335966133674,-6.613620254239622,16.402412524787007,0.10473423619846611,-0.6229211225978822,0.925882366730669,1.663387898607795,-0.8653815476606074,1.0186208280398734,0.8282639573293936,-0.16209620234048053,0.015449338945310845
,-0.22074969887229753,-0.4590311798157944,-0.19422143258297556,11.747641130282442,23.263027865263243,0.7540034522775165,-0.5456961138501829,0.8525777782274127,1.4939759422797463,-1.6014965362875013,0.2196131826106183,0.30839622925415233,0.6684021127706627,-0.2250362307566367
,0.238277026519377,-0.9078910671389621,-0.12970617911881543,-3.412953002751332,12.080887832938938,1.4455703166221057,-0.49854680059592293,1.0090592804478156,1.1503313942854283,-0.7216265566001274,0.13535770768268882,0.2756443322601807,0.44524359834114213,-0.05103566973639008
,0.750826488920218,-0.27969392535376564,-0.4585027235582847,0.28836469151976923,-4.236099127732729,1.0730673563835036,0.680238798607396,0.09832884652592024,0.6227769184706695,-0.8729451727014174,0.9203366142349731,-0.07867619921185774,-0.1473092299467933,0.15350442218819432
,0.830986892512335,-0.6663269659793459,-0.5181086155188716,-18.828063235702945,3.1466007390487154,0.48667129785029967,1.317884913385561,0.002003865974357734,-0.8148985442801062,-1.3487791386614163,-0.07468494569105348,-0.1405868872696567,-0.5733752342806904,-0.26219037361053643
,0.5770718996839781,-1.1024210151031246,0.7097343098573199,-43.33386092424607,39.251334433973355,0.9473450039550279,1.5854910091314063,0.6619637501131703,-0.7068698736371345,-0.7088729418284749,0.9067832553251126,0.6768518207153154,0.09857644511330477,0.0819170053559909
,-0.8928737913483277,-1.2222612706450289,0.8257702666017991,-12.76792881186399,27.325789198296135,-0.5539300638973201,2.2292381386995586,1.071476168200914,0.1073187271703912,-1.3887093345690016,1.8920546806847653,-0.30602049617508076,0.3088863044416574,0.7525430097584519
,-1.4630407932209937,-0.28857509481514965,0.19849744785624115,7.951224668071796,15.141594025243933,-1.1886964866716778,0.5467369161410149,0.41352097324123166,0.35562224485347915,-1.2692121051262009,1.7917936778229147,-1.0000509324494955,0.16604662215437413,0.7569843095951583
,-0.4438529194912709,-0.29035107698669566,0.33814345735541207,41.57753883212994,5.149518721662472,-0.2536969061372079,0.8960988308903965,0.04020956202235092,1.0948268493264943,0.27354112046535206,1.2070507562563186,-0.11252837604813058,0.4083086545186317,0.622879636722815
,-0.08664622450377556,0.6219874310128336,-0.5238873680356847,61.23492002412536,4.417375840667561,-0.26884460578895364,1.3496995460137475,-0.1729472873423795,1.7228009620797669,0.9136707672655785,0.5416586588343681,-0.07090164671239871,-0.38932737627744307,0.7419392754090302
,-0.06909874322270688,0.49148726657515746,-0.3219463994065235,46.28984384959949,-15.819455589279649,0.14431145039200602,0.9164826786232215,0.08801345409574737,0.5531923518355515,0.5322926447212308,0.15414532865149144,0.38756901585637554,-0.3366365310999504,0.6592876813274592
,0.6877588162673497,0.2999928566541329,-0.015112246737565095,18.64147771425244,-26.585203990723375,0.15009387833516064,0.7207326475859759,-0.12948622036104182,-0.22404294281762555,-0.037986100491938915,-0.5395881000568999,1.2119409790629254,-0.19384044646374138,0.33288722233983725
,1.0767206622666137,0.8305433716724574,-0.22888227153431728,48.057171157993096,-3.2443357176555034,-0.1884898455322817,0.3521079377128667,-0.5703225660574738,-0.9865273166375703,0.33411689607221257,-1.226310634506413,0.5826411162626697,-0.00342358256915033,-0.16293936833311679
,0.8263374886992735,0.23500858413966935,-0.6271610243396845,-15.69805272897561,16.007213083475058,0.7320764725505026,-0.6860585978853697,-0.40588045369417025,-0.8561038156883798,-0.8318217261451503,-0.915729507637568,-0.0909912008872837,-0.24411123076455254,-0.3667574951704453
,-0.3295782926933098,-1.0335080011743132,-0.2203183793122938,-39.928298939719824,5.657029874672474,0.7274134800195458,-0.3490302128190012,0.02941391475366833,-0.2403663336435927,-0.2261272487553482,-1.0240656935097752,-0.47196660027915555,-0.6490948728704002,-0.40014575788733064
,-0.968491115985831,-1.066798886908315,0.14788063811983823,-7.738620318681294,5.585413458612635,2.439709785472582,-0.0164099141844397,-0.6300129284107092,-1.243215181069785,-0.04337456014680708,-0.9934040449311683,0.09185112546394861,-0.13752410042228327,-0.3925263175305187
,-0.4440604728037437,0.475263696318862,0.3141464474542161,22.81174178304284,13.31526501102922,1.2975163252468027,0.544061718313215,-0.7109568463365613,-1.8575255453538604,0.30346018374828665,-0.41880533485792965,0.04927188202891204,0.5999909947217656,-0.3579147936638105
,-0.27157279511513166,1.036774184617769,0.5584853957578044,22.00572440505975,15.999460941865674,-0.3605574111710045,-0.77651612881987,-0.9854227235165682,-1.4976359100978556,-0.2275368826315907,-0.5312524445900213,-0.27378232991490736,-0.28229962102666295,0.05884062981121981
,0.1684791154388024,0.9344366422554962,0.22135704072728998,6.287022672336194,-5.565774722733469,-1.5979018369979858,-1.3125295259657237,-0.7948876304991811,0.006444107532201539,-0.9685648891887396,-0.940983935336686,0.5889327951425593,-0.6528279577595676,-0.4251696263983723
,0.1913222224230019,0.5455590584282707,0.24174519942168102,3.1174797292398453,-12.599998978888364,-1.7915052359396844,-0.3630757834459867,-0.3760044661287178,1.055094204990821,-0.16054944377336366,-0.6331229283713831,1.221538074849733,-0.9268853076561095,-1.341001440849177
,0.6439246750487915,0.04757108373236894,-0.03391337376911053,59.609473130729185,-6.206877413721198,-2.4621677630357826,1.9586686686327908,0.11502245703405274,0.4258343868407121,-0.051465017183686096,-0.7723802613957504,1.5233963831435517,-0.5439135952738099,-1.0525818269243632
,-0.14925192232133566,-0.3864458266356091,-0.04329866729175919,37.86886896081802,-0.015078979097202981,0.48164988564633643,0.5011648128265237,0.2602364506524354,0.04874776906409298,-0.6613944673637782,-0.7781908979811867,0.23142361136557757,0.47165321938798865,-0.3698303019446102
,-0.6600875381009921,-0.49001256646011193,0.06772783045029167,9.199142144718127,-9.085775146748551,0.6235912264785565,0.5122434859078103,0.4955399347033785,0.3369058743641181,-1.2377743409880702,0.07924845636290227,0.024413096458817948,-0.5255038472103705,-0.0012420178013235828
,-0.7151533799591538,-0.4927072856578745,0.24532431784983336,19.551857815391656,-7.9746268955034765,0.45356906030284005,1.141373562303553,1.0577410939543488,-0.02008979451365616,-1.2531868423319632,-1.3365105843936118,0.6284517637091508,-1.0975788307504255,0.11887284440495707
,-0.5136399776737854,-0.1157562873719829,-0.18465432247240696,-40.80099771878437,9.123111422743838,-1.1000599222097298,0.6001467820977916,0.06361665726035354,-0.9158987711256176,-0.45055804117917236,0.08071591716922429,-0.36852278826841833,-0.6648449187161064,-0.4687016470565506
,-0.6798881881716348,0.8050090363738617,0.056886902714575874,-18.138507331106204,9.161581639568936,-1.3043189628108405,0.3580577878458731,-0.2394262100926469,-0.43438755180403055,-0.6505790459884462,0.539019024055192,-0.25357029363790595,-0.6218511282994366,-0.25361714854991246
,-0.6241952250937839,0.6640252985929586,0.6765986546710867,3.3521083584993416,-7.328289482133521,-0.5881103465660646,-0.16982996666568365,0.15782427535431648,0.395412465186769,-1.0567665007635128,0.5538101482432367,0.2487039166583323,-0.5297031482417327,-0.15523731970840798
,-0.7957292590937131,-0.3932946359937466,-0.16216310772383677,2.8833665000116495,5.854347858227918,0.6857414378826556,0.42506254760536794,1.3153226329844507,0.5736665142403921,-0.5260144756422912,0.9804766061749273,0.6174355091379851,0.03380113712256267,-0.2527346449540246
,-0.10568738946992673,-0.9568744694509335,-0.7683556796926153,21.01667221290347,11.721439807824497,1.5086762827165527,1.9491615424484203,0.6107095568538091,0.8987835229678983,-0.758581264779954,1.751327339324806,0.35307621246320214,-0.1845833985047668,0.14894627634553975
,0.2985176561493106,-0.5852256774126053,-0.37675718737189867,16.769188824308692,11.235771444771144,0.6695104665181109,1.1290818701052445,0.6790234763158425,1.5752572036808208,-1.1733750584607954,1.1144815970362423,0.84576455609163,-0.5767290681845778,0.48194312138204254
,0.6960992512590783,-0.4693839020096734,0.6603306333254502,-42.06562822899033,6.462482215432396,0.6477522150875864,0.6249434806407441,1.1769713593530264,0.5879069705738694,-0.15569949888091122,0.9206737890041299,0.12471064419623869,0.034043542268669354,0.3614669184596587
,-0.712771074489632,0.33601439651037346,0.9318338915245825,-43.80262404989987,0.2393481226612032,1.3586953350792008,-0.031295662660069605,-0.8286560263655283,-0.49865189202242344,-0.23153556962177707,1.2894976394667428,-0.16287381990764596,0.014599238804499827,-0.459812026556736
,-1.082165107283559,0.6385635084627623,0.5488405971142816,23.93070495894913,14.338280881517031,-1.5353805385494423,-0.42858385968333756,-1.1373170186419002,-0.46988352600907723,0.22265176960014002,1.0521774413487828,-0.22575641118671086,0.0020719861525543516,-0.1962220695601088
,-0.8544495522769807,0.7475588644885468,-0.24690112389614013,21.773141580137466,11.933107863473836,-0.7887942434037246,0.000517665621688376,0.2885112201548939,0.7518218590860251,0.1470595260643333,0.6164280278566007,-0.11512619374961094,-0.7384670777311744,0.7032268316093273
,-0.5665504994054877,-0.16244642413215787,-0.7357273783943681,-10.765968500485641,8.785280452926965,0.7127945117396384,0.4496931449905723,1.154237479860171,1.2155867720971059,-0.42279037324259083,0.1672954691440804,0.966035295032307,-1.0637015205822293,-0.3434715483963021
D2,0.21228688286583178,-1.7330259446235268,-0.22940819084616643,-19.806304361606713,-1.4259117098367784,0.3703976153267812,0.7834796372790988,0.4335384178429608,0.40326074900385395,-0.32003159557702987,0.9466732617333671,1.4681887955653774,-0.23968039244489925,-0.47944572582080724
,-0.3103051707523341,-1.747336908464468,1.040521230087286,-40.47241453209687,1.0442158519941007,0.8239862923621482,0.8225456863072891,0.14651937967390766,0.09167255629060435,-0.9012068925026057,1.118740396156928,1.3561920947359314,0.7465610356708275,-0.05287442108459206
,0.3088681308540142,-0.8116105554176698,0.5801948004313919,-7.427356667109052,17.875639572283173,0.8536517212581164,0.24690018998607718,0.35726938800744384,0.9842482343471833,-2.344218485537963,0.6605228309274942,0.017955291181848836,-0.35272880496193426,0.4131777191293694
,0.7345727797712787,-0.7780136077637617,-0.19125224595781995,1.1363818153978313,13.201552454924594,0.5953939943452398,-0.8783056399575557,0.24990979563788268,0.547786998426341,-3.264412606899241,0.34038391695981596,-0.2992877687767892,-0.4825290463203848,-0.5513694470404006
,-0.49049967503392544,-1.7581240990468339,0.14455719158674418,13.49114210225642,1.4833006209965864,0.7544273812163902,-1.0560135453679764,-0.3230499941917071,0.33533662476635256,-2.0051795486140915,0.15031720362092232,-0.4098363485396223,-0.4623928253936867,-0.3674022513631791
,-0.2121512487503231,-1.6818645231175828,0.4879591762580224,-0.520966444494072,6.727388232289661,-0.6575996933283699,-1.354683697274414,0.05894434917816326,0.7005982531831173,-0.3997163905957679,0.6649528526569333,-0.35850978590262655,-0.6356078181824213,0.3516355534161412
,0.5425645897014233,-0.9423487095377232,0.33815122950759396,-27.745513034298703,3.5181666305643757,0.35145711594877926,-1.0454492682923606,-0.6549833646544734,-0.4598859466816957,-0.021030796806019356,0.7185155775316815,-0.17629546551166397,-0.9074351491729835,-0.4815867803352221
,0.5610632770483635,0.029520331014235814,0.506113793550178,-35.80491337691171,2.458001281992185,-0.8225405012393552,-0.02535205335061119,-0.4775319188057229,-0.044343569127093696,-0.13383397046303985,1.7905367837275636,-0.6661744241255442,-0.6220677460314724,-0.13377260782209843
,-0.16013951147508723,0.10842523779388323,0.6364830592275719,-56.12547984081797,0.9929046404273424,-0.5263593779619187,1.5401535529183206,0.5254539998278731,0.9465016096044747,-0.560421157361725,-0.13768095480924422,0.01632598259490809,0.0008239936672916668,0.35890748689237784
,-0.8743317938444395,-0.8608111309711385,0.01631728886251422,-42.561126517836286,-5.432706352708304,-0.08359563861816008,0.7463960199968325,0.8292423372817737,0.22312643392139342,-1.3605270309346853,0.24960630316062854,0.017139783481531133,0.22615787160997522,0.2674367952562671
,-0.27160660682372706,-1.074812144622187,-0.23999613446331178,-34.191070725466034,5.881907016581265,-0.003443605748361001,-0.21415123971342556,0.6913130387611823,0.2491684826427322,-0.9632848931984432,-0.1200133776802789,-0.57012432984464,-0.04091244269467845,0.7489057583212837
,0.3118315598676325,-0.7457614167065141,0.035800930191510906,-41.27935141322693,3.3069300400305326,-0.10109266363418917,0.9461224605756345,1.0208378122252941,0.8587441753634597,-1.0371163383515145,1.1401559067233888,0.2587543630795236,-0.1911381497997188,0.41300135636320023
,0.015701758547952964,0.30867757474194213,-0.5528642987296098,-65.20974319491015,-4.346079686769347,0.33595831882770516,1.5996663278682244,0.3535436439767958,-0.21977447092077051,-0.8155887019520928,1.475921860467486,0.44420520143328607,-0.38092397056234223,-0.30677155284843505
,-0.847668257218456,0.29545370296930734,-1.1809688022456781,-34.13507477820258,-6.460760166886642,-0.8675200133822544,0.1673943507157157,-0.1318790683596356,-0.8316649641478582,0.6468916039254458,1.2030989390841411,-0.1773754210766581,-0.816855447684983,-0.8665430712025783
,-0.6929849917747001,-0.47815145387944485,-1.1211750428211213,-38.637204285293315,-4.551185178286309,-2.720939309829544,0.5467417226584715,-0.5092016619570376,-0.6143519803379426,0.030502194458213016,1.6082353403175067,-0.09796352303132495,-0.5763291846695833,-0.8431928226242146
,-0.11982487894462558,-0.9096035181870409,-0.8216354315626367,-10.714243310830698,1.6322339402090593,-2.575185968965983,0.41705233653082135,-0.1942232375210723,-0.6048280809685845,-0.13746855141348602,1.500526405397545,-0.8825318028369528,-0.3226663166018258,-0.49425496297109
,-1.027334548938397,-0.5761694268110462,-0.6917983074290583,-31.03351823393863,-2.6275587023932614,-1.7488711257015108,-1.9981814336891202,-0.34539773528590934,-0.2680126923671066,-1.1994099337890363,0.39826073102274173,-0.1356910316452163,0.019425428900714716,-0.7889771696781781
,-0.9353842622530786,0.2785700104297019,-0.6806691365501362,-8.905301936311426,-4.361113670279457,-1.8269440264405135,-1.9175570487468778,-0.7147299334919324,-0.5305143394440553,-0.585495451899243,-0.4183731658728922,-0.17606636154676295,-0.6716438059299462,-0.7704100836564425
,-0.14588536485341727,0.712381832329002,-0.18147867837561282,-22.383937717343112,-17.064690404401894,-1.870743559469416,-0.16324192937973456,-0.659140985607381,-0.05573273136506245,0.3506505851310447,-0.1896500625339419,-0.5493113717562323,-1.0099553564631867,-0.08096823859869022
,-0.31371947963345426,0.4865823309104015,-0.048912406209422776,8.406492964601867,-22.066674672019868,-2.276016609446198,1.7217281283219437,-0.445594442816661,-0.041769377918067924,1.2337818140086259,-0.7519546634130232,-0.3625364183593871,-0.20528203220255548,0.22584840764914252
,-0.08572894074222773,-1.4208810008825923,0.33755077264569955,-8.553545157382647,-9.72356481743292,-2.2660226019877663,0.3278352565419766,0.2107658496717441,-0.13504344870181614,0.894328719768643,0.45094762607413585,0.04670038742694816,0.08094395019706019,-0.45814569125772125
,0.3852099759792353,-1.8402616887895646,0.2909092665517732,-29.102846837726606,-4.208045402787208,-2.2044521165843327,-0.9737916492031942,-0.7363978234938399,-0.7249318087617915,-0.007952876804218736,1.3740931857658245,-0.3396279838195729,-0.33717661580691627,-0.6686656671812583
,-0.4420108916326383,-1.1992025073810968,-0.03164743654314843,-0.813181307270216,-5.311030324575732,-1.3056214980968286,-1.3361645502511634,-0.8939360022714171,-0.9858841359014069,-0.14499250058473426,1.9138181369090252,-0.03558046201048802,-0.4376347779176854,-0.5713434707549847
,-0.7828142020361659,-0.7961980116179066,-0.5550418332756198,-21.885109164996983,-14.3080938317051,-1.5062899109706065,-1.4362333200286457,-0.5739562468801364,-1.4421553479915334,0.4220031838204033,0.7253483685949502,0.19742863861794455,0.41468538810789923,-0.22665346659580693
,0.0446697869778517,-0.8382734519550306,-0.29926305466604547,-63.032979674166455,-11.314533024133398,-1.767277795367796,0.1357456661302681,0.16240045665226696,0.09094599844528296,-0.30758690620959167,1.4479586692784234,-0.13178236499644294,0.4235563534797266,0.1421063868467572
,-0.24069930056480912,-1.2110125515791603,0.4274909536638583,-28.4362770570712,0.6544678097763748,-2.6047647937688927,-0.15741445869448425,1.0900333027812874,1.1308708903044327,-1.0064203873007234,1.026953624063433,-0.21454736823735063,-1.3419645063903183,0.201212700165405
,-0.19707630227542147,-0.9344995826363228,0.503919854131013,1.6271169795012579,0.3515559438182035,-3.0591898370336668,-0.7047673627574739,0.13316571584829434,-0.5293782345313323,-0.7255831462416034,0.9593135954261948,1.2468929107366047,-1.4814759133234576,-0.06840123675060159
,0.6023112089690664,-0.6739333718500102,-0.2032333323270947,-15.705311904647738,-3.367331872479891,-4.272397596200956,-0.1466923266370892,0.5595997006434309,-1.0358465605535185,0.06751547741743924,2.365829518308457,0.26157295072602726,-0.5564112888437378,0.19824732339593193
,0.03904205538289782,-0.9685747119896694,-0.4438787875130028,-38.44724409506145,-7.674254352595493,-3.4518088557134248,0.9943999358545994,-0.18010951488824994,-0.45189629111255797,-0.2910483988073456,1.8768182976943288,-0.36642284651474255,0.35439879397526447,-0.1299568233735919
,-0.6386254355992788,-0.9234369278808799,-0.5562933360851439,-41.098388290543525,-2.6255504019058953,-2.779548021397693,0.32186609625188217,-0.6012850714536048,0.16689080447090443,-0.7126400687032066,1.4130372199241301,-0.3074393347907491,0.1475783739482049,-0.1508375425563499
,-1.1081935872646806,-0.9653399294600962,-0.632291276738948,17.216703297381304,0.20612620794260023,-3.0882232828175225,0.42132944163775876,-0.5592857965941277,0.7296692711043259,0.967945523338941,0.20512710422725933,-0.5727125191121583,-0.6850948827849885,-0.16098876290044392
,-0.4769863615459109,-0.8271754399286241,-0.5822656142814319,11.09003577812664,-3.5094901894002812,-1.978876176616723,0.2813026480258928,-0.7214683975497967,-0.9443606191455515,0.9476352037746842,0.34356892940525174,-0.4765040030316587,-0.11143200199058075,-0.6127830536591007
,0.794961208159923,-0.073156526526765,-0.10477485483795958,-2.356792207399981,3.52823682842819,-0.6052550554100115,0.841871369183082,-0.22101890790803738,-1.059620445513462,0.020864919913981903,0.9356181819687244,-0.486441649517658,0.398606204600345,-0.2264606791995073
,0.32846787270872263,-1.1600644937586557,0.46038887306792126,-14.723097301846115,17.933930107124944,1.7000368855897583,1.2372567513575627,0.6007304080793354,-0.1884447160105871,-0.4386264793955805,0.22733181607414082,0.4519698832595121,-0.8957829428314399,0.18592760390257843
,-0.03690299538462519,-0.8091501234975649,0.44575968946058114,-10.589823260497466,7.34011566066943,0.9414124930899311,2.651805396038861,0.4864313815116386,0.16261253011249352,-2.5652512827007934,0.29008891271931264,1.4454023938790277,-1.0777767871315853,-0.09608682092631542
,-0.6212538258829726,-0.6552433733478709,0.3732691930858079,-24.179759009416557,7.877101639379008,0.026294897773010674,1.656745003485328,0.5829970494235142,0.7914999546479381,-0.11050693544016754,0.5332250120473286,1.0207436372046803,-0.46916060789351327,-0.19896577225889953
,-0.9836749191818314,-0.7095158712692976,0.11799634398039464,-21.07339507764996,14.433494871368433,-2.107616862728382,0.9207630191180232,-0.17045731106241555,0.9485210887360014,0.46965743623608674,1.4843173863315084,-0.03667822747516601,0.06310731940593739,-0.3573516621899015
,-0.3408985672491349,-0.60211536690637,-0.043061191045027564,-0.2770491226476466,10.90228264534665,-1.7732930407524263,-0.20350767495893654,-0.539546058476812,-0.1529125758389021,0.17656899929137676,0.9823637133755493,-0.9749136872043276,-0.7574014526714152,-0.01686657391461372
,-0.3672993672820259,-0.6552503807301214,-0.24579692212431647,-15.190691502222858,18.152660205171088,0.7429898690651389,-0.2876716046248666,-0.5691400193482592,-0.4261198645940465,-0.014379655385719798,0.3684085779406725,-0.4518714719428708,-0.6641289629806343,-0.5560741987566774
,0.22627276451524747,-1.216319413826147,-0.24600430569696202,-69.33013982122517,22.850619269641104,1.3942378447887813,0.6093519255095113,0.3187225552990551,0.1521770943224154,0.353703076702534,0.7169343098508177,-0.1131704326524232,-0.3158666254383408,-0.27453611914330145
,-0.07516278840224522,-0.8212459189193201,-0.03705205307988835,-18.20617287652839,15.646594546336587,0.3008915284243961,1.0186742177951458,-0.061130112851325406,-0.36523842550517627,1.072442650779255,2.1423112822569963,0.24589772916312366,0.1003346210424436,-0.4232166249218809
,-0.9707710565782275,-0.1472000234644091,0.14409168551981297,-0.11845345225494736,3.820553675880314,-1.6995447236281371,-0.5376961167572143,-1.1591551517331664,-1.4613521465782415,1.284349612372504,0.8005593413621118,-0.26918199828733963,0.1194568327964307,-0.8576638347484158
,-0.9054608505388237,-0.6921507790032665,0.30814575471346006,4.336998498822709,12.321174748379983,-1.1598971721246494,-0.877147634766503,-0.5554262309238902,-0.09083292187241088,0.7471987935487052,0.6303391132665082,-0.005390126421323762,-0.28021329118843596,-0.16855766305335526
,-0.6620510583069815,-1.6275644986652353,0.5084315840813011,10.729417498762405,22.82970490789414,-1.635866331454876,-0.03955544831442403,0.19268333724222583,-0.018711778572657562,0.7827166069104805,-0.014625081045108951,-0.11467208573969337,-1.1586448074935949,0.15782868270533804
,-0.3334043200885437,-1.2969725926603646,0.6058671504078499,-22.28094239815947,6.141305930265996,-0.7473103751269645,1.8802765969132322,0.37272245232908024,0.01944950323494076,-0.02463464911505295,0.0441929326771317,0.3674690009435744,-1.2156020405362506,0.1913075780805888
,-0.5129115800937935,-1.0630048562202177,0.20334713656555262,-52.47511882859711,1.8833337343173941,2.298614976830358,2.677797252662289,0.256579632271181,0.7050998291088448,0.17387753516600082,0.5327784339112848,-0.2023766871876627,-0.5938817420856773,0.2676401733919995
,0.14571506035596093,-0.6276728272342966,-0.3988493463420461,-46.2680467883869,4.690005427398759,0.7734294685691989,1.924426116051618,0.9213699679419654,1.9619992091683367,-0.30813784881715406,1.1791714189817823,0.026015566662132256,0.010403092686251366,0.26168504078921934
,-0.14469459786210165,-0.2551058735856858,-0.3510658582142761,-44.49550198280609,0.28022191107433775,1.334809516792557,1.5951910762750063,1.0582694288307157,1.6464707131308993,-0.6062292585745105,1.0926706575003857,0.09322041522592894,0.09701501615090354,0.12316278590149068
,-0.7201000078931007,0.1738401111862838,0.497676524809838,-31.27296994391027,7.530920927371483,1.9609591656719467,1.3307935171397858,0.5277112220723291,0.695074036362496,-1.120246097121019,1.1053599137302432,-0.19538580595272959,0.17180616862936937,0.14388221116130134
,0.010593954457564362,-0.6692057373406407,0.2370918177617436,-18.423919971602576,19.015270361466193,0.9116243285869795,0.8486771802429279,0.985889069779704,0.7503602541824246,-1.8022511219192736,1.218381610137599,-0.2750439006136777,-0.34469964767442424,0.18646652480506323
,-0.2117657303993224,-0.32452091830877705,0.17639794149638197,-33.91909704881361,20.610580062807017,1.5263083997270444,1.1161374258704166,0.9347228959813919,0.6752393248393342,-1.6809991449023065,-0.26156285360960274,0.9198593554143522,-0.21834249494616112,0.30057221083455327
,0.2017944973843738,-0.689143305774738,-0.2868678835034795,-13.46734110751544,17.885132668936716,2.6190034684772012,2.3438154852037645,0.30023341683523647,0.0549804708229273,-0.9659129732540351,0.050683053180561835,0.49330206041976565,-0.12931177699715873,0.37178231895247305
,0.921075325218674,-0.6321650222104487,-0.858161230505813,-39.26959709737015,29.58770025298827,-0.768636231889391,1.5260418115175711,0.5351488760480051,-0.2461737615508008,0.24249239781193638,1.637582478436288,0.5585047866596625,-0.5318003756743118,0.2555670215553125
,0.6580879468048968,-0.261451561179379,-0.25899911908413675,-31.703801283169014,20.628807293858024,-0.8271445650864344,1.0882139372885444,1.1506896425615114,0.3471901401128234,-0.14276649584840712,1.3020529752929264,0.8620164623901223,-0.1588600680574529,0.33871609147603765
,0.15891012005345012,-1.0241427016342435,0.3159006048110695,-25.934766144775477,10.24101733371796,0.19341117047184836,0.7235528109893268,-0.0019605944523624205,0.17638347307876062,-0.3540622247040636,0.7605924998213688,-0.2961017968835911,0.25446984069388123,0.07792758166415531
,0.567069101278237,-1.6897316524362753,-0.4244051334525266,-26.391287726195785,0.8778146539383481,-0.7019480622238612,-0.23990273333031817,-0.2568269772482292,-0.50064691772581,0.7707115637234095,-0.7495936487931666,0.28248108867564925,0.08045791694267604,-0.2409976145243562
,-0.3666807119663842,-0.9525164288884359,0.5922883728211069,-55.91184227332481,4.0203411807729195,-1.6096353960719558,-0.4121030699382494,-0.06870092807879837,-0.3696669783533592,1.0013180289834218,-0.22860324418249808,0.3210177320102874,0.4057730162185535,-0.3968681889131222
,-0.857292356039006,-1.2143600916587618,0.5861456955272291,-111.26176956108074,9.882995485619196,-0.9563787635185165,0.32275727300193874,-0.15785776479853744,-0.7119642966620165,-0.5747403817098102,0.6851322639624562,0.26273825273562595,0.84096162839385,-0.21043399715025105
,-0.1679878967156017,-1.4638270823277626,0.30245994813814453,-54.93504418343393,11.66440745389018,0.373323465138336,0.46442675764464647,0.3055640250970898,-1.014279808043459,-1.087171035405649,0.3018754958155952,-0.35397015930482895,0.4749938325129632,0.028413257832513097
,-0.3844731953520466,-1.3666112810944628,0.8053432975021905,-2.0165457903888933,-1.5975991432294256,-0.5745419551329515,-0.834871618727677,0.6438927741375776,-0.12091086991871547,-0.7559426309458772,0.17073318738469886,-0.8745163927654145,-0.10817904728007034,0.16985445634250995
,0.4668182685044838,-1.6962025419717441,0.9612192927009904,-2.0543908248953184,-7.315864421248427,1.1900066100699558,-0.6524456354475102,0.6780930871771415,0.8743959527473336,-0.7569877469563743,-0.1471990400355105,0.3599167193913956,-0.40997417827102145,0.04600608990028131
,-0.26948177365556597,-1.2526737223818594,0.6664691321476973,-41.373575177822204,0.819129893634738,0.37803359953521953,0.7961136211840054,0.7463942520515462,0.6514355124233095,0.14755234685048269,0.041097483285952086,0.7772052454839783,0.35373960343938804,0.08573539749623535
,-0.5015483784873034,0.08220045974197937,0.07627574547414334,11.070658597959087,-3.6323114438024673,-1.5175854954318966,0.4766926417677127,0.28821079476131567,0.5099975314057901,0.5133255328992451,0.2443754611761717,0.06904869252244396,0.43082836305945504,-0.13093161327672487
,-0.4407669197971611,-0.46667080278366196,0.5669177990869895,45.1237276549211,11.006510452354341,-0.3005083409711801,0.4162263342835438,-0.21142746950386185,-0.17168141811608684,-0.14629063193031464,-1.3132998783479066,-0.19006867560236462,-0.14699877705270448,-0.3412004898717954
,-0.04443360606729564,-1.337361979046791,0.7583064430419929,51.6100098058617,11.112944849273704,1.0948895432556236,0.402271560317015,-0.35261677983878004,0.2371131980702089,-0.13722002163047953,-0.6995243872070069,0.06941682419661166,0.10713584925749382,-0.5325008513352344
,0.23356755623073733,-0.5239857924531551,0.5084245340203492,21.94702342977476,2.4830664700736036,-0.28925277799319826,1.420980863119016,0.2917483105100654,1.1058656276334813,-0.6940590042835084,0.146672730563218,0.3354089638778371,0.327249419928334,-0.2096459903050684
,-0.03461944816479814,-0.21591948145511886,-0.2593465686662315,18.293183296777677,-1.6191484988865648,-3.4486599061284453,0.9631664371088386,0.250253365652624,0.931795398773065,-1.7838036928095582,1.415238110797766,0.6228219243267497,0.053534096273588974,-0.49980023090665415
,-0.028150616718960148,-0.6224929139686273,0.37737971632990575,-1.3128297063742942,0.6058146770956279,-2.128012046386828,-0.6762126234619136,-0.4013669327632815,1.6686224385634743,-1.992456651103677,1.318173542286758,0.4207943035668939,-0.19444310041015045,-0.46303631290457115
,-0.22836156515298509,-0.8016235987523693,1.5625952768791818,-7.838455285347608,10.943130805913196,2.4113634135390583,-0.622312071848548,-0.179759846924203,2.855533512752062,-0.08583649621479905,0.6842395903483202,-0.015041831357579513,-0.48413199537227875,0.11309987627287969
,-0.32863365860849536,-0.21477148058157078,0.3476303464210456,-17.755015830711468,9.71788366544633,1.3128232316000572,-0.2633149286942387,-0.00760824778630176,2.4841742728742213,0.9802258763922376,-0.4794537132332502,1.444542709606857,-0.3716165755118797,0.5708328859031605
,-0.018836384223976873,-0.5594642728155556,-0.3549797815614437,-22.498969332872743,8.972102539899742,-0.4383419294218465,0.2979868616284697,1.0095581631934598,1.4838063403562485,0.6248306470444013,-0.8074935809589646,0.6245866281547133,0.14694990946194175,0.48405093542535405
,-0.4189163663867773,-0.5507976216365903,-0.09675363392480317,-17.38072888757157,2.264990963010626,-2.026182915470791,0.5799028688099774,0.7511781750778634,2.2569338279440982,0.8726863835544331,0.5032378255863469,-0.2990051791086195,0.67535884944815,0.12415363532918677
,0.20689552321186164,-0.17733807345629735,0.7884160504663189,-6.519561183807846,1.8907730461553844,-1.1088931717931076,0.5836185291964966,0.544497009520605,1.1191492335123776,0.5653266449695429,0.8560921696230422,0.5014017295301295,0.5479148127637475,0.43986845276750597
,0.6155163086771769,-0.7836522706682533,0.3050647134891288,-10.00163623318094,19.47178787266022,-1.7306226056742673,-0.5677000242701004,1.1942827015176505,0.944615453885915,1.0416429077435934,0.94389214094357,0.7385252291971253,0.6551896362182081,-0.02939186798721222
,-0.05424481525409084,-1.0482885853445507,0.13345271072836748,-92.9266172215525,25.684868706645673,-1.988646519855362,-0.45616195082852606,0.43114502316599906,1.4033113603546468,0.572026668668404,1.4279688779516657,0.7743713345056076,-0.4016598918661099,0.34918478433755906
,0.340128787594283,-1.2308632831070174,0.5987046592900882,-37.62480202254163,26.80802728224594,-0.5386788980049243,0.05459959144202925,0.07123733376032615,0.20810754075427004,-0.5104019800744748,1.2420976694860364,1.4397209991399873,-0.9077275381813127,0.6295384528468764
DR,0.1945064603401697,-1.4020733162433678,0.9950572274631934,17.573673657436306,28.91558299592106,0.5786784842324701,1.148469182748489,1.0717655070711667,0.2948404228742025,0.10720263767341937,0.7848535018170054,1.4671592133858333,-0.8930386473961102,0.294155178147485
,0.4746189060630044,-1.411759144330029,0.09453753200292028,-1.4935887200789635,18.065520917857967,-0.1355229719377235,1.5369264068908277,0.8491790312268611,0.5874758421197882,-0.5077720409274747,0.662464233859805,1.5084703235069772,-0.24305171237672105,0.5364334589773034
,0.3226887181373812,-0.3895155846569926,0.051117724591146746,7.582982362420203,17.678830527742573,-1.7040110687212013,-0.03371978817730084,0.17601207438730868,-0.06428538422316898,-0.12557167731602045,0.8340615741617755,-0.007404188444322567,-0.40933997349995127,0.8903253318170037
,-0.8677558566368314,0.1723622168098877,-0.1504231438861855,9.063963585427226,6.424541465295267,-0.6827934310525752,-1.2327547577057425,-0.15675326767239964,-1.1687858719776463,0.6428029056905228,1.2551873303886412,-0.44378578094872806,0.1589309446753933,0.2671807626545816
,-0.8119903959390563,-0.2949764293709742,-0.20212244124633635,1.2938152052494851,-1.536121069288107,-1.653118968633601,-0.8656093699673446,0.09429953467643258,-0.7921535339177086,1.297457471223058,0.20367418763266137,-0.12010676277743296,0.1343712844595495,0.0664580255420443
,-0.2631156984447968,-1.2418822680662553,-0.18551151044403202,-17.261232388919506,-4.058191660187227,-2.813522223902481,0.06177031992109275,-0.5850722429049414,-0.21893189405672628,1.3128725557701564,-0.39235707546613635,0.698114806460018,-0.7455244927494424,-0.3790213469243408
,-1.0474490498535298,-0.7035783608324403,-0.0015360129551586243,-20.475446066714397,2.401598030132965,-1.7193300308195127,0.41608374426929257,-0.8182404696060752,-0.6817576354984632,0.7889114853260156,1.3840849046357468,0.16914266180139287,-0.1639881135455362,-0.48148177523665864
,-0.763831811793501,-0.15982910214709875,-0.5226139441368841,-10.174784669360045,6.057194089733102,-1.0656097063265926,-1.26653921071614,0.1687393187034258,0.1600206756146659,0.6049287422489878,2.334044175121244,-1.06171695936807,0.010538791701289331,-0.30298496335420816
,0.0171304300308575,-0.06673676525727017,-0.7516107806747436,-29.114210415899404,5.028616795285108,-3.286610327225099,-1.5051009398231887,-0.24291110381725928,-1.1111767321185528,0.4413884524531519,0.06784354329558558,-1.4653309414487694,-0.6798483501049474,-0.3813344095384462
,-0.3176349123431426,-0.26077339976375896,-1.2551845093836118,-63.58022866523674,11.203832804980083,-2.5284566154034414,-0.4315408394131203,-0.7565160851836633,-1.5445224438883465,0.8967892433585585,-0.26790852290703177,-0.6588094424127603,-0.20972332459089432,-0.6769144582056673
,-0.21625188515256552,-0.49650936351967856,-0.7946251808604804,-61.833743650960066,2.0364127897904867,-2.3892907449604466,-0.38903097790506846,0.11997989603550047,-0.08721993933490062,1.7714545044354197,0.5955228680830045,-1.1173991038187019,1.1512767760865907,-0.6919224035325522
,0.9880567026556943,-0.951933735047542,-0.29856390181153775,-58.32885254232967,-2.1809521328208112,-3.386351519183393,-0.7941573047484725,1.0960675809018732,1.6314770223930093,1.6191237774564686,0.18251699347091496,-1.152785631164555,0.6659951283492809,-0.3908279567915573
,0.19114683668189636,-0.5494448166936314,-0.04361212907706941,-18.800867019836332,-6.070072621289019,-2.775242390802116,-0.24033887763600226,0.24244848952957576,0.27838388982962353,1.4703339150810613,0.7356568251528223,-0.16610210333605638,0.4354180107498082,-0.5079532701476314
,0.7168421896923296,-0.8131047000674182,0.8073631002693279,-37.311284556360775,-0.9125252355334982,-0.9518426388193646,0.029774057408678348,0.398567032059028,-0.6475572041519638,1.2512345487214607,3.2517411962206952,0.2568643674960461,0.427245873837293,0.16411482241069464
,0.5466889760406825,-0.9362903549653566,0.49318787647477647,-61.58996314790089,15.440682612133513,-0.392678955633814,-0.018084193434209306,0.9514728502763727,-0.4073465108914843,0.8795171484586651,1.6952791052700587,0.21981802408128598,0.5221722700206448,-0.14121148339478248
,-0.05855752131711875,0.2975421666425273,0.026320855113858562,-27.119800543427885,11.059928415349756,-1.1953655725270886,0.17574974236978114,1.4778727444468578,-0.7891014398583333,1.3005766015603855,0.8895972583071572,-0.09954482470287676,0.893600067273296,-0.24984706666326667
,0.10370103704133242,0.5592373396430587,-0.2408041988820031,-5.188970124140004,-2.4268686467077045,-2.53278075955527,-0.8633942032724388,1.7919707486532956,0.18400668799534722,2.200275793077822,0.3546292734506923,-1.3195378922188505,-0.6111581969775131,-0.4990540305902832
,0.1916247612984527,-0.2885814482799141,0.5258529716171995,11.720233282243115,-5.168087424380869,-1.2355942970773524,-0.5307325230635586,0.6646910263312406,0.9699725919148303,1.7245956562894762,-1.1090202394135378,-0.8286508329595988,-1.3620918136276141,-0.36505157532788735
,0.07435019786019635,-0.5344301300206663,0.5112560327012189,4.6314311203849075,-3.9161320552958605,-0.5173875270000474,-1.58481115725711,-0.18041496381455013,0.38617168721804357,0.33455483036470485,-0.7283097559794941,0.3086242579695742,-0.5617046992795918,-0.2346408521369764
,0.307516228731489,-0.8594886545851216,1.1254593677102063,-12.983789943283771,-0.09904236986647093,-1.8542991803226605,-0.5351501762882919,-0.3394267339056445,0.5046436867861209,0.7969026068013054,-0.6302801564238658,-0.07926170784916677,-0.3266270999244317,0.21147730920688432
,0.26962659339152967,-0.9171308568622561,0.8932627786889307,-19.07721179330288,19.8677471639461,-2.214375183448251,0.6086718288256728,-0.08491123996563561,-0.2551297885525276,1.551478579979686,0.386714317715315,0.1918940497175291,0.7442736522904905,0.7778734116571082
,0.5099278444469798,-0.9395275181006254,0.782253082674545,-2.8965489172050902,6.978106571499011,-0.7220267372615756,0.8046823927904608,0.45499853293298437,-0.05070252686945593,0.7802689552257798,0.6500658125813071,0.91528239682092,0.42651304233089965,0.11311991127535105
,0.11679433626777623,0.236364645434164,0.48267124699727787,-9.628324441719263,-3.148903614426267,-1.314599718940507,-0.5868836355186794,0.3490620446871368,0.2771627320064426,0.6288912585731634,0.13050348973158912,0.680826611347613,-0.44030204324337063,-0.08591115827241382
,-0.10312830641110983,0.3619138008991571,0.22858803676404055,-48.58081644896737,-1.257108896463309,-3.3755343610900694,-1.5595188265431617,-0.09296604752456333,1.0487054025380536,-0.5710078508032835,0.8601696326145405,-0.3544096814167672,-0.366348173781194,-0.4531950685439074
,-0.3972743480201272,-0.7755645591330749,-0.009026192721137116,-56.06713132719119,11.574564293559341,-1.6606296912797378,-1.142990021542688,-0.16449111670067165,0.8126903571938294,-0.29286661583818646,1.7791274084473847,-0.27438286401661477,0.03812791609542386,-1.3737303134887504
,-0.6523520519325948,-0.8336315448079599,-0.1244008594865148,-23.295337551746236,11.474149353615962,-2.687285194138477,-1.54005224438658,-0.6919908888677261,-0.5121088251207042,1.0736644471405061,2.047885241980945,0.09740477699444902,0.11891664852356514,-1.0609290094504336
,-0.3377885520667391,-0.4213402329384722,0.318176866187553,-9.923814494564464,25.006915780628276,-2.520039118532267,-0.9540632691779012,-0.24268934724397143,0.393024563077472,0.07416198906915038,1.250167644859702,-0.22776591897011525,0.6912785349371829,0.2435962560488133
,-0.18414098189860242,0.4784387838457624,0.41014232326376765,-21.81199870037139,5.288524947221463,-3.171188833579074,-0.25515037006348384,0.9733080316944354,0.3284332197261838,-1.5711393798163327,0.04912312009913579,-1.1727426622709132,0.44874032068774794,0.050858225334931645
,0.1367204294295957,0.4716307646349371,0.36219256184014564,-15.031719328865528,6.72856407979187,-3.2094920741449093,0.4573999103938848,0.188292177956109,-0.388314125963029,-0.8006145895652051,0.3973515714800071,-0.5535745439770737,-0.08930101779583925,-0.035871177440411364
,-0.06635280282040354,-1.1266078457678161,0.366667602381555,-16.227924759282473,15.74253334695369,-2.01506934907443,-0.4763160239278901,-0.2124426976891866,-0.8978350189700454,0.12309237031616146,-0.7040934284752729,0.5717513850966942,-0.7919781118770561,-0.10650563959204441
,0.49905092230785314,-0.5610837206822588,0.47812340718980323,-50.895286579036096,3.1956102450335857,-1.0765572339221183,-1.0872123144613468,-0.34774494524006294,-0.6259656323565715,0.2654005325795116,-0.5293827529515923,-0.6974066672773678,-0.5876200865663187,-0.17071169479752937
,-0.15440355659286809,-0.8337253438288008,0.37399124220798496,-65.22648284039386,-1.879345180952884,-3.488501135114121,-0.32152162385197974,0.2777315978632784,-0.3585429119683293,0.6716785807266045,-0.17741620282604526,-0.8889916799409887,0.0741907688282802,0.19807906018550894
,-0.9472594206977138,-1.1275258900327103,0.5395027818102301,-15.0997717587622,16.021852048628425,-2.230160726652065,-0.33625075733254894,0.563369572183633,0.7045542746057069,0.03894768873420094,0.9326297247198376,-0.7277226662347125,-0.029727719757944086,-0.26667945225955175
