event,eeg.af3,eeg.f7,eeg.f3,eeg.fc5,eeg.t7,eeg.p7,eeg.o1,eeg.o2,eeg.p8,eeg.t8,eeg.fc6,eeg.f4,eeg.f8,eeg.af4
,0.4081679406570553,-140.65034514127578,-0.17225729958511882,-0.0529254094521712,0.4945839766244895,-1.31452864315415,-0.45330786649119165,-0.4945677902285545,-0.8722699679149751,0.7452209477854271,-0.31193353373151594,-0.27168564811104523,-0.6374773098821831,0.07868856691523286
,1.1002526324192126,-96.30572219083183,0.14405421279845018,0.9202882964915261,0.14893459103771892,-1.1153197092871328,-0.2864433741844778,-0.38741562854235223,-0.5316585995114012,0.8081038551969183,-0.023694084588964805,0.14054061681577357,-0.8329592719006041,0.5453942163961991
,0.8180925412321032,-169.29117794680252,0.06178037603745583,2.498818253522311,-0.2460865670442413,-0.13073194547725586,-0.8741945354222032,0.08038273736748634,-0.35655677740849095,0.7523065152841482,0.4869444077614217,0.13076165094383724,-0.6348260988183198,0.22283840125662213
,-0.3412467724229267,-47.26175600200805,0.0672733517945288,2.5689654207328014,-0.376262293807118,-1.397857738009786,-0.7528080811867879,0.310753919183767,-0.7597576890213793,1.0588339307111676,0.1613953806048877,0.5484542381338217,-0.09604536581308648,-0.39483810252522133
,0.730882985281024,-255.7172293339315,-0.035180779518356915,2.8870268084745154,0.1339494117455751,-1.324064104493894,-0.7440288490817256,0.3861120177369336,-0.6060247759327508,0.1816890375886044,-0.3550489593482629,0.6183654410865872,0.012572302622462275,-0.08105181089798967
,1.0649332210058764,-565.4805564318037,0.24013350134372213,1.2427974029633755,0.68115710947192,-0.668146433856664,-0.15403616462643743,0.10946211945192308,0.01836526385248,-0.09723652272226245,-0.10513985430616335,-0.2944092303563049,-0.01028279809130967,0.2948223665150271
,0.7267281984151676,-515.1083971382528,0.3187051159103682,0.5000258715003906,-0.15075984752374913,-1.5323874269238966,-0.3829528725407088,-0.5767401929690897,-0.21190132004835172,0.9441531472037928,-0.2922197127657953,-0.18271814395193245,-0.3273492144289311,0.2572216474598925
,1.077000415493802,-334.73150962937706,-0.35060024145191654,0.7859501695173087,-0.05578763988588897,-0.8606791900357166,-0.4984045022988769,-0.5959713173489651,-0.8280578514982229,1.1459874594887098,-0.3774637377231991,0.7900964718451476,-0.9521508780011015,0.2265587542110631
,1.3154746633473644,-76.86976034472364,-0.28756052434131396,-0.748297281144006,-0.37050925619367536,0.054150502288175084,-0.3420425783869745,-0.5084040246073546,-0.7178393438165513,0.9315617892094994,-0.6241791693659197,0.05798533764634711,-0.7437481255282817,-0.010865080339444328
,0.45381736299228104,-214.29301008149227,-0.22690570260405457,0.050765629802158437,-0.7283620319219841,-0.6697711772110218,-0.08976708005123026,-0.4718022279417771,-0.9187930049643022,0.6041997286935441,-0.7184953195108909,0.25335817669018873,-0.5439344777383243,-0.09235516319180344
,0.6915581320554451,-110.97295033692663,0.05085935436278871,1.3782337326534155,-0.5471682357586188,0.4665081599087308,-0.3844426196376389,-0.055179478811165195,-0.9174536179842514,0.40596596029607385,-0.4320995182692173,-0.018936929010676756,-1.0043757717922623,0.03754827443634757
,0.7146919603389136,-63.73664491491555,0.20224451913098632,0.1743091662174321,-0.15322652580376206,-0.12923656466460096,-0.16627489117214575,0.059097690466275166,-0.4495222048392403,0.4345054765497595,-0.30085344970816796,-0.06171465830186144,-1.0392036564216391,0.1143718686586346
,0.634156023915843,-23.10443780813587,-0.2686369816160027,1.750473877664188,-0.07143698200870258,-0.8029228003064889,-0.5944657970055922,-0.27522978621128574,-0.5600375831828003,0.4887666152089532,0.07792920533396366,0.13874049611597267,-0.49272658469688796,-0.28163922874126757
,0.4104971895605051,-80.85007628835633,-0.31615525908000874,2.358669695226395,-0.4809747027637416,-0.37612551359633617,-0.8895809851700526,-0.127612529654003,-0.5194535471817778,0.011493598955180059,1.0100593976691166,0.10869029310424053,-0.10893282587982002,-0.04287738384313448
,0.3820655810110847,-60.1259586545106,-0.19854725760624586,1.6833590826777607,0.1758479859203333,-0.313574235959126,-0.16692065922392715,0.3799867307344429,-0.3458957782456561,-0.08767146410408638,0.6866895362140613,0.6417708526154727,-0.13438215382941027,0.10796522759007358
,0.4704491495835841,233.87899851786688,-0.27434536436376306,0.3691329338527692,-0.7364072619348292,-0.018750272186404814,0.4254666375978457,-0.6020628632379234,-0.7686340606312405,0.5529892430269507,-0.1085297013425683,-0.0064779637693020585,-0.6178954707964354,-0.3271169967976567
,-0.0029469399189231546,100.79022007057301,-0.3046323876420222,0.09030998828170111,-0.5157114387106433,-1.0318591209965837,0.6141837106754362,-0.6565514410633545,-0.6820500272070769,-0.04949413096807851,-0.09551419771801271,0.34531950625397967,-0.49530729814891983,-0.21435363879175184
,0.5141826398031504,-211.42467320335544,0.15081536150373764,0.45258371598192043,0.07490878390094786,-1.5029596458118306,-0.042960002124210236,-0.7200919664253983,-0.7365359918536513,-0.4288651088744947,-0.18807562919422732,1.971981881029324,-0.19153241964723647,0.12546799486711213
,0.16167794969176988,-25.497775027673313,-0.0026325670536328284,0.8581621145837856,-0.12185859567094894,-0.9896738629571923,-0.060175602994910725,-0.33648691312580525,-0.9467354033991623,0.6009788975024473,-0.03732350725110912,1.379730620464268,-0.7369763917348823,-0.02523168289126314
,-0.1929967577152921,-52.28172600528845,-0.45236494928129134,0.8681294617133674,-0.6456391701206882,-1.1107101106235167,-0.7676893213607519,-0.24467848924760027,-0.6740212717257813,1.2656565683777354,-0.08764338176360305,0.646941677437494,-0.3291438306433136,-0.15038888435018688
,0.043830483548735796,-176.01606041771188,-0.1777380692728393,1.960816979521708,-0.7343875582630556,-1.524289194682411,-0.9120321441614007,0.04291898498581664,-0.2056573869263381,0.8972114321398303,0.03231466432537194,0.03684195794399894,0.008075822912756731,-0.21748454797833927
,0.3369022303599651,-46.38277908996272,-0.12178774514812549,2.826224042873915,-0.6200551559942242,-0.26523530087264424,-0.9561573741378668,0.18737929898402889,0.04730676290731905,0.7058201231973515,-0.21713095706442165,0.26160180086033347,-0.1818377718361953,-0.4086576744839871
,0.20481240124596753,47.9058676665556,-0.3662093723838377,1.8969063801570216,-0.4202817560970546,-0.14108759704433146,0.038674402101195,0.5538680322222951,-0.29965648222686514,0.715182181993511,-0.3472908007178532,0.13327115703311498,0.0638807401686617,-0.6778392616410253
,0.11993593170271885,-58.783229910927766,-0.45583776575276685,0.7880107532768899,-0.027625268957995126,-0.9819980302240244,0.4899549827663616,-0.018466568286645755,-0.39165395666258207,0.553654742085294,-0.1901841591802314,0.0686870621810684,0.06515830342125722,-0.868260878222549
,0.4891796218705933,-111.79135176737253,-0.19411531634093515,1.3437648782273999,0.4669232084911821,-0.716914199428527,-0.07418123418127828,-0.30196377926474083,-0.4033540041767853,-0.45374366020132056,0.29628491504234644,-0.1631822665854398,-0.08359037223549158,-1.1933753512528096
,0.1151239112701365,-41.169150237937885,-0.2439724956985776,-0.20112866374751326,0.6004624038743122,-1.1447976580665582,-0.3415022461423064,0.43879137707882326,-0.5281884707750086,-0.4440164864458856,-0.14582999175145364,-0.3671102395259621,-0.3373255421692231,-0.3459406019662898
,0.08917744904251872,91.40723800617573,-0.011625472431008943,-0.7939440842745599,-0.06576431410191483,-1.2484552402146478,-0.17831144341439495,0.5503824053362614,-0.30504949407610144,-0.22881145747245582,0.21600478886951566,-0.19566818001434808,-0.46300935563742535,-0.03349158697231114
,0.22047732027126424,0.8389692557298817,-0.10208606868398702,1.2650304566414219,-0.8901452690157413,-0.7242652217398767,0.03999860350730142,-0.011004167320341783,-0.21783088010815066,-0.18205522692582524,0.7153141786753755,0.10741396508701055,-0.021471408090864105,0.14546986529704553
,0.8459588661077334,-194.88599480007971,-0.08016238596912108,1.375562628434076,-0.43248703185561793,-0.09049076352993617,-1.1359616766099287,-0.4248960650127396,-0.322700599234005,0.5503092224324397,0.20523477608540514,0.12778461482313183,-0.25479745179849195,-0.06390436719489899
,0.9125079267209796,-435.0549599055022,0.23890146632075243,1.3150770558425973,0.1241910798746445,-0.5540884730720749,-0.5671433922655263,-0.08574449536354864,-0.18034684220565,0.579126506484659,-0.2679494785623244,0.13336105076830712,-0.6408004183162489,0.39324066705678595
,0.7428418552770262,-462.3577324368558,-0.0021249888814355517,1.0338639773745943,0.29137011679919,-1.5042400181203714,-0.3007541158660394,0.47055553230627106,-0.34937513055852143,-0.014094972048687001,0.30002598385774,0.3185708774625244,-0.06599012953639499,0.11948922240732265
,0.6127847908711737,-413.3404976264467,0.2842106395239857,1.4985752210421233,-0.0594511855931392,-0.8919206786762494,-0.6587863054639828,-0.0902417466390316,-0.5427687125796743,0.12035292419100695,-0.01062970081263832,-0.24122039385954053,-0.09681167619039924,0.021834148107267925
,-0.14640483645190322,-98.47303216369993,0.5433574578341912,1.8208491363320678,0.1665316295034702,-0.6465953248389873,-0.3911767848644897,-0.37361470227174587,-0.6064191089948753,0.816452870912029,-0.29105417442635556,-0.058806830142467535,-0.08174650205652828,-0.04479632273115658
,0.021040440105975503,49.182411809051246,0.3293707179418921,1.6491378194361714,-0.38820172702956685,-0.9362922018981644,-0.02027087141897638,0.26712970319128326,-0.2025646519742802,0.5264023843896237,-0.3893844225783432,0.7257530816149632,-0.01742874248490241,-0.17063924874618852
,-0.6152226920765306,-136.808658785408,-0.47332003112778515,-1.2085502966751402,-0.5615075499770953,-1.1252322119383398,-0.37948378080252515,-0.30016651785501736,-0.8302089105189691,0.3899900736649288,-0.38109796712926547,0.4215111979932921,-0.3354218254384812,-0.6386454395176981
,-1.4732284546494552,78.91528244660547,-1.1394045130693666,-1.8380581807336136,-0.3021395397701178,-1.3276127054856677,-1.2007722850229712,-0.7364304377385756,-1.117723994789297,1.0055254919072718,-0.7071209870065656,0.19216117483254108,-0.507123003766668,-1.3253400656625611
,-1.380913776987344,163.72589336224667,-0.8416196717929176,-0.8185292082065319,-0.177762346907255,-0.898944333459254,-0.6682232246638667,-0.5553415655916815,-1.145393945169769,0.9206638926519705,-0.011500518923027338,-0.24232859563076106,-0.2649847330352711,-0.7917528931893101
,-0.39329302390239534,122.80399788053397,-0.53550615217585,0.13428281054005023,-0.8066659010347427,-0.24481408063935076,1.13874986052208,-0.3001408363968622,-0.7349275086193098,1.0709046885042954,0.31895773835696184,-0.5853637252278027,-0.7965238610780175,-0.10289324625306176
,0.08022201274639024,18.40540787126418,-0.10798008867442689,-0.7536301902821508,-0.6977022176374114,-0.3764936910055395,1.5535684674570007,-0.34000494819088123,-0.49673834285016616,0.4075790052635351,0.27144841388256813,-0.03706510539585979,-0.502449387221464,-0.23080091571044717
,-0.6502090895389886,-354.3304065987664,0.27554944795886877,0.10740764273880736,-0.6741537318068707,-0.8230954820182136,0.5557614212044532,-0.23870479705445535,-0.8486975999128087,-0.738144567428164,0.7740898059188674,0.3561997084785352,0.6200296955942897,-0.28003209076330376
,-0.29047841010462006,-338.6605159433864,0.25662891150329054,1.2576833532552738,-0.3426247487729179,0.041124232662679415,-0.047502150004959755,-0.444506375194644,-0.8047159621566127,-0.3230278165623981,0.36452519005120954,0.22598736347603438,0.17502128536911182,0.3463324571130456
,-0.06891749932369953,-82.8043801481297,0.09964021970965337,1.7144873491752677,0.03729521055357118,-0.49680421593111224,-0.48941210659872425,-0.28702128469408117,-0.6516542951152081,-0.023958930100013816,-0.01884923051736086,0.20319070207082177,-0.1862012993746106,0.08840090883313889
,-0.7306711414606872,112.41884881988263,0.1674264232089074,0.7472664819344184,-1.2293417641631426,-0.8343362044318602,0.414518493223239,-0.10085166167617497,-0.6759284879415807,0.510407444134081,-0.2694181402172901,0.5119922636533153,0.15389925670966292,-0.07956061632457886
,-0.7512681462272124,260.45846260879597,-0.11246281943914552,0.22992057087515416,-1.4898577159240534,-0.4375795734086651,-0.18400103553185213,-0.33889680315252596,-0.45100644260116446,1.0613633789388177,-0.6772682084116325,-0.1414465930035495,0.4557717939539794,-0.3197446642212963
,-0.6647751296369743,47.4109421053483,-0.38309792703392787,-0.40369671466132107,-0.297890476752603,-0.9084069720908243,-0.2344319578197164,-0.295150462252831,-0.8096857416525357,0.6312533709132128,-0.33606171105219446,-0.28775096733888333,0.25379196607381005,-0.23447682824850777
,-0.09590171205469024,-176.42328133395455,-0.4408909584851127,1.1614373608136068,0.8079408736297002,-0.4103811364548493,0.7079484296695966,-0.24817285154922106,-0.7177588103025894,-0.2718344396787922,1.1313278519328422,0.13244594004744067,-0.005315595199993691,0.16242712757881114
,0.21282258086610154,-40.22979999142196,-0.15251317130476835,-0.22311277894814383,0.7553573900346194,-0.21809299053807898,0.15156893236627353,-0.3381730969305836,-0.04545610474333518,-0.07417874304941892,0.06866268330360956,0.38331154155591257,-0.22630448969476147,0.41919656994867527
,-0.39256959465486563,-31.681613961689834,-0.34106585872411893,-1.0415820818364812,-0.49671764882092384,-1.1658708534686821,-0.10141975625115641,0.062203268652190634,-0.20776101165870678,0.22915124060807165,-0.7514871992459345,-0.26744975876889676,-0.37147749006292397,0.3662049720892518
,-0.4433781288375346,-14.131038557724285,-0.5739250672761526,-0.3488541186942228,-0.32970943940310177,-1.4290628207481648,-0.020995106701733438,-0.4084777217305758,-0.741154108228876,0.8247183375671369,-0.7276908821495277,-0.4612734410413302,0.11718603398777934,-0.14864962021527675
,-0.06761898558715727,-106.90184286699167,-0.30009011241779887,0.3365043820043045,-0.02199307776680285,-0.6002880409464664,-0.16174886937615668,-0.6078652217607659,-1.0568103340666775,1.2604826749930063,-0.5053883055961667,-0.40759497545389173,0.3888666131382017,-0.36034516149888507
,-0.14043569594062846,187.90819732283498,-0.17794582188222763,2.158191393433871,0.08831631242458635,-0.378847455864121,-0.30402613689426217,-0.5755050516393836,-0.8920176371469752,0.9799700450138048,-0.017300867705799357,-0.9659003126907396,-0.4928333481855621,-0.40257810359853297
,-0.8721375043111811,311.58143969054106,-0.22969517879298215,1.487937415601335,0.594555121337142,-1.2251119202683562,-0.23005008901996687,-0.20171364899706568,-1.197839742544425,0.7028203688225083,-0.41569946076531183,-0.6218349824871997,-0.5923377448108508,-0.011688827027380671
,-0.543099156808918,116.8724714763606,-0.10665665305258368,0.08974425209237596,-0.3343869195381234,-1.5251119238852013,-0.5445935212503871,-0.10148488226781151,-1.2969017753939065,0.737063379453385,-0.7995848332861133,-0.08277697860594642,-0.2369189398652942,0.2815041217688017
,-0.2527957974405611,47.176882658297664,-0.21301367494484763,0.6157759323548806,-0.4529425055515126,-1.4744681715913988,-0.8093498998910615,-0.27852275821693995,-0.9923984421480182,0.7074920266991296,-0.36311088031364075,-0.09463168748732513,-0.3196365761866529,-0.03316513942025483
,-0.6982885924736387,-225.00551359747547,-0.40731670323195324,2.145953248352033,0.332864613745962,-1.0665007391152357,-0.24294139058828734,-0.6056030719889431,-0.9633931253698789,0.666439271115982,-0.5174072625940133,-0.05216752708510952,-0.09155142762526383,-0.27034900290348757
,0.15366389914056172,-71.90981162139902,-0.2756823440250134,-0.060214503098201914,0.9658253563381204,-0.7257557009304135,0.47174208868595685,-0.6620107200244908,-1.0625416961193903,0.8070551616888963,-0.9941982423929504,-0.15885920016043317,0.17576116945109457,-0.026939329864199633
,-0.6568712538096394,159.69097488171352,-0.24966355641980567,-1.6497787223867828,0.3104020831651254,-0.5804457458478637,-0.7118579097003737,-1.0860731896632028,-1.7123787752037039,1.0155765705622857,-1.036177508882744,-0.45769149244758217,-0.3639531537208887,-0.35614065346600093
,-0.7716706188081695,63.59999666612508,-0.3656957064493228,-0.6768797877070293,-1.0291126205815893,-0.12266531731511587,-0.9337598216160784,-0.9595702345849223,-1.4090483543086898,0.8977890922717006,-0.6267840978003214,-0.4422375667516528,-0.6822895573429822,-0.33471393543606515
,-0.5383902493360556,46.47828602295104,-0.1562731528362934,0.24582049545100326,-0.7153042800817287,-0.30549382456570495,-0.4134618850769926,-0.638972140405977,-0.8588518405197973,0.5149877550198805,-0.6153009863729294,0.5744982699592144,-0.46306602105010214,0.05803961443896349
,0.4424693524803848,119.75636465080234,-0.2689068245761698,-0.1818606997145872,-0.9544659181204026,-0.14061388030016336,-0.7670903508034865,-0.5348351084534868,-0.8319498053458908,0.7526423421241961,-0.5318636552857507,1.3230970432807605,-0.1814488862387454,-0.18596530147064572
,-0.25778781384535776,69.50087653538854,-0.3143416470577762,0.6318917911293199,-0.36784809370814137,-1.224605218781558,-0.5853763345577365,-0.3125617745478994,-0.6073395935529544,0.6683866784963081,-0.08508708580655536,0.46392840977972777,-0.6018629384231032,-0.04936972389328825
,-0.417643992382328,-63.39175427428272,-0.3835383708260824,1.6425106310080968,0.7440404021471286,-1.1676280455653167,0.21953096292123933,0.024011222622453494,-0.3242379010615208,0.19290883303142062,0.09736075716451459,0.26616236949608607,-0.5461818619917435,-0.13836576760555133
,0.9128635291645539,-49.53977381289861,-0.35878507112950386,1.7637296072605217,0.043921442339045706,-1.4167617669411918,0.2060558136387101,0.05736757145426808,-0.38347215632663667,-0.05142382093911659,-0.5589766874387287,-0.31096484597260643,0.015896709811680267,-0.38706651784457935
,0.9802772079270946,-198.19546236472775,-0.10214841139342674,1.6222807125334906,0.2700138552618859,-1.749324018163711,-0.09515118149941498,0.4797250883924333,-0.7350567685659145,0.8545577141667483,-0.5876337962408755,0.02090728885830019,-0.1655574768232341,-0.22192213711570183
,1.3857318605621405,-230.79218999875195,-0.1771036031947132,-0.15823058311820354,-0.10519714949310081,-1.3939499896968977,-0.6294711581223646,-0.1292305834928757,-0.9757694566544152,1.0503567551833763,-0.27805465706924776,0.38963737526448555,0.2290253525695977,-0.36290235731189474
,0.7008497083737207,-208.18699579841447,-0.30968616831781204,0.3515784038137924,-0.4261248853711522,-0.9294501176945976,-0.8496409409533675,-0.6997747171096251,-0.6453661741700106,0.786103749698626,-0.16262050646157783,-0.2342768927636763,0.5870059574970725,-0.010526557446171113
,0.07710527646558128,-388.362980974543,-0.0001510423187184551,2.0178899565592876,-0.329312130190865,-0.4885043514143898,-0.7951646464213084,-0.4474969223389506,-0.10007227324370775,0.4107168041002468,-0.20234116505403524,-0.14285280599119413,0.2688357316729868,0.1475600752787573
,-0.13205867705465055,-434.40258396109294,-0.06634859210038309,3.428554580286573,-0.5434742501984299,-1.5145030910228598,0.3208411298302593,-0.2276255865003492,-0.4184024215657388,0.7170337380886246,-0.14133445264283503,0.09890644879060945,0.1029675399499517,-0.2599194077218114
,0.031227221703538404,-164.06771892087738,-0.318641989678637,-0.3622340934238582,-0.16137845499910536,-3.1485364418391675,-0.3239741418462587,-0.363163193425771,-0.3717779660842425,1.1537483855842805,-0.543681353680476,-0.30955869658999036,-0.14447199370614,-0.3459621030085118
,0.13768759738407657,224.798952544387,-0.15203626616304425,0.25991848281520963,-1.2368071884634806,-2.7247698356537997,-0.020768695014621738,-0.3203342095295896,0.0187929158531874,1.1065264146307516,-0.3769912887953005,-0.7324162360277893,-0.6244481271296869,-0.1448485327515073
,0.9949265585613732,112.02429833122339,0.2043151968204248,1.7709869557155784,-0.868556603246237,-1.172422059182032,0.8582785507551575,-0.15736489210996238,-0.053509904267831754,0.3911270260916767,-0.2955405169709163,-0.2612608001752179,-0.28685828567122046,-0.0077226872788297395
,0.7357156606546394,-252.6343160534469,-0.2181172681078747,1.6075747513415741,-0.9392013284976978,-0.5317657765279146,0.1573701187019901,-0.5874180476001215,-0.9707539170075254,0.7260180064955998,-0.3929941334837403,0.9731271386079848,-0.1738390205315351,-0.0722922061777893
,0.7838368138472227,-68.14040345903949,-0.2291882477746583,1.701447807915096,-0.6962132714352101,-0.4068981161893292,-0.5402273321746426,-0.951022834125171,-1.1486889691456077,0.7761124061425991,-0.17309278138648748,0.8144067348117571,-0.2322348456752973,-0.017240545949676698
,1.4012933577241908,254.87860150380573,-0.05236494500908292,-0.613371032915998,-0.07273477895105018,-0.9865461652506259,-0.229759176024834,-0.9379252487791061,-0.8023871821859972,0.15720698803439717,-0.10000179059717829,0.5659270719684573,0.4321748161042855,-0.013887301447825772
,0.38955405539024895,198.57326579314883,0.13747205657064684,-0.9603672344460219,-0.8879354512645274,-1.383782027415354,-0.38640148618949716,-1.0138826791538915,-0.7197471323091457,0.05964276853874787,0.07211007742892085,0.1258707590580762,0.09662129932290286,0.11939606360703006
,-0.44091809271412524,-311.9563836506724,-0.20659627351922094,-0.655888210451641,-1.2323528624147941,-0.8515324320991023,-0.5212603579701087,-0.4914564244315399,-0.5469068991694984,0.6191054208833461,-0.3602399486629239,-0.11931523995927935,-0.18946358804252358,0.07916338713691225
,-0.7155949509138461,-269.0569607511562,-0.4363720270138193,-3.3415692348268364,-1.2581185147610956,-0.8120494433017209,-0.5305613852050842,-0.15352068235322763,-0.8484014703156934,1.281939218980893,-0.37941078018694646,0.37224532864817644,0.04785683159085912,-0.15490545387710444
,-0.6721462284854505,-134.5467015618966,-0.5118343151297955,-3.9758379212877712,-0.4857499380853916,-0.9737797626917443,0.025393826564578365,-0.3123877305228603,-0.8367298358729839,0.9146259548394443,0.05308148132319802,0.055200693110813014,0.011040310352997715,-0.29349040828855694
,0.45835013647155554,-54.38846864316224,-0.24689339552061307,-1.2637598043170737,-0.025288208531419724,-0.9217345438648084,-0.9140438826663608,-0.7586858079121304,-0.5874781034505848,0.8827405184131253,0.21067262369185408,-0.08922015107052954,-0.003223590679655272,-0.158433987053283
,0.3153459855617395,-49.9703899247208,-0.5408096111549449,-0.21091747570546265,-1.1824099232293754,-1.62570755165701,-0.8300778722030986,-0.03234093769324358,-0.6889573465938914,1.7850364514368362,-0.13026723049083735,-0.2830467267450907,0.295085866666222,-0.024745382819370235
,-0.07976409302961013,-28.74642659536275,-0.5776361543466834,0.09227376189642725,-0.4166868280414851,-1.1773369006147678,-1.1492611073146146,0.017426553053496396,-1.0122462205155598,1.0249565636037528,-0.681911439641201,-0.19758760802386235,0.12435543531302383,-0.10976868936242913
,-0.22321984263145495,-142.81375923018302,-0.2269024000785275,0.7707948041300048,0.1466161292419833,-0.44293699702744743,-1.173407757597916,-0.004695138212933024,-0.6134550895604636,0.5204080910088419,-0.5494080816400442,-0.4189479689038915,-0.08695884116769088,-0.21681704361218712
,-0.12162093089218537,-50.53672149534434,-0.09650374421271778,0.046533221793164645,-0.39692156912460164,-0.00264901098325887,-0.5908228128144198,-0.013461211933626722,-0.8518779487476386,0.560970068765947,0.07668426754168846,-0.13940923340267442,-0.311245524046882,-0.04924194010583296
,-0.28901470727857304,62.007594179365405,-0.1537503154590521,-1.9941443955786644,-0.8947982312834014,-0.7243041769956869,-1.1866744021661277,-0.6217962373859902,-0.7712542897403256,0.821133253068696,0.13165117408210633,-0.45299178614407937,-0.4282716912120638,0.055048557861767385
,0.47058518864085586,242.2874496420081,-0.17706909666710027,-2.2944107176210387,-0.639043391842553,-2.2785353488436098,-1.4872964979451588,-1.057780901278568,-1.3835875644456213,0.382730975438961,-0.4626083836137053,-0.3416654553708428,-0.9708357859439622,-0.3526421542433403
,0.1546388853726488,242.62012905189422,0.08738971056424624,0.012525403966412767,-0.4610580493641097,-1.6783077915843039,-1.1873499831211063,-0.8690863764133631,-1.173190091960343,0.0845568761214256,-0.6760475327980887,-0.3345190111164674,-0.8142373240922769,-0.46863811732706157
,-0.33525561070433413,326.6994578381473,-0.49479917745967567,-0.2519524737688485,-0.8786075578303043,-0.554722460586061,-0.9851453470318244,-0.7359079828700844,-0.973665342745121,0.6111814886493584,-0.6300381784508478,-1.1406762268609874,0.028068935660497174,-0.5242516957682611
,-0.43351876609770273,331.3196084188375,-0.65591917169911,0.42510296862716446,-1.143672912012863,-0.9203055157004003,-0.8988897339925173,-0.6385687448665437,-0.8315713751272191,0.3420627285297189,-0.5154108945746682,-0.7814422744925047,-0.2801585033242106,-0.17974532136172156
,-0.49305837262380464,96.75075430482765,-0.2930994924446827,0.40809934099212836,-1.275102541170548,-0.8957056730785516,0.04638001115618138,-0.7534163219379871,-0.8909595111075751,0.8464976099099274,0.08898139587630412,0.008478337355480016,-0.3122669691916922,-0.02742173683891391
,-0.598310701808912,191.30326733291605,-0.25447367419153083,0.8704400011205077,-1.3683109694097038,0.08618237047102059,0.005491193358802908,-0.35355370327942864,-0.6117029887765003,1.123517408923968,-0.36524212840117426,-0.3302041671658623,-0.15017287485752412,-0.309704589608883
,-0.37140907680252366,383.53914240057236,-0.12316936579204804,-0.08143585158889924,-0.9144258689284855,-1.3524528018090527,-0.3191018583613819,-0.3366304018899078,-0.9878857871400121,0.9736555375587312,-0.29890925193058004,-0.4555098865470363,-0.5209110740530353,-0.2453688932781978
,0.32020928163789253,408.60036938714455,0.08116643363365546,-1.526229845862386,-0.1894721971951462,-1.3003302770341236,0.12450262388105476,-0.5857164240345355,-1.179028167541807,-0.4083860263655503,0.04348817038253011,0.08462610384886339,0.026169899380009482,-0.25158223906623844
,-0.304157139199853,263.6903994049397,0.00011716580468415302,-1.0365711946172398,-1.014678525949277,-0.9420398229418101,-0.35794544725238175,0.22039609122038933,-0.5834616537074072,-0.07987243498367402,-0.577495592534368,-0.1680388026272002,0.37709909575733924,-0.08786893919357935
,-0.7295757834315106,-169.82572344006522,-0.4428542342025555,-0.5838170757568741,-0.6951312660985923,-0.4840396900206093,-0.33358049382321525,0.5081968541333678,-0.21102314749969694,-0.04881678351000344,-0.32076435705269624,-0.35966754083037406,0.13910852916323282,-0.060537175810816225
,0.044043634439339764,-90.25818540288036,-0.6207139636420047,-0.5981176803063554,-0.32458528421637256,-0.16658343457766675,0.27493865787831,0.12261997782262264,-0.5760707071589265,-0.7490566160835532,-0.30711769924045806,0.1993274597083071,-0.37719416243713433,-0.040403527494899796
,-0.12959158264260234,-58.834340501466045,-0.27245266184749417,0.10509110983446839,0.6939393604147683,-0.6085826448035194,0.10439981769197376,0.25728852168314725,-0.18343366996814187,-1.2544599864405601,-0.37119688087560515,0.033395396374932225,-0.5140004280736786,0.20372911271231406
,-0.35043590126346225,66.68500763509327,-0.5338529165725895,3.9584415954289245,0.9405952344867159,-0.030324743927041785,0.23624911312396632,-0.034531210462708024,-0.5198313577532083,-0.025875274007179323,-0.593663125129661,-0.10791837920085635,-0.5285268488391235,0.24892607125005428
,0.2244933082998477,40.80041787835948,-0.3857392133531604,1.2431545630064909,0.20555510308523206,0.5510512141697663,0.06635221735289869,0.18863366688544467,-0.13693339992361042,0.5630083627121384,-0.5077305212737213,-0.17697395873705984,-0.25726532963464094,-0.056633943270800347
,-0.3709967683387262,146.95396020561807,0.028611929835062406,-0.40177400714937084,0.028015644770565864,-0.635004429878105,-0.49699428364715786,0.00939056154248647,-0.3800388517002541,-0.10014938478113584,0.2596366227379781,0.3213062832355296,-0.21629110400574697,0.12639218309366337
,-0.46463526637343683,191.66244301471474,0.14617605576257084,1.0429591385653574,-0.27743226004137506,-1.0543163195051428,-0.48856429619646663,-0.15850567056032608,-0.8346066580488586,-0.014944381458059387,0.6899928413698609,0.4538119421722072,-0.16376627451621695,0.15469854806777925
,-0.7519397877716747,115.15396208011596,-0.3275750337684125,0.0893646002617284,-0.9320438387343304,-0.9822432526474255,-0.620851615587321,-0.34696496618078054,-0.7607881477026008,0.6941507826047902,-0.2802448940667991,-0.7964682802030701,-0.15736828929418076,-0.1735117027189814
,-0.08011972327218315,34.20680859108369,-0.7759691785420033,-1.5173635245283124,-1.5638287553971417,0.025673297696139397,-0.16610726595296477,0.053663815500567515,-0.6945400283586391,0.28169035073385856,-0.3279479467021063,-0.9724202112394911,-0.378782834404833,-0.1470476632709199
,0.01663922534317875,55.21349302737336,-0.43724618149965383,-0.47582134315244495,-0.8339323578894356,1.2052735835558888,-0.40497849492225724,0.05555825797317603,-0.634782430223332,0.13390496495559787,0.09590696565044748,-0.1779093901719023,-0.35556333589165934,-0.38164016909498705
,-0.95198188587166,-186.77432931830074,-0.1656835822074504,-1.08487271385735,-0.46809936463762636,1.6947976492758603,-0.4622928441677634,-0.28037079706685436,-1.4260984527793772,-0.46894483235652973,-0.29174740516025094,-0.08938449765067116,-0.19108069385338544,-0.4317187410539978
,-0.9482459591237354,-209.54045458430264,-0.20417587266133555,0.45881433092280927,-0.6940000544252147,1.5263767163765738,-0.41919524930117413,-0.5573324998162549,-1.1938981813535243,-0.20294869824427061,-0.7255346020400433,-0.04784166973044731,0.05477831789793062,-0.3931693274861139
,-0.3489452232491551,-81.91414455743356,-0.22825882870878206,2.640597898505106,-0.08956614883627448,-0.4225876791267082,0.1760029117468872,-0.7027598625112615,-0.8555580810676746,0.150428422778387,-0.5098403866253588,-0.05598759921567199,0.20604318573672956,-0.1047148086429689
,0.12051086763641046,71.58793623754917,-0.11395123272285179,2.65419592303896,-1.1137055724647762,-0.9029656736396846,-0.1952523225382058,-1.0997615700604806,-1.2761929557409786,0.6355466911136811,-0.4461349691671044,0.00016433937394572709,-0.11465094862720145,-0.11502955077362632
,0.4533346228467878,-51.40834388356866,-0.058407162270342275,0.7755815357718533,-1.4568383684055182,-1.2823521088700647,-0.3443094786517099,-1.1949956486967173,-1.1836356904825622,0.7559820223631445,-0.35392204440671887,0.13046125106313378,-0.1428682221423404,0.04513612349108949
,0.8365541293587432,-105.43823611079098,-0.047958215705398245,-0.4806913997543643,-1.171834337105128,-0.8721142269392144,-0.336853338419386,-0.47106877253350854,-0.48338908273414216,0.6422419723907216,-0.6169726489624567,-0.21168169238735854,-0.1554529943573258,0.5032363462794007
,0.1381331597769828,16.03702020642617,-0.13299211488602747,-1.0645884898816755,-0.5059462511103908,-1.399333142146599,0.9546014551891947,-0.4851333813781787,-0.3015786672152044,0.5599134076811062,-0.47420355064541575,-0.45930253057047943,-0.02074369204977182,0.1580926966719573
,-0.16577840899838833,157.67703820308068,-0.1610500949740125,0.3677301214849927,0.31824139086823283,-0.6025490592230475,0.4983411132770589,-0.2147931276508379,0.12430003615132422,0.6735470340638636,-0.2680446892558351,-0.06536674544319698,0.6972380583541409,0.061845052683601937
,0.3257166520391441,265.13930014774047,-0.27246645613436044,0.741167170978942,-0.7370051544070663,-0.9779866296919274,-1.0096034401803549,0.07590690234344774,-0.19050299007254054,0.6319482665286592,-0.5276163151869584,-0.3424048338167934,0.42191339263754474,0.40482334182835655
,-0.008006874404057828,174.7189937933234,-0.17246416879682688,0.34498175001710424,-1.256261861603006,-0.12753347159278977,-0.8179107110317051,-0.3516212125731512,-0.2625880253632542,0.8098357217758353,-0.8749372037979476,-0.14218707697685248,0.2077183681393058,0.7309044150450229
,0.02324872196131855,-145.8125231086185,0.36338721779542926,0.41062057139265407,-1.0016354172068587,-0.013725565276379012,-0.2320593746979892,-0.11281519859265637,-0.5451123032958782,1.0516628709072422,-0.5528890858335481,0.621374652666666,-0.04659818484916676,0.02167496987235221
,0.27015809617232445,-94.61427622436308,-0.09415314888172764,0.8187429874072936,-0.4915289119647708,-0.03605427626064437,0.6390112684960256,-0.04805240151659795,-0.3231112833312103,0.6920541533826562,-0.7205823580349631,0.33617804850457006,-0.40667005571131326,-0.272514930916055
,-0.16591567039542218,79.26900695065852,-0.45026787147744385,1.3726049026256,0.09626430615535309,-0.1283147805964549,-0.15295479002727275,-0.038997268552494475,-0.15634789418882222,0.2467167174001638,-0.4530872172750896,0.9566292997349913,-0.49449837926559603,-0.1529430088347767
,0.30394752344701675,-53.72375571826925,-0.2746589986625097,0.5542394787906021,-0.2641869393892517,0.713651948061839,-0.24987014591150988,0.28833282778155017,-0.07183256112900571,0.5057121162571481,-0.16021102823089037,0.18124806416086298,-0.2261407455710749,-0.15777463399374758
,0.04359561850061008,39.65765111896105,-0.3931252948052094,1.4898605158568636,-0.2717871301801352,1.0457766899630472,-0.21111262764375174,0.059516702962965316,-0.030901974134375274,-0.14460755483617743,-0.2982570046265753,-0.16232788211691565,0.02842901752426021,-0.37856255379987647
,-0.31223748107357996,259.3300217978746,-0.4446413759772011,1.7921808370955312,-0.3644661959251843,1.2298923574303575,0.13667901934111804,-0.108562545192598,-0.062033157969699854,-0.27693244205377415,0.5268669559365041,0.17424980855180083,0.06996052482056667,-0.45329212910515754
,-0.23104376765576778,-58.95112706865861,-0.12513981365827073,0.476620815944271,0.6322342271823301,0.018018448709365704,0.04129440413735815,-0.27220906463286143,-0.13158513655148557,-0.6275461866340234,-0.1248392361820092,0.6148177414987824,0.3222599517993888,-0.02302694341907736
,0.20293249574530656,-214.0506527226978,0.1899362171631679,1.328669078441871,0.8247748133870011,-0.11367234277988723,-0.1997890216838518,-0.294926149225255,0.030905285853213362,-0.6135277227323553,-0.47451857628242317,1.2150575166791278,-0.08127872054575447,0.08300594961483995
,0.2664522197638123,-343.82514896543216,0.07023890917373413,1.3825829683137625,0.3908737520067121,-1.0341682868039488,-0.3740626304283722,-0.6210997463567898,-0.1447894682937946,-0.07487605658682434,-0.1286349135886514,0.7390625334883869,-0.1378739849275592,-0.11444048733355422
,0.7099847710301443,-2.5864431035618294,-0.124620142627636,1.2145548256886574,0.2131777459607496,-0.6750587611873257,0.20300744364927734,0.18712669254087066,-0.2297476498922228,0.23126349123063794,0.004565871188929191,-0.41757687335804516,-0.10350316063286227,0.16696895486136218
,0.6734618009438651,163.36397164376083,-0.33351790432312345,-0.6974603986578576,-0.5609011474582266,-1.0911130067599093,0.3065049983721783,0.4558577333968556,-0.40813754979412703,0.9624108496475693,-0.10900983803309844,-0.6601245568892488,-0.1838287633096123,0.00997488068108776
,0.2668657202218272,100.2286907920281,-0.34948793683990553,-0.5347647887068481,-1.0116187562332117,-1.2696659563048593,-0.7620292529302001,0.2759633614349742,-0.4760422243314036,0.2865266263951083,-0.10235766970747365,-0.08705378935987514,-0.45145917802988933,0.09648630116309445
,-0.11903817364521323,16.688898401782048,-0.24370836796133777,1.7119980707273812,-1.3125134996216292,-0.2042538198241462,-0.3280254446250136,0.12774837114256993,-0.43133791001861593,0.036620773884378476,0.056953334968339805,0.17109429103468043,-0.24960318416746963,0.1872930732275202
,0.059931087692285785,-35.3442984168299,-0.4164303413596939,3.1586600767752384,-1.2327570745002954,-0.443697259834121,0.06069608480011936,0.05418458300333518,-0.5378724498830892,0.4387949381615486,0.16093967236348505,0.9798965896713971,0.39193807713952267,-0.28386780319292193
,0.40151410486875166,-124.57174120951007,-0.11387961741338636,2.0486046498355295,0.11148261749545953,-0.33811946278692484,0.43915555293500913,0.41990411756291807,-0.2603413606627792,0.24535612005155685,0.3030758737863131,1.2967181487080632,0.4820688006951519,-0.21704305896572199
,-0.024990237357485033,-40.702028311914454,0.025417652808391013,-0.14931548334824918,0.4048791472807307,-0.6703273804973228,0.3040209124374123,0.4134513833699721,0.06162781469436517,1.357814026143094,0.5970664176234486,0.11294388200478155,0.14345743376832115,-0.6268883204194693
,0.38878721838695657,98.30059422132436,0.012624092584414763,-1.2561587987410898,-0.23614552499311972,-1.6684288709325366,1.0441919578727452,0.27594785517140796,0.19900139384681537,0.9619641717604922,0.2356808428441102,-0.38142073065292037,-0.27023081811873717,-0.588555575973122
,0.8005413484729135,126.96523500131968,-0.08715941164646286,0.37858094768196077,0.34071142687267486,-0.7563733416024196,-0.005198680090098998,-0.25983328491309277,0.008258368901662311,-0.055268377137444036,0.049780011137527294,-0.31523699396012633,0.11953748567150385,-0.23729762263791987
,0.5248993368606533,-199.62115429167704,-0.03235804235235691,1.8537906897632537,0.08615291832032568,-0.464410116239651,-0.26628084654822687,-0.5768273643320005,-0.15502865338382163,-0.3359550566616363,0.0539841937867935,-0.3077867324473037,0.4229344574207279,-0.03173861038330908
,0.6182585094893194,-320.12362201335094,0.1118294899797165,0.3491767513855769,-0.48895054035696806,-0.4706962585195287,-0.20155508806201955,-0.7598559395338652,0.06470739351822112,-0.07242821486872622,0.5880128461540265,-0.13212982743579496,0.13064317913341578,0.2584009940645442
,0.4959357436285174,-22.07393209250823,0.0005259980123140801,-0.8652425566928508,0.13844159415650917,0.3028016875787679,-0.43387325398428933,-0.19116768523608252,0.28918739097296,-0.2546962206972201,0.35702878526798476,-0.26911712366952634,-0.0037323586990241466,-0.2608232530347687
,0.019446068214150944,230.50466767700175,0.01464252219060644,0.6935781226443677,1.130492956028343,0.06212996954813407,0.010610145601517167,0.11431302632237783,0.22024274380417802,-0.3382709337049806,-0.03263399144367542,-0.3895136548115519,0.32520874015329543,-0.41112140221730015
,0.30692296091645965,174.06453925501918,0.20636423850509295,0.04214346346738936,1.1680622516753316,0.6005950881314588,0.6351288436000472,0.20104353958483248,0.4374218333842269,0.20795851846681843,0.29899126754189853,0.29688908161720595,0.4251428273869348,-0.022293484289316923
,0.6231262086224203,-189.59964744316838,-0.09394359595371535,0.5967775355739914,0.9434108957894219,1.6324799000923993,0.16512729549638816,-0.05684582485520622,0.4096223223334573,0.26107884142484267,0.30884117753002704,0.6555443291264565,0.14690550831199223,0.0827504320273173
,0.5935963528162129,-237.91145667393434,-0.2058380896811378,-0.3881774124667438,0.44381980693074824,0.9726759655145937,-0.4187503839329164,0.03779040044452559,0.014060686205702047,0.19276237113943348,-0.011203515284913203,0.10547399142681818,0.3239988324931533,0.1150684892208615
,0.2675882091984242,-105.79361916766992,-0.20127568668451057,0.8759061047678417,-0.35914533060544124,-0.7246439564097737,0.040919487045442626,0.31200549097139635,-0.04767921669063449,0.05380585371850972,0.3990925330975094,-0.09875718906155927,0.39351454591864804,0.5559334236949304
,-0.4551782130904025,219.5543406012989,-0.19815253508590772,-0.4832513436079782,-0.2378320808106208,-0.7995524844129313,0.5732045340150931,-0.30771601604178267,-0.40605309730791517,0.35728493327356925,0.5248504292310058,0.10961909920995676,0.14557806544592675,0.14759361699324333
,-0.4297469676727075,261.8709427216657,-0.17696568344060154,-2.7049177881692428,0.11597076147785994,0.6104901509500567,0.03348144479472519,-0.41995350962568817,-0.414213447323189,0.7348561312341731,0.008713674848187017,-0.2182005223595,-0.2070408647258608,-0.3648796365373705
,0.22046873485976584,-107.31302452589101,-0.0567257853267616,-1.2922373012588175,-0.3348358773408782,0.39598681069957525,0.5094828406399643,0.32094293945669317,0.01953491161140672,0.6830202748504193,0.08718858559601968,-0.03698740390766499,0.16195581910300394,-0.27743755922811925
,-0.976102277063062,170.67930389493225,0.04004623830424357,0.8568330379000781,-0.5635108080735611,-0.8676535483722577,0.683756608042478,0.3925703959080115,0.14203172639289022,0.5327349726031001,-0.33326295142609214,-0.5569511752958504,-0.17433668820862933,-0.3090263926638273
,-0.9464244730464999,102.48072068723185,0.5661040116143005,0.3249282282383036,-1.1694505597159126,-0.8633534511292394,0.0608233632945924,0.01579812762424196,-0.18507577869222913,-0.3364041748271816,-0.7323354811035144,-0.7551180074410552,-0.5472742662968598,0.11443741280883186
,-0.5949134250622339,-120.6925590120027,0.4486002951787999,-0.0813642014641185,0.2155263318316756,-0.2425437426947478,-0.3020097738232675,-0.13808258674801147,-0.33302202840674927,-0.7106640497427357,-0.2345392722949671,0.002981391285077052,-0.3858729160786212,0.15883858986152782
,-0.3977707546501262,-16.144063089058108,0.34679541957857474,-0.49929734196136905,0.5616078278293318,-0.7713744062150506,-0.36056788221620684,-0.04619724634509887,-0.12022248218583811,-0.6528908344590544,-0.16990901142813186,0.334149370221796,-0.32243713707993144,0.3090285490180368
,-0.12763686976862787,69.64211569676154,-0.21224501595813944,-0.47780522491877453,0.2672443839381246,-0.5515847586658139,-0.23983444887973224,0.30900426987831536,-0.16177353067851688,-0.6797971678108814,-0.2067406628731233,0.3647999204113211,-0.2773773162520133,0.3280350772510537
,0.25476069487835984,-98.28360631626741,-0.3963113656360354,0.2025014234072984,-0.3930008417836583,0.7701597865089548,0.015877403356658423,0.16977884099357377,0.2044705299573886,-0.0854495915781579,-0.14806837377931356,0.44134070188116836,-0.0018670679186517487,-0.000380892540107482
,0.6948696856461505,-39.23810679456094,-0.13275509426448567,1.2989701759997747,-0.8427530106784893,0.7878951722556651,0.41232713536584437,0.20848470650577813,-0.29322844860563174,0.023413523756120422,0.3621176154582683,0.8320155387213773,-0.02655804872758861,-0.03375439279535563
,0.026533967287909802,100.69719258803288,0.06502335596727178,-0.181888313747487,-0.4761334432311267,-0.21555086173262575,-0.42179353220296656,0.24089377818014376,-0.03871956793046017,0.17800898882080254,-0.5152508460709841,0.13842367359838387,-0.2512172687534571,-0.1544596475045539
,-0.7186334920646837,127.30096829814485,-0.09336067494726946,-0.12042404886049413,-0.20511723538101095,-0.16385094688797963,-0.49607389160312226,0.1740206568478441,0.3537367130245516,0.24163183506278657,-0.6048770028070063,-0.5166754610697583,-0.2781680426264589,-0.20417131374632352
R,-0.43258756950585564,71.12990204988243,0.045537042892453604,-0.12911544550773602,1.5032263468683593,-1.0061505415637326,0.5204909693344008,-0.0374554952323891,-0.21513952612840365,0.25039744570593886,-0.17416688758774576,-0.37299387085149943,-0.47045730717431966,0.08136304472596229
,-0.5075316370514273,184.63938551064257,-0.23509217434445664,0.6714622893377985,-0.48656165364944964,-1.0489013534907816,0.5295139660989651,0.1299718690373302,-0.3828742920079116,0.22489303352682447,0.3796523896311293,-0.4265723877431753,-0.17690453598719424,-0.25139648207164483
,-0.23309947704566575,359.53826539074913,-0.31663692591496156,1.5730941000287635,-1.4475759997802644,-0.235957918498149,0.3431920831150155,-0.028604292383290247,-0.3941826068844293,-0.21749413721472674,0.3360215173079944,0.17466086728128016,0.09955255456643733,-0.25449399938006445
,0.46790157060359133,200.75938451859008,-0.48682164649318793,0.7682964833288617,-0.9117336617929939,-0.35554068123867016,-0.797898896501086,-0.3578294167935124,-1.1044557176284648,-0.10330369808685647,0.15098884646973526,0.03378203211693956,0.29223517729644094,-0.3707613590716689
,-0.36278973522440777,341.7017617229344,-0.4366548970043714,-0.6400408276575875,0.8797083185283737,-0.350856354248279,-0.5658444640759259,-0.40660752767353936,-1.1146048238295334,0.21177740187323998,0.1730732708001964,-0.5818734729801397,-0.085550889945566,-0.42801508784590264
,-0.5863047363898403,160.53071421721052,0.07596769880850623,1.3627989281813704,0.5490525024119912,-0.23050183255503592,0.621670387049371,-0.4152136888888389,-0.39033975739571203,-0.4257561459315265,0.4595456956349307,0.19806513295136427,-0.3886680882311439,0.18217758380537014
,-0.08748157894190499,-258.3459235892173,0.5257124412608926,1.942028535133854,0.13631404999028987,0.27158981962511664,-0.29129803275388244,-0.5017948071817758,-0.6562260914632795,0.5040368707516808,-0.13593871180385123,0.32340855093076926,-0.6217237364352126,-0.014279819398902946
,-0.030048674713507063,-265.41601987144065,0.3505078280835125,0.5734920856423014,0.1566167007975498,0.4866376677013485,-0.5604930001220969,-0.5450652003380055,-0.39509858151848626,0.8806033945152375,-0.03555566406108286,0.349766129538407,-0.6442314837867056,0.04018882645952649
,-0.14106891122711715,79.35523029879765,-0.1093644543878257,-0.5587340515632734,-0.48813383266819943,-0.14238140085627304,0.3895635195417234,-0.1692061468673485,-0.39424137398232534,0.962567548016937,0.110348840855248,-0.0571213788938467,-0.8236527991138012,-0.3137342225020127
,-0.5517425624479569,164.6921161390403,-0.5552496448856372,0.37091480305622127,-1.411989909372579,-0.5439407694805377,0.06350560125233604,-0.15710390193630933,-0.6771305516863749,0.8948073746733831,-0.45940846911545286,0.09597837499584803,-0.8175849164630902,-0.8115032350534493
,-0.1837285075930849,-47.7410804368929,-0.5190757917164786,0.8876365878833155,-0.9961487477604305,-0.18435807162719142,0.06649834281700039,-0.23180311226157327,-0.8324072060333432,0.05831164730755108,-0.29044331869635887,0.4441142923086233,-0.6140712525645392,-0.30349996103715576
,-0.7837847853179468,29.9218206030932,-0.23247339429632896,-0.6521965692166843,-0.6827625681126968,0.5325035775412387,-0.14858555212970154,-0.45991556351749474,-0.8800963266427766,0.3046410477311848,-0.5368240362534942,-0.35635671709980776,-0.8886174107389081,-0.420363557607614
,-0.4909390182258472,262.6213624218372,0.07200594219924139,-2.2051689825861573,-0.7101989496328652,0.5404519705115113,-0.36068532264780556,0.012194616167212003,-0.5025415711674159,0.6209772608135555,-0.5779578430796893,-0.5918748995674163,-0.39904809343286024,-0.2893769228588472
,0.1564570775663059,427.8111755551723,0.16400538287144367,-0.8195034698559039,-0.551236662430639,0.5692998350580124,-0.3994767087504362,0.38197687050233675,0.3086991943409074,0.6995581259989098,-0.7383748887931774,-0.17560700251740058,-0.7408158019433343,-0.1390263358607711
,1.101729674957169,387.19709857376614,-0.25853312544660484,-1.670812333893628,-0.241695391530057,-0.830962728751213,0.6949579737288373,0.02089400749350335,-0.7074569776762525,0.18141157134947414,-0.8224422049067024,0.15831310342716012,-1.0866657261423869,-0.3208693139641317
,0.22336892602895883,147.20361629447615,-0.06649627723360886,-1.163739168216692,-0.4869619994837826,-0.5976191570435033,-0.018676050936620572,-0.20687955563363933,-1.0879049206617437,-0.27456264669911024,-0.8127522271717479,0.25838640660501194,-0.676411073600731,-0.3027209832266898
,-0.03607366396582705,114.08900956336372,0.017083485237943563,-1.0944245415014051,-0.1256493418571842,-0.8738239813628963,-0.37176112283236523,-0.20950637513088444,-0.9122391299568519,0.4523446218609072,-0.2495761896303825,0.035695707715813464,-0.5968574968196327,-0.2044515220175257
,-0.5171559348695214,174.33081529948223,-0.42642054781286476,-1.7469797766098827,-0.7349725833808485,-0.1729202627498098,-0.584550324301466,-0.10448114263846107,-0.9218022299276455,0.8147931678619598,-0.4852484918946828,-0.16904777418028524,-0.543160265483743,-0.1947853682596334
,-0.3148306338003858,280.914017130834,-0.3046930629722033,-3.727571083972875,-0.9546632905581824,-0.6211159434602564,-1.2189430922246847,-0.11136786000999044,-0.5686507305171237,0.5163914055042129,-0.8145575950734769,-0.23399699486569633,-0.1442582611630117,-0.11929379586875642
,0.1641569574217094,116.10076201359409,-0.3232812478807709,-2.5885355174064597,-0.0699241021472063,-0.4049297893432756,-0.4728253639945469,-0.643392876890153,-1.3757746740386891,0.6111065090625877,-0.8484299418419295,-0.15871436742748873,-0.4280955364807838,-0.1604194544659673
,-0.20209071272245402,214.670466123537,-0.29011903532830197,-2.5878857887327684,-0.10806140499828709,-0.4242046787725686,-0.6205685372033868,-0.24785636481433604,-1.3592608783987075,0.16348254008999033,-0.7560379761827938,-0.4691235224152116,-0.39500455716414706,-0.35874719910393693
,-0.8276394114477363,623.3081185670526,-0.31769304375219887,-2.207563362746861,-1.6549773802990262,-0.4815004847687321,-0.5346649094749902,-0.5642899998985546,-1.3834838409182115,0.6590639141217983,-0.8891529318375745,-0.8231412733754977,-0.6119001839647416,-0.3584049576873005
,-0.12971544732070306,623.8727787557096,-0.5574582824104403,-2.571453946855613,-2.8411071060337663,-0.5089125006685143,-0.5627894958350516,-0.6477206487702895,-1.5053587302637532,0.6445650648337786,-0.39675932436997446,-0.7131294977051911,-0.7229498816246447,-0.297103575080585
,0.18585707264914123,514.3375109117806,-0.8257177768094378,-2.1928663763057505,-3.5817252178552996,-1.3441300543218997,-0.8989931254434903,-0.5797021564325214,-1.1524617587698904,0.06484132369459834,-0.7693249523954835,-0.1502724936543976,-0.7150968095710359,0.1009056547476052
,-0.017465504981768413,468.2743676663066,-0.8372737130914626,-1.0354734565644954,-2.3659192804916342,-0.9274405761926753,-0.22411247725770042,-0.12815796619391437,-0.6489909052078592,0.2520445918436354,-1.3004039665736065,-0.40272054652767386,-0.880895262330396,-0.10755031441954896
,-0.2867281594013927,2.3275565748428058,-0.3537225143636898,-0.7862986032173147,-1.4771987670427211,-1.2115240081673964,0.18078554308135988,-0.2907844335872821,-0.715168054942502,-0.00289777372047605,-1.1086766601859548,-0.25062567240755473,-0.8803061428265316,-0.42445733541882436
,-0.609316020811041,37.23089832878744,-0.23852679903897192,-1.7134642499634654,0.10442292859580923,-0.685254079161242,-0.4004527245879039,-0.8246328200065357,-0.6286598730547737,0.41763490672410025,-0.6202998391871527,0.27423715160042994,-0.7131068982922311,-0.1374080604453468
,-0.37768038394364123,0.10930848206215919,-0.11250790917752815,-2.0940442027527344,0.1756986991919615,0.28582018552230887,-0.12756743179768404,-0.45615740236477176,-0.40466957971547224,0.577583392866038,-0.9361102416423195,-0.035175651710472766,-0.4877116644343444,-0.4052845635854319
,-0.24934595570948945,82.96924675841946,0.1853947805575692,-0.8932112386086758,-0.2828492033440236,1.302807551255293,-0.3590900205533002,-0.017098399687792268,-0.27521449758262684,0.1979899252121991,-1.4158686808889842,0.18793181415673538,-0.23941932003228197,-0.3681942517143055
,-0.5081442918472392,27.232440580210152,0.1085495492772624,-0.610875443960319,-0.8970595338669414,-0.8873745033360876,0.22426804974849243,-0.21400246900900588,-0.7642270508289257,-0.15810251625029542,-0.8438052798198269,0.489279150745553,-0.42089935548047286,-0.25659946117694454
,0.14383430403939337,-48.86558391686158,0.06239596713004837,-1.5440483158220037,-1.0659120279686092,-0.9284712532749608,0.2519798860738322,-0.409482759197474,-0.6789105623148701,0.45336163204171864,-0.7001185813377591,0.32848028486057057,-0.5909121315443141,-0.2642038234737698
,0.17990421336644544,59.88692493538673,-0.1457117399048474,-2.1225481151629593,-1.6557275859588052,-0.5643375615561077,0.09320088172775168,-0.2606393630668379,-0.13748480134424823,0.8750432517282208,-0.23956573798234385,-0.08658137860525546,-0.6898197916984018,-0.14510628157418382
,-0.4204105403568762,-192.1926751164595,-0.6201694419474348,-0.5377146064918,-0.7184507559850501,-1.254784246393327,0.4088145514448234,-0.35638136231112544,-0.5055742615222373,0.6889017119830141,-0.5537936494028417,-0.5280018027060746,-0.7676975711517793,-0.20561763010925668
,-0.6543390592893222,-232.0169047277177,-0.4589594956388614,0.37035072456434,0.4424377897558582,-0.657054797947483,0.9193948438787676,-0.6145714681629699,-0.5185804958891447,0.25780427737577155,-0.22829761615535876,-0.7243953925013614,-0.40306622995329977,-0.19118130679491124
,-0.2345451720023794,-82.48289146580905,-0.33596039094505675,-0.3292709045002549,0.3642266504840789,0.5602029195512528,-0.05348239690770031,-0.5272190533044726,-0.23345999338388354,-0.10390265376828337,0.08403102838191973,-0.22521400331073405,0.12465329001125547,-0.23063616840613968
,-0.35730704990990386,155.94831837591147,-0.3785484250742943,-1.2930253704989454,0.19332347561148427,-0.6928313737869308,-0.7390478521745854,-0.45508855573544027,-0.254467937478878,-0.15756187414943795,0.010825517663976904,-0.38224757441558216,-0.24352031379362993,-0.026721873474372573
,0.24088395039407326,174.46746327465686,-0.02331363733140758,-0.694183203955314,-0.4784615448554676,-0.17259975176680403,-1.082489968870921,-0.19421642320044458,-0.5977187449207398,0.3576829256510246,-0.6592479104240528,0.13495698446633486,-0.524212506158193,-0.20008682522832633
,-0.1396964183157738,-17.228165685548202,0.18442875412272702,-0.5086510257562601,0.13474978182800046,-0.11921881089896674,-1.197314744128071,-0.4280061597387726,-0.574681347611593,0.43325058861082644,-0.6208171167962194,0.09592139570183382,-0.24433517758079507,-0.18566472200923315
,-0.20750893310284402,-111.08648242110084,-0.17556390246994266,-0.28050656437713384,0.07191876478026742,0.6816515802495324,-0.7409013547834277,-0.49672749708638214,-0.6593472424844731,0.1666356028321238,-0.39479555196600963,0.07497152480547044,-0.4779134337208451,-0.20311738821330122
,0.09486489158792495,-1.6978276474157972,-0.46990627057710443,0.7123300966255183,-0.376041175577165,0.6535783009206013,-0.33412580575132456,-0.7413480693256418,-0.5764660475499024,0.00011836454102267025,-0.7673482780858868,0.034246737375053675,-0.6042738306957768,-0.17817425228310152
,-0.8036232535610389,64.54651326498679,-0.299973767503002,0.045715659671061545,-0.1834168571643772,-0.15894119293497966,0.042780882649914316,-0.23579862159553427,-0.7506897676274735,0.26870863640156356,-0.9865022760520259,-0.045272056768649406,-0.6374723701491737,-0.5392913864347906
,-0.8519257423020297,98.07474459859533,-0.029324959978117477,-1.5479210221252477,0.26358183635840876,0.4549290971787625,0.6089709249882443,0.12148175050864633,-0.7616873886048452,0.24082159547105048,-0.5494523439485592,0.012802137600288125,0.057331315790947454,-0.26375009190847937
,-0.6876878306762547,41.49178844586746,-0.375682324349088,-1.0642535810974074,0.35605505922033504,0.710958549856175,0.9055955799420095,-0.2707885805459473,-1.0553629297233125,-0.13248992521529052,-0.07844144114255627,-0.386267608309269,0.015539735410232446,-0.014907682422036245
,-0.27622397873549787,5.486757744222716,-0.365742030112106,-1.1940742915711493,0.03386373070080925,0.044285208248130356,1.1460095587624914,-0.4977282657272306,-1.0301962437598826,-0.39315163995517155,-0.3921684177073711,-0.4237012004599721,-0.3389483453493617,0.03396604166821851
,-0.25719163343178214,101.87334075246723,-0.34746595726937873,-4.390660944360936,-0.06193631226722179,-0.08351328150155428,0.3933204981859787,-0.17643857704029484,-0.3964153072668442,-0.3927508790918337,-0.72576200857616,-0.5269848950435001,0.052087214305848575,-0.053426387309108196
,-0.14715864430957762,17.591177938646013,-0.49857407605405724,-3.976894805857527,-0.16940157137208547,-0.21775192699917054,-0.5856067411359573,-0.0671068510661977,-0.1431087552241655,-0.24713522420167314,-0.3680879511169661,-1.0670605976379863,0.006514991722967726,-0.42738564041516625
,0.4851661098139945,-84.89552199109987,-0.2339972352595996,-1.216562244017941,-0.057497208573876635,0.11129370708420383,-0.3136865131645928,0.2375807608040195,-0.0788458670853389,-0.19589156478622366,-0.5340595935346861,-0.6444436115285025,-0.41100665477731263,-0.28814836399737487
,0.4759108268808313,-57.287505047582655,-0.050922907183730354,0.3551019451717305,0.34816855456907164,-0.5472069741038941,-0.22913833220758248,0.08847978399932296,-0.2314696016665594,0.011254225867868088,-0.23789737608514372,0.42287168297040006,0.03703939784073825,0.3105088999429496
,0.12031397971506694,8.240046948089251,-0.41083805880860036,0.634695323440611,0.1563376455323274,-1.3582856187745929,-0.6127003061254547,-0.42894891985731043,-0.3722564345958533,0.851326348367663,-0.1483379805770424,0.39875324999500006,-0.6108174077975033,0.7531979405461576
,-0.3632794298517155,-66.77808704866077,-0.3359487293198433,0.5227987516262186,-0.16293310018587062,-0.38606386312700386,-0.19457407546041633,-0.5613061507082567,0.1624257214789801,0.8593852387810567,0.13783951222403615,0.36844563718956963,-0.5129722789806141,0.3014399242756177
,-0.0056691087808135796,-188.6485743863556,-0.09708336672443661,1.7582242555112828,-0.062486161413845935,0.46809750231424035,-0.22085256074826842,-0.49221260140109147,0.06539467824509194,0.6023631893611484,0.5243589565851194,0.27528339690449943,0.053475379352422026,0.1566121583007315
,0.30980371906938475,-55.99332665502169,0.08801829799116821,0.6831176445564464,-0.013765927909242307,1.0440317987151577,0.1408323217506326,0.03509572381995263,-0.72038158696173,0.7721358989101458,0.34902003453740227,0.3225122353840823,0.010341156684523213,0.07257148575810836
,0.2592925879503626,262.7346272213053,0.22625406265610892,0.44416100073495507,0.639111443508404,0.62734633218355,-0.05179264876437836,-0.38570255151245425,-0.6740045495645061,0.05318773323496394,-0.14141594710125405,1.242246204881661,0.06301309775433504,0.10564439970158407
,0.7457599754617654,173.38647083329752,0.5080382262817786,0.8118005808760638,0.01634306909591862,0.42306260167445103,0.4310756888018944,-0.15101845302376263,-0.8463224590729354,0.5416103862578131,0.2328417717681895,1.9660749586433433,0.11386191432904254,0.2496032920066867
,0.43580244444746036,147.40088591118288,-0.1328320554874102,-0.4837502734801984,-0.3634332571070743,0.48383550280387744,0.342646350822543,0.435534516997366,-0.3203369920924104,0.25783406921783514,0.27386281916384325,0.7345572599313476,-0.2159540438671891,0.16674181742139033
,0.255766382496869,40.732594278356935,-0.36399736247163433,0.007388257954746311,-0.6485059209342998,0.04885294949054411,0.002055493636767174,0.060712184936693524,0.33966733481209394,0.1857722730262146,0.36196877953808904,0.0500749525240774,-0.13013712126975668,0.22436126305457
,1.217750468026679,-201.35440265342,-0.4267028931365703,2.728593951349106,-0.5695223528993495,0.9025031357913252,0.6251389459262898,-0.3554868357924602,0.09522233357283691,0.19329054701611173,0.7793460773426797,-0.03384905961544804,0.18965936769056038,0.2165819453580441
,0.6331398433231655,-284.52660595448424,-0.3133934025715367,2.373020860565514,-0.5011098323601133,0.6174786015025386,0.6993104531718284,-0.2601366495614569,-0.44347228965955454,-0.18456188978685603,0.10094417166373891,0.20774633463545134,-0.056025529336795415,0.09360482563267551
,0.5895959587216205,-45.652243838170676,-0.23280816442882715,0.7446520490647144,0.12407912145448219,0.9953836353256748,1.0563822967693877,-0.004500583580463118,-0.4231429386052344,0.2728945073469355,0.28896669262258684,-0.10901745361270561,-0.11957244196040362,-0.17915820548762657
,0.7438808892099434,-42.57841843788914,-0.09834301110922547,0.2222754043971118,0.170079065171331,2.0105065435690874,0.06007708624649917,-0.12492686417043214,0.029653921892042703,-0.02430108709490076,-0.1957474971871178,-0.42705071471931866,-0.3504634230468926,0.05353085200458777
,-0.15444771649788144,249.95078171009837,-0.22719821559635045,-0.3546050195486435,-0.491789297647294,1.194065140978706,-0.6634874091594148,-0.2691009121674744,0.13654439536804278,0.48508609651841117,-0.47377000025079624,-0.5137391527468606,-1.0851057387707685,0.13625061800649
,-0.6567153626561781,234.63431042022324,-0.2631631114346029,-1.0536367931518458,-0.5777547060104331,0.4238683951190304,-0.7026538313545552,-0.06693007250716579,0.2198413875851718,0.8252573143189484,-0.5951391722789979,-0.39230768091307266,-1.6640715926069007,0.11843584714617035
,-0.6726819557443058,-116.5095230279368,-0.10946605225615466,-0.18104543942398768,0.024488021246062745,-0.14119129295450206,-0.5517089211744541,0.15530257187547075,0.019216425260022693,0.3644208143390583,-0.5767511481207486,0.5339697211011272,-1.062115592474588,-0.3123784678365656
,-0.20611720096490868,8.356616087079226,-0.02534678467406331,0.7263439273047244,0.7483150058654431,0.37894857294944306,-0.32302257079993607,-0.44291452382792773,-0.44619160402288544,-0.39013742831939624,-0.1445432340599035,-0.2041996355461232,-0.6495733334252736,-0.28035992796428455
,-0.7254408721613826,247.96084986405984,-0.16522592154670904,2.167029361727888,1.560246573275738,0.5014002004904526,0.2668780891280828,-0.039704415664703334,0.042068658134459466,0.18695082332818364,0.04336438026052856,-0.2211982829185613,-0.03610445550439092,-0.1896321012006186
,-0.25947593602628066,178.6488295473999,-0.16584177417543658,-0.14271205712290247,1.348235559777602,0.39255417492974437,0.15118844999798842,0.20780046497491506,-0.029515123373968534,0.9735504666450733,-0.20280029046397402,0.9155958692298104,-0.2583547512871031,-0.2000283198581544
,-0.07344163298675438,-11.545941453424991,-0.26778085596013806,-1.272601948827982,1.2715850886155178,-0.025639913637513258,-0.10412268636530601,-0.25557479748370265,-0.48635314735611174,0.6664282764736169,0.21744911257210922,0.2610650157128187,-0.23117510596596932,-0.1911746152723157
,-0.6689627289602054,-145.39989773357752,-0.5435792499696772,0.8557936391486433,0.42054731176011995,-0.12545307778730988,-0.5155557517651371,-2.820943633831775e-05,-0.20464308729314032,-0.15574374361214915,0.410074773819129,-0.12220732678755694,-0.013440466202273993,-0.45226732658397323
,0.08346779029202438,-79.39502273470634,-0.3584928916847648,0.09572399194490037,-0.13776911932510075,-0.48443057094722375,-0.2711390953802596,0.3219168059674148,0.1239512881922193,-0.13261746425461626,-0.651359691733027,-0.007738521594103486,-0.1359396752569866,-0.2570685834281422
,-0.12411276421450809,-4.944688866031352,-0.2849042451092442,-0.4978759358810605,-0.05349006960133729,-0.19465474092119017,0.5419288477362395,0.45556801650377593,-0.003730132864589892,0.07475972000931196,-0.9121397622184305,-0.22411130528829512,-0.2419277133690577,-0.10274777410791121
,-0.05232508555921375,162.68425976400803,-0.3503021059728552,1.0717136821540707,-0.8787414359616647,0.6440988578242469,1.2257836299506346,0.33370188689121094,-0.33883768258713926,-0.2854254488553327,-0.13500313321201948,-0.45174988546330624,-0.15985660805241317,0.09717929560139477
,-0.050199025101986636,4.509659114043167,-0.17345952769279493,2.265781782452968,-0.1506195379923705,0.6530744679370563,0.5815769209182015,0.6770817919386564,-0.20792924081359135,-0.4222393186554936,-0.04537013185382011,-0.03942005804156184,-0.2593899125650738,0.025051912622581458
,-0.37704888254036645,-276.81862041802196,-0.006630020171225918,1.806605293751693,0.08571864948756493,0.1021896321199484,-0.6406284225351092,0.32093232275166866,0.2649708174983287,-0.19121330108976967,-0.5211074552294305,0.10674097859346819,-0.01380291379154265,-0.10287017249724745
,-0.10094900935658836,25.13588504807109,-0.35753430429612904,0.8899305233406674,0.48274935049536144,0.31036350044000094,0.13958674761711817,-0.32526978988398303,0.03634664154256816,0.162349657509881,-0.29867020454409915,-0.17093397778838987,0.09518242432722597,0.3420330985591506
,0.23518117129835248,-28.67953719464351,-0.01893792176017525,-0.21521589096077143,-0.3022439944796249,1.3304878770095032,0.9390005810556511,-0.3658113360839641,-0.40576119555447215,0.11837868961824247,0.5097559582410689,-0.14189553111918168,-0.44946108286550884,0.17893362746613362
,-0.2411287691474898,67.50079197971839,0.15496876059202747,-0.18839687563342214,-0.17705778176711806,0.7328190092337873,0.131507026926783,-0.061603412602988336,-0.1090804901106391,0.09115407562057191,0.40576461706530803,0.4929795623472944,-0.5488630394011533,-0.4434038289721931
,-0.3528341957909052,69.57958095561314,-0.34044291773600494,-0.12813785139141434,0.3747654578751637,0.573310114921873,0.13487033358144357,0.3978415866779826,0.010315214140142318,0.11732980079465165,-0.1110738003327155,-0.5667954423522106,0.07328961734408493,-0.4395571408298656
,-0.10440780401734356,125.05323854793923,-0.3091024131267285,-0.5086351362869571,-0.08579335155577092,0.13428405409432592,0.2672353968512088,-0.20407293791653314,-0.20868470243757625,-0.0753138208403619,-0.445897244797949,-0.5330528811505753,0.2559791660404889,-0.37627229070534257
,0.1809255793958308,145.63029011781978,-0.160891554450773,-1.1517203645248533,0.31776874327598653,1.0990685946107088,0.8478665490075926,-0.18108056732985967,-0.3967329499386089,-0.23605210654899084,-0.15182012181653579,0.23553610927664242,0.10723768193210766,-0.26398484740363054
,-0.03445880420912195,-13.033603754795154,-0.20277643659800723,-0.3841558512527044,1.4155739102959,1.5905852487909924,0.7618893469849601,0.3261489770100655,0.01959284686540717,-0.2896179394014405,0.0889936673827112,0.3484147439631707,0.19394147895202668,-0.09944952480397624
,0.22581887438372367,-20.03388846135308,0.12118552811607039,0.18747890845373538,1.2250232105918888,0.10947890482064367,0.172500143957508,0.2003069185820582,0.08758424830995068,-0.23893023379742867,-0.3007376390266974,0.1246137737181659,0.3838561311591474,-0.09826515887385517
,0.7368485360797344,-54.15366226014575,0.1618223443425877,-0.1672691734094474,0.4330187996495646,-0.7821092202000363,-0.15928659099689807,0.2412410785335708,-0.06667916312605789,-0.12318148343305098,0.13471111019866663,0.3100716843471896,0.6696602975243608,-0.1578843488523692
,0.8531136761742331,25.45365056194154,0.16859935459341657,-0.7527459735720378,-0.10350885507779313,0.33181778633339737,0.17884617713878123,-0.051875642612480684,-0.09743704373057652,0.06185127950291078,0.14951061679285038,0.4310960308091607,0.08956581179084264,-0.25766683648825534
,0.3365472572059726,155.53173820531555,-0.21868249800476278,-0.1681102891336064,-0.45716620268829106,0.7560068062295575,-0.16694578449973044,-0.4830326700233198,0.07487288624349424,-0.8830885765693635,-0.33050283074564796,0.3358370657507269,-0.6122134299850809,-0.22834782616079882
,-1.0200378854329504,-102.00204685064321,-0.19451323142074164,-0.17557585772816003,0.0926522149092884,-0.4341028895625563,-0.26108463943398363,-0.3213402865566014,-0.08958908137716187,-0.6272003494745433,-0.7687621298754068,0.4025002343347371,-0.45992992470754046,0.029733663374237256
,-0.47672714454247495,114.86841851490617,-0.0712810793226185,1.0388939595030928,0.31752767003271026,-0.4950025459712154,-0.030704511174496147,0.18223627805097767,-0.2827156779385705,0.44577750904151225,-0.36270102291371975,-0.4189381168173438,-0.15019925088271457,-0.04476426931151614
,0.5785048421271229,247.04521318029677,-0.0049013160633918,0.4997427368785767,-0.08231640427218517,0.8276598195994438,-0.4129341511004995,-0.2125398695825518,-0.08059707029081538,0.50422181613336,0.26780434410859455,-0.20034120854337434,-0.06994568045340169,0.0433898503993738
,0.26853746387339783,32.593209499608776,-0.2566967693611813,-0.24477044825175698,0.7274727225523543,0.35316713144267914,0.2664673854715652,-0.4225362259961434,-0.1037191545944007,0.17278077825871904,0.45895830036702895,0.6451312250839994,-0.08064003623091512,0.42276734846496083
,0.2946599391551026,-368.96027602715543,-0.3333849151686382,-0.25070188019061945,1.2603765620376466,0.7301514456896153,0.3184737518871265,-0.029672487823290183,-0.02028789588471589,-0.14863447233931854,0.26530561561337007,1.3863129006821344,-0.07131298672389252,0.2239843527225381
,0.1344656412050829,-278.79763099399526,0.09146914652987694,0.16736229091687915,0.4673759729096828,0.7050348310347413,-0.14118007431156177,-0.22770537794327841,-0.18433249529494267,0.619063817993676,-0.3205200106260605,0.4127064314909699,-0.6149848581983637,0.34407406918148975
,0.4295003641585604,-156.44899331606635,0.052628797682852994,-1.0103785321694587,0.7194775761444343,0.6786609635420217,0.12590140512255815,0.08987955157364953,-0.24935567158731245,1.1015929080648987,-0.10851743036024969,-0.03353500284778283,-0.373729100328896,0.5363056423488882
,0.4462026895868839,38.10267221871117,-0.021071384912952684,-0.911200919200341,0.1961092548455791,-0.3939490789789076,-0.3926269483897754,0.3882155346895961,-0.09465119747293917,0.895433639818151,0.20527335917161574,-0.033485913365044875,-0.2297099082962678,0.4857319548919673
,0.46972062546544785,127.1379617952108,-0.41048393550603574,-0.037989299340082563,-0.21455730177998583,-0.6796429148986752,0.3681716892504739,0.7099794352383269,0.033609367495245755,0.6364450346838959,0.522848362297505,-0.4988499697894413,0.045725122033221176,0.2366055273625594
,-0.0673265645741206,-49.091976711533995,-0.3569141454632265,-0.18311474946806922,0.03870918722168984,0.9957535160550086,-0.0420701333796148,0.5079988521199239,-0.16150334426197105,0.21981338400952086,-0.16941322282372784,-0.11603869814171094,0.03639759777377472,0.19205828121849064
,-0.09351924243347821,-112.18423405524484,-0.1677938093982111,0.18714987005463987,-0.41746031325276967,1.2530167206556135,0.6715223966577123,0.29627223014680093,-0.4788818275725646,0.37012418501496036,-0.17424432018345298,0.4701372888119291,-0.1574717929567955,0.12062533496037119
,-0.015038350701224631,-122.3928645610956,-0.33955560024050324,1.0047684350419064,-0.44302796777823356,0.26432515230027687,0.4665982798537075,0.5334490537939387,-0.10747618616934734,0.4488939598361261,-0.3609035442999235,0.011964216483818796,-0.2184302763633812,0.27246099768114423
,0.08625460270597697,15.633608669998415,-0.4188343073711229,2.003082741811747,1.0041335391083652,0.565416129089526,0.4813122926878992,0.6911580640669146,-0.15824694726199523,-0.05771151318712068,-0.002285871097958107,0.22762082809028367,0.07473132109130831,0.232529285282529
,0.16972315179887282,33.38813363172558,-0.17367081238649226,2.808482602386254,1.1595527172827698,1.3910267746906517,0.3629991058389811,0.28475313891428156,0.127300072791173,0.31699278423340016,-0.2483257054285048,0.4560057147861522,0.026142280747646466,-0.0982620155032031
,-0.5146096067557275,-49.55749419097892,-0.1663582150415383,1.6459785837487366,0.13526354178537803,0.870982336659885,0.08409944037056018,0.5098056760277189,-0.326771396073462,-0.0668272403127009,-0.22407872762388859,0.3189464283902386,0.2858018107885449,-0.15259067091073397
,-0.37137947272358757,38.96989385763535,-0.09019290771247201,1.4666210486631879,-0.4359761954413223,0.16277981730006252,0.14037872534461981,0.16592372209413592,-0.7496648242778378,-0.7876779857701962,-0.2882416219915922,-0.4325018280662827,0.613901875293173,-0.07054790839199757
,-0.4435945068383904,114.968774052782,-0.11984121565428622,0.4034380870944111,0.013699099828045014,0.15189201036859096,0.6955886073135555,0.049901491322727226,-0.9156303176771657,-0.08374783743647524,-0.15627134148558258,-0.2521604778121194,0.3298073675956811,-0.16659763866148292
,-0.39890591379269336,-155.2964885740873,-0.15391912673708202,0.853283945466965,-0.05577672693392515,-0.09569239701715904,-0.4319929563257168,-0.0484422109607173,0.08744660557646633,0.3389908552105445,-0.11664156678986452,0.04307311323125135,0.030801832404040067,-0.45401283717752583
,0.30009166243242497,2.850699786562429,0.021069729829753404,1.293712092863856,-0.6808013008917461,0.15388525732778022,-0.43508704386800473,-0.2496777978752587,-0.21710300537202712,-0.156594834614358,0.26664597971288273,-0.29803546920939594,-0.07069994559308357,-0.24375405212919862
,0.3647333362127977,43.21806359331196,-0.03305624620371746,1.8617619604317113,-0.34242733624056876,-0.27653368790967464,0.4421294303013972,-0.3783369143898606,-0.38684425357711943,-0.0011886139211223588,0.9769680610114042,-0.36915352963293874,-0.20647130431946165,-0.4116920696297255
,0.5710275106062113,-227.53405538051737,-0.06726942079137763,1.6742857702568026,0.08899725154881472,-0.16634672888196284,0.16698127485489744,-0.14277900581988676,-0.19072315876058912,-0.1351005255247808,0.46960548005302305,-0.6728443162601548,0.01748282703797274,-0.3996279359927636
,0.8993195079916299,-265.2306114500544,-0.1723592563228148,-3.8085807831644205,-0.3820090921311299,0.9674209020892516,0.1488536794403182,-0.21423219146399472,0.3459703702611606,-0.5215733276558443,-1.1040310925369727,-0.30988243045411773,-0.047448724195360406,-0.23145423516565305
,0.48601866013806005,-198.96867413437107,-0.10292799761280863,-3.95059336455458,-0.40113125287100876,2.6672784309637856,0.9182137698311429,-0.06192356940182202,-0.15299206672233723,-0.14577663068809255,-1.0279385755460555,-0.04557501277066075,0.040972328357046374,-0.033238063530207626
,-0.056087397950273545,-264.9896222902929,0.0787106259270886,-2.6314042145820777,0.2628028361922487,2.015610991914389,-0.02054918906665214,0.46299243972720844,0.0052694637031707875,-0.7116406274723639,0.10897891085105661,0.21751280885587934,-0.03472657426950869,-0.20481224371387835
,-0.44638897254285775,-18.230300980455034,0.37811578166374077,-2.9544247150111347,0.11496452990566304,2.3422883602527733,-0.3913715073233961,0.7863104588888441,0.2548609755144175,-0.8500727568937848,0.15287799065358734,-0.09269750786528051,-0.15650678624832137,0.19461923992660943
,0.05964720202741754,255.24752831063807,-0.06404685312104173,-1.003015276529933,-0.08629943861372787,0.9333553812820897,0.6409949189384183,0.407468123415042,0.703149548283017,-0.16733663843408386,-0.27729001999023006,0.05324839884378967,-0.16280208629111395,-0.16565476243336882
,0.48382924932936955,246.63598588862803,-0.06800615663619805,0.892727986349497,-0.39162369092434424,-0.4336261937930706,0.7676750262118117,0.30186870560366397,1.0258725091228644,0.09440587648896852,0.1911874573208041,0.2455115381986086,-0.15785889814009418,-0.07568063097537125
,0.12704196633185477,130.35744444286829,-0.2970773954808079,1.0496351744492856,-0.10648414893758089,-0.4222344047371085,0.03405967638458344,0.37958614984031286,0.543905638078242,0.6944120778346291,0.3696398871472363,0.04543276105886572,-0.22050027167056593,0.08919318366652239
,0.010167753519004997,-117.91973795780196,-0.5560960045693014,-0.2788997480236422,0.8277071811872988,-0.10166956835089445,0.32237361601254383,0.5365232751901509,0.22443316210664963,0.24947476723862383,0.5094805181552668,-0.3624154344181461,0.2826242977010784,0.1710005084981149
,-0.11005993047378107,-29.790873785809282,-0.5751228153758016,0.2723365959357405,0.5069882420539813,1.3505399380130245,0.6348410979661613,0.14908679552178558,0.10053836040763293,-0.632772179214775,0.6563642975354854,-0.012437831260571524,0.3839576240102251,0.061048078819785995
,0.4038328059632772,16.24542010013706,-0.6238166996826865,-0.15145692499110994,0.7195825467982548,2.87586430511493,0.2958820252604118,-0.17228174938288138,-0.08437182809993307,-0.47298724828125865,0.1525729419182765,0.5045477073152799,-0.028679682282110965,-0.06345932500229275
,0.33729986458965516,-35.925711008029175,-0.6082102670619599,-0.5023583830228483,0.6050188193376326,1.264587381151833,0.5319619414699432,0.00475269299260161,-0.2029603158568632,0.4654949837837846,0.006580281988159703,-0.00494488354727418,-0.014569071810274366,0.17707742884518599
,-0.3790712863979006,299.3311744191307,-0.1343223635908426,-0.11703126319980221,0.4589331037755101,0.05842435536920483,0.42071183090906716,0.47158690610873466,0.3330496797274705,0.08608618474463582,0.5377087539204194,0.15539707163506805,-0.05967827491451157,0.2836430132519986
,-0.6051838131065738,224.17956321322526,-0.5387276619478054,-0.31354344704606757,-0.0779344496681747,-0.35368996357273863,0.7353210436985922,-0.03346257430747802,-0.32800255673091194,-0.15090675545802895,0.3951591281946242,0.46988264426282944,0.46601412944196563,0.047330609266829624
,-0.3528858867559626,54.87242994577026,-0.5309423915622647,-0.24400119373848,0.7852178537674427,-0.004764431530907493,-0.2667907962239541,0.2793487963860556,-0.3640949175261806,-0.24161421222688126,0.24240382449378223,-0.13542407997632797,-0.15150288895077613,0.09721256721880794
,-0.36421217671712125,90.04131576705394,-0.13763134031805915,0.3640596030709694,1.135208911849843,0.4123158849929101,-0.9091069636672097,0.38328282549402143,-0.06470917743729546,0.2739924711865699,0.04055359425690053,-0.4751839470009262,-0.16440246582314988,-0.17689884503705686
,-0.8269680426310679,249.3010655106584,-0.04177393324115743,-1.5235361772780063,0.49441721837318664,0.3936327136069736,0.0549102196018904,-0.17162603379043417,-0.5156063328280239,0.46704967213402626,-0.04021192782934569,-0.3514322449659509,-0.21521881914950738,-0.1805021472715979
,-0.5292027783071355,93.21673637547987,-0.38441564737372713,-2.1687967425831025,-0.1124520193938484,0.7420912489203715,0.8896515857275537,0.3396040814727316,-0.04404804919481146,-0.37206025477151317,0.23473243171424263,0.5170250265244161,-0.4129950980365002,0.21986404308734814
,-0.03224237566234361,-114.90199477849988,-0.6826739938642086,-0.7841412210800006,-0.10836057438908073,2.118928422662516,0.16365052342012004,0.25927488847410207,0.3817574642868355,-0.2897166620628387,0.6727783889325566,0.25525905465322263,-0.008079209149873142,0.036626135371599075
,-0.48842595779226095,-147.88350283963308,-0.47391429184791667,0.1921767056721855,0.12797023620856007,1.1529291738780236,-0.07163052783275507,-0.11061788041606094,-0.10532161796886007,-0.3146869706636495,0.3424883967205008,0.2490072506008046,0.30048371978676625,-0.026344364547548817
,-0.5598483480436477,62.89403590241781,-0.15973730718629284,-1.2843515859748338,0.13458989174169994,0.7697270435733214,0.05014854367786952,-0.5275534724409545,0.013697468758391753,-0.7991532711535819,-0.023575730827890277,0.4213786317274471,0.6038932175241913,0.29961039775710874
,0.0835292316363387,127.05757133979269,-0.33049029789018786,-1.2212342852715758,-0.10256884334081974,0.7135054405938693,0.06267954529451608,0.020156040494263363,0.44942597665867445,-0.974564585526017,0.16832098867705633,-0.08266589562505886,-0.011454462813680651,-0.04701552103618305
,-0.7519508065889584,104.105985182823,-0.37787526936153104,0.14464339021938444,-0.15156702929899396,-0.5386600876570182,0.24999957437599046,0.39055820151612347,-0.08299770224544842,-0.9087757409082862,0.1265700172643465,-0.14369659713955427,-0.6933908447083746,-0.36336828640894203
,-0.4646317842135692,103.40510079619668,-0.32854040866469597,0.6482733402964754,0.27907485709662666,-0.5869191482459797,-0.13970642294899493,0.14264679259061377,-0.011932294473153018,-0.30546891590391784,-0.21644478723441923,-0.19901476364029558,-0.7039927196800158,-0.006038069341077956
,0.1897440285473974,60.651657290685876,0.06532100950607822,0.4700467322604198,0.6172089623329133,-0.5537988724173462,-0.33258179968751583,-0.29881299607872425,0.0384216715927136,0.11205456570589821,0.18539500397576794,0.053802354401969246,-0.1732440497404658,-0.1856504650390965
,0.46042813830057266,134.9211514282075,-0.10312739654761757,-0.18374633509784566,0.8206620554185157,-0.003396107569138096,-0.6308990558489672,-0.08585100198188927,0.252153026017158,0.22560722931539526,0.8639265784073321,0.7534517009781213,-0.27084290388524285,-0.27362080175352
D1,0.022965344597848728,172.98267686338872,-0.2036576815646476,0.2775517430898344,0.15725478395425968,0.2603608787058174,-0.5265972577287675,0.09910759452542772,-0.06658905555332632,-0.08247234154527926,0.4018184965005946,0.8337541450110123,-0.44151462186676244,-0.048767700950473704
,-0.18930830574504176,149.90659670782267,-0.2847969702202012,1.28006372923234,0.7077273885857077,-0.2700779139162659,-0.707874547764996,0.34092353630741434,-0.2445471558974965,-0.29942942449634524,-0.07471978195303469,0.0814294046718059,-0.15520305436250756,-0.28160435203447076
,-0.2751547398411961,92.39430627744134,-0.08987712853808824,-0.5040770683943707,0.616649291993182,-1.1918958182299009,-0.6497451283951546,0.27359440210070174,-0.12082253515179237,-0.38787136264822547,-0.34091172299726064,-0.07481947095120967,-0.21185326196562598,-0.296524233004449
,-0.5780963629877627,159.93144912941352,-0.18104609637791869,-2.059908276781395,0.41854927038816986,-0.5929291461412802,-0.5619224536101476,-0.12266489238318956,-0.6212445283469898,0.5025264926953757,-0.40331987097233896,0.08868842317161962,-0.19538867312287853,-0.06031777246830142
,-0.5761648519759263,99.51681728642103,-0.4797061706150548,-0.8603612012194214,1.234323507905909,-1.239531201008589,-0.2100306383448552,0.17412053273599232,-0.040592582304699996,0.4128931484462192,-0.17289985182859013,-0.35372640890209006,-0.2636782649424005,0.4976882532274786
,-0.21347022178639355,-83.91641509581291,-0.2978390183713191,0.7518820227079834,0.2211167139789354,-1.3700954955640554,-0.4874259765626468,0.272853437683682,-0.20451914506994856,0.33471454296834763,-0.22908555788848367,-0.1545074818335114,-0.1373632368901415,0.07476119113058764
,-0.6760567881717704,-125.7445927910205,0.0024042524263011137,-0.12113766495462863,-0.14450496883462505,-0.09369848219180875,-0.06740963087343405,-0.3303408000119951,-0.5973070958700973,0.0028911377572857157,-0.33930015019987664,0.345620182761486,-0.3478229317229742,-0.3656567424962211
,-0.39556733442233566,-144.67787058224124,-0.19415958041275982,-0.27724631922777204,0.5437473879950427,0.3040403647121032,-0.3671849292603815,-0.42120199950055176,-0.8747919351816446,-0.2561592980361662,-0.46305963121709465,-0.010938575008633596,-0.3576716887204433,-0.43329696933359324
,-0.3848895635151907,-66.06426215188684,-0.20504570134293318,0.8248214313711871,-0.23836241323847598,-1.208118601479128,-0.07484218172506774,-0.1498402833056108,-0.6774550471219755,0.35936977379980156,-0.10710594351557932,-0.17708294261579885,0.1115381645480667,-0.11647557237430851
,0.08511601516067603,145.50436775419584,-0.006659331695830154,1.070549021526772,-0.587674345702809,-1.0790425554880425,0.24157910237153205,-0.38927673604853846,-0.7781160454692096,0.17393754147516852,0.23489791873542792,-0.3309602536927665,0.6791152248194916,-0.10378144684827058
,0.24274364274028978,174.97274631455255,-0.13936381389524877,-0.42280775225496386,0.006337844243746474,0.10556426283267334,-0.20648929572587402,-0.170894617574404,-0.5555028442508733,-0.03663386152559127,-0.051378598047126245,-0.29028445617514825,1.5081027874624024,-0.14802550675317797
,0.007131880458684005,273.64608299650627,-0.28696856493419004,-0.9770330015554225,-0.9612942576167518,-0.39061406447282887,-0.32472252305180993,0.36154778513972874,-0.749655866404426,-0.32129562349329877,-0.263727143080218,0.33398241862701944,0.7683601454198209,-0.20518665509634462
,-0.03897980123292636,98.28264754436115,-0.2462881936400005,-0.7534952406265925,-0.33317720575170445,-0.2810531648727951,-0.36097735290737304,-0.3970904647151982,-0.7641297437233944,-0.8485277852900656,-0.08057600202540612,0.14388337688426123,0.0020820425405160643,-0.17623172741979723
,1.1793849473570561,113.91620588658671,-0.4505656575820852,-0.7521584120640075,0.31736942809801166,-0.23896187511863698,0.20355993204839956,-0.6023377927195127,-0.5320445544172294,-0.6372251637061641,0.22169824582304912,-0.522285105973948,0.10896528076657634,-0.9219409927053941
,0.48886060959091665,113.27935340219781,-0.5044965698389197,0.07384127783232211,-0.18408826981473314,-0.41404738563333143,1.2898447861219813,0.35210108075801694,-0.048610199261024487,0.003863709790693493,-0.08592382221054906,-0.5063191521401559,-0.027649704256296617,-1.1526084013041724
,-0.4198661707185551,-115.36990740654163,-0.4004908336637078,-0.4721602661550613,-0.4092462859322237,-1.171613378532375,1.0735946899412883,0.004620133550728332,-0.2616267533487411,-0.14787359279695414,0.07926799619041149,0.16465616155090754,0.27309813179662057,-0.35755946297498464
,-0.9182774922830153,49.09489247199381,-0.6251810181748224,-1.471193753518338,0.017224152831714478,-1.2894138987291814,0.33012938504843725,-0.23131840437208168,-0.5368522877178499,-0.09094321803497081,0.11358671356850536,0.35962599879386176,0.7106357347529222,-0.4830120886279878
,-0.5538208681896549,224.93506029499812,-0.7510141296169084,0.20695738125981566,-0.6513596278140253,-0.25237694122741244,0.06246451955170436,-0.03965700929036009,-0.281180253510296,-0.2907329332228284,-0.2208828469945036,-0.16993896307112252,0.12594689623148972,-0.4148682350072195
,-0.12434986458845007,130.54503286945538,-0.6692882132402648,-0.36248989204744064,-0.7857082710404989,-0.6768870247409533,0.7792414873261021,0.16289045119297985,-1.498417362072959,-0.2800729933514845,-0.23148387357947006,0.7367182437126839,-0.17884443627636798,-0.18756313992671017
,-0.06386085855835119,-208.68970007708515,-0.3495190589141613,0.8226690568530138,-0.30986043261732965,-0.5046215161133496,0.8872324761570253,0.21759582805779185,-1.772118654935388,0.37365614468258246,0.10970555377777774,1.16318459760921,0.25906407155660177,-0.09985161375768982
,0.24686050509647287,67.5586694811706,-0.5281749695788475,2.178055943733473,0.45709086652095066,0.25612116453919953,0.5741322052987972,0.33431063662592647,-0.49252121310989366,0.858327072949128,-0.4266457216563898,0.24990915173447414,-0.2754589624726644,-0.48485212257042537
,0.5653273701614829,61.62021093558002,-0.5695934728174054,0.4630484287115423,0.9244829804387643,-0.36172190520290637,0.7919697912035378,0.39799433990202693,-0.18171374097633836,0.7315414762953457,-1.3065521904544966,0.13870487568498532,-0.4448434768066346,-0.39759999654895267
,0.336697636372917,38.26542930067982,-0.23435953280186786,-0.8610684773187871,0.5982961413294077,-1.3245455466653075,0.575529255369578,0.5908390481889143,-0.1998592185517907,-0.3351326443340298,-0.8226205957435215,-0.08112256877233642,-0.3223035326321233,0.07790201163431969
,0.4495845446334922,-212.7436468067025,-0.2282049674562046,0.5780902170342237,0.4762604002641625,-1.1865005383441787,0.18114331129333772,0.12325445923920163,-0.07357354393674662,-0.22300720046632178,0.0967962927281815,-0.07176780158810855,-0.05729046862085215,-0.04624758705461621
,-0.024885876665229706,-62.73658287841015,-0.3207579757532805,-0.48863009435706906,1.011098671247799,-0.9742170036319995,-0.009746886333011162,-0.1849403020481547,0.014823940844889935,0.8125367033619886,0.3758909026842458,0.2229172500753981,-0.12541603160437823,-0.047172005536918346
,-0.28345130761183407,20.776867171084792,-0.2342566959412593,-0.7626542019474463,0.4315936666469145,0.043558722346582604,0.40851071111284126,-0.04474166817654547,0.36899776521641314,0.5619819095132469,-0.22158028886299383,0.3493069335886685,-0.22672018000136482,0.0843125703471001
,-0.3128087950486424,345.4161145437971,0.015565511161853467,0.4113277523560948,0.09310093067229352,0.41645590327596715,0.7028903335732082,0.0112808222013704,-0.1840200386864651,0.3692203574953402,-0.2038004086281974,0.10719348856512545,-0.6229329741929169,0.3158560930407387
,0.11086109765182987,275.86869875212534,-0.11943132057470619,1.315315029904727,-0.22252846450830008,0.8932004513380057,0.2464015454187399,0.2821063791502016,-0.24637534746274664,-0.05227875734203238,0.11229080595669119,-0.36052472970729554,-0.16543961858088058,0.05973679077968617
,0.2514476729150449,-128.16179578938372,-0.5920617731019328,2.072069498268989,-0.24107694846680866,0.9662454328210196,-0.05126342429536848,0.0009745406451289,0.416805244293167,0.22677047112165924,0.07717304369733888,-0.6371395220584837,-0.3231829309255044,-0.393407289959019
,-0.31556826751301786,173.10431713223272,-0.7200828593432618,-2.133456776072355,0.3456506573107685,1.1385024881685946,-0.2913834346060194,0.006729272978318913,0.15626906081294387,-0.006659492342088161,-0.23695873200757886,-0.3756934882472414,-0.5153964016733867,-0.3579914101211175
,0.034481001797544104,562.1428668463308,-0.4759725978494124,-2.250709818673026,-0.027222925876837653,0.3417459199491669,0.14241832917404046,-0.07663480780291428,-0.41689172289558174,0.1925874682159476,-0.5310140110164453,-0.5029197761814672,-0.30111620593987587,-0.12077962902348877
,0.6736665061851591,390.19009261513577,-0.2562684657706812,0.17612878929447576,0.31575807359517316,0.9399186729905431,0.524306373502265,-0.38705192804123506,-0.24526815543852828,0.06378672615701528,-0.43185593819260626,-0.3546610417810243,-0.4102319948940949,-0.1460057445174273
,1.245329228947899,166.34738979819969,-0.1670697109261748,-0.0622599916187091,0.008530259486779141,0.27257494073262406,0.3233179428944052,-0.2663247617402082,0.0495083464619737,0.2272876530762244,-0.1933729485297604,0.13209721757214604,-0.23607251743737,-0.29036318306772196
,-0.001102184827367882,-80.90461423966221,-0.1852499586977155,0.3944467820025145,0.5947406513498655,-0.36943114427136203,0.4019559569877693,0.22901133046020897,0.09552728237054953,0.692463601533111,-0.07522470821037114,0.27132350608851447,0.043400731517232616,0.0229500838225879
,-0.0016174772832739804,-104.00848726615502,-0.4643027281952251,0.9043112838308236,0.3770446980707816,-0.4938798802066839,-0.003568608693925819,0.06068367471726087,0.16364061651911763,0.9508393617443547,0.5370499378319368,0.16984234530556225,0.26977792382471494,-0.33244833635214316
,0.2289849726192861,-277.3447089652566,-0.3537324571464757,0.9842324823485683,-1.0321935706802192,-0.38568918723253975,-0.4369890742632595,0.3745953967086258,-0.06123245561991598,0.7939676763097232,0.912278657042797,0.23781741731682784,1.1093697923782213,-0.15550056157123812
,0.11773988326661661,-146.13486713561474,-0.42413089876580634,0.5857796365273367,-0.7038807188104409,0.2903206468439597,-0.6374808670230577,0.19904453891372845,-0.06340778642745185,-0.09923497225856177,0.8621169782963756,-0.09476019808250728,0.14316914667353617,-0.18029832239103347
,0.2138432622538758,-33.88958644760303,-0.6101070170877009,1.0100633727882655,0.44665570584277087,1.1009011252886973,-0.5159528434616546,-0.35645902141770663,0.014646321237743716,-0.8913200001632384,-0.18691404141897816,-0.4819654731819547,-0.7428215080943846,-0.13700660301577391
,0.3363751319429025,-89.17420656590649,-0.10759461689905338,1.5129515206500237,1.067527608142232,0.18566173190967195,0.004140722872007433,0.1341759637389745,0.2836259352146968,-0.3871934975835924,-0.5446648782846144,-0.015414556978384411,-0.7430590990381201,0.11401163556728894
,-0.5015481948672194,-104.08715191625689,-0.2855300788591272,0.6223316296448844,0.9753550168508334,-0.34716531428763214,-0.38527479555177563,0.7058825212226949,0.44352264306846767,0.4811173613471451,-0.625090210489078,-0.5998508480760669,-0.4919248992861414,0.12424484720680992
,-0.6740956064972887,-16.515850757344268,-0.2429917583109988,-0.059306888482703976,0.4980175060881754,-0.2487116123051249,-0.8903736503772163,0.8668531931532362,0.06520241043855181,0.567681261374567,-0.13817535257077088,-0.35667954884552244,-0.7323990177119187,0.20787895716696758
,0.22562816909458208,236.16085925879187,-0.24586061563098546,-0.35224395948937165,0.39177128562184976,0.23579071897583434,-0.2998555066852733,0.5851092777071039,-0.089659821596471,-0.442047733860478,0.17289154747556945,0.6341331903835699,-0.7445520861823868,0.26432540255124287
,0.36921084789351394,123.73492621324102,-0.17755624411860693,0.44532605349629184,0.28562569699246626,0.1877651237132243,1.6168359660515752,0.8086506028158713,0.35030641820380803,-0.027341556997899554,0.2397402558596407,1.167377169979654,-0.13341950514822265,-0.1307569677140421
,-0.45701195850822063,19.384194505143984,-0.08080021364223205,0.9244532764965218,-0.3949744032106509,-0.28519383509122503,1.6686001123438854,0.20100667281551865,-0.19452054540797534,0.35560229474933674,-0.2760513894806989,0.3926000306442565,0.13285763411187482,-0.4057705123723736
,-1.0813869388476987,231.8739834809293,-0.35943704959659833,-0.11611440353868184,-0.8326397219189234,0.184472430096123,0.41848492748494753,-0.035539575376137375,-0.459536815453843,0.025071342514144945,0.23860100349429902,0.3031706461255758,-0.2796505232098019,-0.4485716137906209
,-0.4496430722741653,204.5643198210222,-0.3790205702566789,0.10594314924140465,-0.15001073654888225,-0.33266726352452686,0.3592267579308289,0.07339370221724353,-0.16464261713444714,-0.6688377708338169,0.9434776194422102,0.20078455995149916,-0.5042203113976297,-0.13794118115971707
,0.07657779366464168,38.10361911956359,-0.5205393598077822,-0.17864629178326766,0.11686227944420274,-0.204598205478382,-0.16371411698903407,-0.0874188928545817,-0.23295546397952419,-0.6510911460405961,1.1029505313119135,-0.09141083713285296,-0.3529712621420847,0.13455193521007536
,0.025342945966200656,8.938278338667285,-0.3089307514019842,0.3967488412863729,-0.2811825549272616,-0.7027878431014687,0.24534706439204415,-0.4034392137147656,-0.6176591541016393,-0.48114743653576253,0.2568757626192665,0.28680597705255484,0.42143200318073054,-0.03224652296567754
,0.46834348628344075,157.80709598251104,-0.16436595625700756,-0.08165493314663085,0.2904749365875989,-0.34227620723623886,0.3025511764448868,-0.5064959517985039,-0.4633477856932334,-0.0713511366712787,0.014910071162276156,0.061600823731523494,0.46212990052487796,-0.27610498506028697
,-0.5181755842514989,218.80076096135667,-0.09019825016130088,-0.7283531415396908,0.4169976948438016,0.8580018177931863,-0.79787740209286,-0.565388061034088,0.08099979884705762,0.15154653256088874,0.30415658301610454,-0.07598906787739981,-0.2315872467324759,-0.24040003248506403
,-0.957202221930539,52.515063025372214,-0.07762103103524184,-1.2145621959781456,0.24492847884052457,1.0787272691367706,-0.18139669096109173,-0.4262829425603098,-0.030414365976858194,-0.08876319012979816,0.3223723933872143,-0.31722066734893256,-0.22898296028110454,0.21402939225518341
,-0.5774845916103362,9.61783893131774,-0.22829008366247197,-0.9907637990775762,-0.004731115058537787,0.40772452399214515,0.012178351555765929,-0.45755237205695587,0.3325395526284224,-0.017443249952279243,0.1827568599347804,-0.5715962776619522,0.03680998590256662,0.3205892215257463
,-0.19525420486788375,-109.13900539341698,-0.2298241237555393,1.653556234257612,0.4891660266367326,-0.1298765588966325,-0.05974877241082312,-0.11808034770320404,0.27982407756346406,0.09486745486693124,0.4756723043758096,-0.4174311918067204,0.03445550836143225,0.10111713437340171
,0.19786055715277656,249.64845763354762,-0.16582528879576927,0.4179565991495251,-0.027957271065490383,-0.4339699054899187,0.5296470865408902,0.21503959268061967,0.30605642635132385,-0.05110317461147687,0.4315086754291421,0.08626845177735237,-0.2700636374665219,0.4160326742662881
,-0.2351862191851375,280.36351503062804,-0.11517251424065938,-1.2951837582555772,-0.9972442991832315,-0.9218510358987221,-0.11966498526738939,-0.05455872081182777,-0.1957639319408767,0.8229035018497105,-0.5216089575098357,-0.10933668887821577,-0.6520185433959762,0.4756493268058864
,-0.3298923138587574,-64.36120138532868,-0.019274786298064103,-0.4827681931415981,-1.1230331991383733,-1.2042628834555567,-1.436831695247913,-0.13894243474472037,-0.7949787625843048,0.40078481328107635,-1.3199850485709863,0.0017199899077129668,-0.9876884065121626,0.14019626381429878
,0.037055478298307326,-87.4381203921649,0.014766601810903002,2.5964371032985096,-0.042933424071189254,-0.8415743769949162,-0.9852933527431513,0.3666104944123647,-0.28820192702344266,0.2662770515378359,-0.7582379353580287,0.27345518437497857,-0.8965155728919607,-0.15033685584057865
,-0.3077096828636717,-168.2944248488454,-0.0819678523734932,2.7517645481950477,1.0933566039368963,-0.3660726865449497,0.27524192979319756,-0.19807069148544482,-0.29399646402565394,-0.11932303928128332,-0.32250382308417075,0.196936255190227,-0.6555442529289215,-0.3697642720349328
,-0.4044305359641814,-317.7436335069375,0.06126005633359092,-0.05166504104682145,0.26912964808014017,0.5807198875966386,0.490300886219798,-0.5161110947174702,-0.5592276415644976,0.24569214381927842,-0.6578090024178852,0.2889842642614064,-0.5495288463832817,-0.5716927261443161
,0.749109263674437,-63.117527347286064,-0.1998775318337679,-0.9005349226234263,-0.14971069098604478,-0.09383250719221312,1.171627554750763,-0.16542790117220685,-0.18603812204899564,0.23828518644057592,-0.22502380089464863,0.29048273670572244,-0.29507489590513863,-0.20356519356714117
,0.8288806342830094,331.35243534235764,-0.46057134740245786,0.12033815185743264,-0.3334140723010681,-0.42222740946949516,0.6285850827296032,-0.7359069874463776,-0.7828800801341195,0.2599674913134945,-0.046626114862685475,-0.2845150077124362,-0.34277291315343966,-0.06948404310489428
,-0.03517992287593799,244.69561331399933,-0.2835181129042259,0.7106781456657821,0.2825026297325146,0.2760538175440412,0.33334221397189584,-0.13908527199255988,-0.38270044136752307,0.2560870968473271,0.6828084933826871,-0.7199571518001088,-0.3451166198071475,-0.47504973045665694
,0.10920007980632589,-38.32293996644956,-0.05490901191489725,1.0511613111725884,0.5995880318391332,1.224783128441319,0.4670680467177873,0.8050404727302121,-0.2697013758187971,-0.040127686201113504,0.7657324463823175,-0.3981416801942894,-0.04859834678052139,-0.2542179741553278
,0.4429643124492924,324.8982191415737,-0.3282761175877877,2.130882485512118,1.0645666146260353,0.15074158327586196,0.8450714584129566,0.46568151900537175,0.006138282598423748,-0.19045644959224461,-1.755841203984833,-0.16012334785583415,0.05478556564758059,0.2082864928213297
,-0.731896826520207,389.4880238854983,-0.3992772393169636,-0.7882935322542917,0.6420614219658707,-0.719381593872324,0.01999050565489591,-0.11819198168363113,0.09762381193109505,0.3355238166094392,-2.2010732789654432,0.03966539811431246,-0.5612218674164532,0.09067527154352516
,-0.8118710116601539,70.20801097342974,-0.17041216694046368,-0.7798479052638125,0.06146963428047592,0.674475885718509,-0.2790800855358298,-0.4074998545413104,-0.49067343975768996,-0.07204549620850674,-0.7537567310014348,-0.45282657022992967,-0.6951426197098705,-0.49420079452853377
,-0.7628153990697871,-3.5242608111954965,-0.43232697795521097,0.20245055659957592,0.2622337804742526,0.5226152616414077,-0.5714499877648088,-0.5445150145426942,-0.8567837355183494,-0.4979854252604384,-0.1172471587923872,-0.9995027121526809,-0.4230666827040176,-0.9344834174244289
,-0.5430086301186285,41.43750850909422,-0.4034141110537721,1.5009124432790695,0.8494643683267892,0.9070584368133727,-0.5197580647842917,-0.23916248138842966,-0.3371495711619572,-1.1531945421768601,0.2381080602868444,-0.09524420460279608,0.03274452357426244,-0.6425532378643237
,-0.4899195389882715,-134.10870464626686,-0.38749132958305244,2.788981703800397,0.5158202075708025,1.6778795709670358,0.12701675258102824,-0.20665346063176956,-0.34214339480541545,-0.356745735534261,0.34064789778314136,0.5215248277573376,-0.24044564217346484,-0.08945069848774644
,-0.4589614939861572,-21.894038776995963,-0.30218155191634644,2.2733767726103706,0.7557954186092154,1.8585705335021039,0.22351327848421554,-0.05586119529228447,-0.346244448411191,0.16277061994143763,-0.2801705986037694,0.6318110595535555,-0.45233883549634785,0.05399219629105316
,-0.5475823188813859,165.95859917931747,-0.4888760831782317,0.31910771916263214,0.16111123290358717,0.2320821161715098,-0.22932492772709998,-0.591606670290285,-0.6214564473034162,0.5584326522380937,-0.25367657584786135,0.3408614859246436,-0.5539389482040825,-0.05454554195281495
,-0.3537859096637901,363.7640446910795,-0.23362717528512925,-1.206573217049588,-0.1434753381015512,-0.9484180945224564,-0.22610280350092066,0.04459166685183294,-0.006001244018487061,0.6784019444866237,0.10270776214237429,0.20010019711919141,0.00018303912636157343,0.00781510339825749
,-0.5176921712376664,306.46311113990606,0.03439564411796877,-0.35792440345231513,0.01508189231901679,-0.8396785921530918,0.6304822482500986,0.28363896293121915,0.5007788895036628,0.39228749131965696,-0.3473346898594607,0.40870596715992763,-0.19820009380487946,0.3209426507535033
,-0.9947640498552174,218.83147265640224,0.012924261762615123,-0.15804626455908927,0.29311729419069554,0.5885461672054122,-0.4381367544910699,-0.30477377756000196,-0.1580123084359583,1.085947039210855,-0.13502337844539633,0.6668310885601222,-0.13992650528666845,-0.20537973822625338
,-0.37308547333918035,75.24795824479331,-0.04177432041900851,1.6272339258687094,-0.021499888011456286,1.1959425231602059,-0.122048350966218,-0.4109110466653979,-0.09109825459097028,0.6155496997107381,0.10289339634430164,0.9704049013118414,-0.434847168033317,-0.051175987781418554
,0.27428251015046723,-54.1375793591542,-0.13659560827237222,1.6272542660555231,-0.2680834421622287,0.35166492415067124,0.1804425011890825,-0.45029108423309666,0.07928306988572896,0.10973563710751374,0.26428179386437733,-0.06111725818701573,-0.0903240032076955,-0.09192707727166013
,0.07951021629438824,-9.78652157760587,-0.03279865781781212,0.8973015609624699,-0.3270514154183807,-0.6942115805391166,0.4275639309494107,0.1418242471941555,0.10244565251604053,0.2829561944619557,0.4893070426616547,-0.2640163909297505,-0.4222532702889288,0.008963128618010628
,0.3086350585405873,-148.27078634459176,0.24061773217896634,-4.027317137661919,0.21947691408848397,-0.5871627980388668,-0.10650346114063526,0.293412635781208,-0.21966296094850118,-0.019801810674098457,0.2455070258022786,-0.12655600160352123,-0.39122885748981145,0.22877827395979364
,0.3294217040652333,94.46114956776391,0.14305502805788117,-4.944991938712739,0.7026667553773753,-0.8081483804667254,0.5998995312323031,0.2559954904652689,-0.14162479466028438,0.07107464791269018,0.16812397293383838,-0.12587178450646924,0.19544757200626753,0.014314710335865894
D2,0.32230268723044936,298.3482140145927,0.2124544269927992,-1.0070178548616067,0.0766010460225253,-1.2323883718960713,-0.05734031301241569,-0.30070381434275995,-0.3968130390426035,0.48105882747608536,-0.0613194102943198,0.029032344698308957,0.03980065107867763,-0.0235519363226605
,0.28297970773322234,-50.896094445350194,0.34744860478068995,0.004696244431761893,0.5806523428292547,-0.5125140840819857,-1.1334932600266856,-0.38974847573123134,-0.7071272563758755,0.0019517873757276978,-0.2357229775307081,-0.11893238251192095,-0.1383743700678619,0.04619324598904427
,0.2378327549618386,-129.24215871727563,0.24622157861279567,0.304849712003939,0.8315108239542688,-1.1239561360609092,-0.8373767905887153,-0.0439663303045334,0.006974319282527021,0.7746615601277578,-0.48846030558548637,-0.15740369813121177,-0.13286837253682363,0.004881929294206809
,-0.24443349981201865,-41.36360877344578,-0.0022815846675237838,-0.13995031660652493,0.45204299937920256,-2.0696011320126972,0.23030670159801045,0.8008004426812949,1.1240370621671771,1.2408109854182416,-0.09852550501041515,-0.03536217250171087,0.042639685266518595,-0.10824036752133458
,-0.4976598453545945,17.217038548257488,-0.08874062881175371,-0.02956799381582727,-0.49067093399996203,-1.480844723334351,0.10568021304167623,0.4822831477329952,0.32722090545744975,1.4387692236840248,0.22448960736945214,0.026271111858374142,0.05437094739571461,0.06941834972268819
,0.06021987088435782,-215.2471204737474,-0.10852661986495354,0.902743193990385,-0.9098994149996081,-1.0810653546898723,-0.44504336575369796,0.18630578444930893,0.11671854520056332,1.479037821178053,0.18872698940356017,0.0902927237825578,0.0678437578116586,0.4403455500748549
,-0.5427717811849087,52.395755160236035,0.135745904813214,-0.3795455065592974,-0.4949933137340194,-0.48705955219810004,-0.5647065424708645,-0.1751533323734464,0.11135275949793128,0.40915567722460705,0.603809235573952,0.1889446369318915,0.42449391166643136,0.32282734826133846
,-0.5018364421889403,52.95826195398349,0.0015675637111652418,1.1238418379556556,0.07448254592098108,-0.9129896541315348,-0.11477941097775979,-0.1732341209871677,-0.13998945298766885,0.004264741084587765,0.18487665082223032,0.6624396912290641,-0.2888960785138841,0.008925159170832461
,0.18051661298416974,-187.27534404767138,-0.3399606119862102,1.3060166705600271,-0.08038645986740216,-2.395442320968467,0.550886661689345,-0.42183666478135323,-0.5639758554336677,0.5864076851496561,0.08927440753352582,0.847558759196096,-0.8445317666104201,0.12540604687743928
,0.06372980216813169,-223.91830444242535,-0.2405012960339441,-0.4655881049208225,0.13234570787069894,-1.7900721122076118,-0.07006151545043976,-0.1567342857417318,-0.44041107666175405,0.2712406485258912,-0.07378024035018024,0.17768266111736775,-0.867077293910876,0.2585797029074734
,-0.43183702358812454,-204.01610518125923,-0.07375487881627223,-1.8152704845196836,0.22039474968331524,-0.9934689707808302,-0.48919778821731985,-0.0833464170760294,-0.560860867742793,0.19125580516236274,-0.2524778209589217,-0.043957772534211986,-0.3240738304952125,-0.030886379535657284
,-0.4418517789094365,-131.26093278829376,-0.5616068883315802,0.22608543587136254,0.6419773212637214,-1.0527173336988487,-0.20083246308544603,-0.44855125504579396,-0.7829047689366663,0.6706087422578887,-0.9171736487755289,0.09072746966899133,0.13422853536608442,0.1592425234172122
,0.08129337189886986,-147.0065945127963,-0.5063330888227048,1.1822695505889975,0.17241202833840122,-0.6610436317874334,-0.5666994451007444,-0.2699168454508292,-0.731347819142904,1.1843938245589514,-1.2821807095905517,0.9430683624477775,0.17716065480069831,0.22763886121785817
,-0.06980447731504906,292.30009316976486,-0.2928981174011941,0.7014350946240935,0.13288540028943857,-1.1477334247048965,-0.6807757651428762,-0.3188250380861792,-0.3843564523216503,1.1469576299733415,-0.32216345216551684,0.10947061827507733,-0.41325112502949307,-0.2620536466985911
,-0.14199871726713656,261.6887079568681,-0.08155699985485168,0.5006841620967425,0.9951559356172713,-0.998330560274105,-0.07391482081705968,-0.5104259363230832,-0.4392840782371312,1.337482215995464,-0.2000332705335856,-0.27053710952694,-0.3505158189718322,-0.26472883642329925
,-0.3734682038235805,62.04370846226899,0.07150867730121485,2.812366917025867,0.7008957856240812,-1.1308791570074825,-0.8916449608330033,-0.46253641012537866,-0.41588943994498684,1.2551937877024204,-0.22896739067958383,0.33909867315590886,-0.13042440407782854,-0.37386505998644726
,0.06868073978389456,86.96846976003944,-0.08312847652497767,0.9250389337461292,-0.2586946969527575,-1.7076584932273962,-0.12661917760666738,-0.40555966900345347,-0.1563366877226181,0.7576433288911036,0.2103049712447505,0.31176502632132214,-0.6529351522418546,-0.23212135600408892
,0.4054016033107972,99.51884330680333,-0.38074957894012357,0.32026185234159843,-0.08009148340171801,-1.240440718110192,-0.1293379900119437,0.132150534163295,-0.15562186373975118,0.8189317504280208,-1.3434340248646537,0.22360894738411558,-0.3096281776794337,-0.17646258525215933
,0.010778060991974541,56.78299437866592,-0.43689320575255036,1.4270950560589244,-0.12122599709794038,-1.3238981140261221,-0.41778418616577223,0.08294799562918426,0.22320584216586256,0.7185742053125643,-1.423090682209965,0.17462498843608804,0.2722692941295773,-0.44510657587271185
,-0.4171913981181256,253.68843222605153,-0.1618471544602581,0.2211346254567761,0.7360095355400994,-1.3785536531625897,0.4338933761677317,-0.01589363026328846,-0.03874750244122209,0.7964142633600452,0.10051752134158864,0.5147166481362525,0.4185739485743565,-0.02583721632580323
,-0.414562682718417,316.6182336389096,0.11631959765070375,0.23254434981740763,0.8083224295115496,-0.7598434536289211,0.6189917816672198,-0.06329704351864832,0.11008444096829988,0.2814273859122406,0.733469807537148,0.9572149936883907,-0.23853627889070395,0.1514935048020722
,-0.622077299873093,379.612567024424,0.05706359052417763,1.5192968340624842,0.7700691083553166,-0.8420359109293271,-0.5521906180705511,-0.39182934936502883,-0.11665512712090652,0.33565987112787693,-0.08484988621733677,-0.023598797111336035,-0.21918271965114317,-0.11305148484504587
,-0.0036455057950108265,323.7342467435348,-0.06807767370013894,1.4107679162129017,-0.005773811786461208,-1.171226690113661,-0.5612549074199322,-0.4131728233979085,-0.527261068140191,0.3395968421264899,-0.7953106263589265,-0.735523702379879,-0.24217754097480088,0.019109961977891735
,-0.459590477450613,82.60109990476961,0.047483543101066956,0.40322273224589994,-0.9002973707055462,-1.6085538066688996,-1.2707953326657266,-0.7604829977909787,-0.6891224630137467,-0.47884308750762117,-0.37060822472329125,-0.3377065377994724,-0.5772709066549084,-0.21861862751541603
,-0.6020213550240163,132.03363194251313,0.17363139947985515,0.5494863265336484,-1.219614101351527,-1.2070653051520819,-1.0712824292207066,-0.23252528704363007,-0.39198799547840735,-0.6099119795025972,0.3662120817276245,0.43583654818292594,-0.6020345859585957,0.050813175975138396
,-0.3514214253861643,387.47323254757083,0.049022347865148475,-0.5210242876411066,-0.7341164551798073,-1.3603506102354785,0.5957810097426748,0.3430710305125212,-0.18304587130522298,-0.17389322411786373,-0.1700123928703046,0.2985232541171825,-0.3095528238311654,0.3758162405910544
,-0.3696293991715548,438.4797652913659,-0.2704783108774055,-0.03718729413352185,-0.7944914718906886,-0.22186209202847124,-0.12772229225796616,-0.6642149765509034,-0.5937860720114096,0.42218043758180335,-0.7220315020554122,-0.2073018772304801,0.12022220157817728,0.11622614737109772
,0.04883407623363409,152.4401821379493,-0.410338587709555,0.2920297663112846,-0.9852391142898271,-0.8167745695552951,-0.9128157233686964,-0.905012765596604,-0.9724601568394121,0.7698243211977727,-0.47125844599887756,-0.4902585398351102,-0.35175149683987,0.035791957129705974
,-0.104408997083079,-67.21361788913681,-0.27015869551741356,0.21173626677190185,-1.0523176438432094,-0.7004033639396836,-0.16967527688484205,-0.383936608317816,-0.44960412859116494,0.5374690664941593,-0.17427879449700065,-0.7053508026171486,-0.6161076464825753,-0.05933118067763466
,0.1288864635693097,-72.53667013835283,-0.5281399736908996,0.13234002095679748,-0.7273919191371725,0.11940555729263973,0.07422769467647895,-0.4908035880124369,-0.22117534192973087,-0.016221853975258733,0.19421109741120976,-0.2816224653201528,-0.3247217129842549,0.09094778476818982
,0.8454725835635616,94.69839294940704,-0.4727967687588591,-0.48087806016092643,-0.9749502245564091,-1.4451391555463697,-0.4893199335609463,-0.4966207786618459,-0.002602609123693101,0.7647749159381964,0.67249837126799,-0.03997852714861567,0.1267426791700912,-0.06379950063266598
,0.17365628763595492,-12.91429979410581,-0.20829580257652802,0.882490253101047,-0.49245514763922843,-2.820966252137049,-0.4235963354451125,-0.47032583826447993,-0.09912508795262373,1.3700108087372593,0.5894127970663898,0.22920708094728787,-0.072607229098665,-0.2666433991549973
,-1.2752403025014811,148.0111802561959,-0.608610165172866,-0.08820954577829657,-0.9107463205319132,-1.907127282182112,0.07694651949298031,-0.42167709080931826,-0.5305312157860425,0.8538700087478995,-0.5999954116181007,-0.9257795253803786,-0.49436201363888027,-0.5725070787866761
,-1.5906125161904348,288.4436595433248,-0.5466696977701148,0.42367916478966755,-0.7303692698596358,-1.0594632624626665,-0.5301680637566146,-0.23622450876398274,-0.0702291757951613,0.5148282704720052,-0.7920683466706304,-1.0633549696280864,-0.50936433117493,-0.47996737047968274
,0.2269075703332696,182.6672349750635,0.001261505091797054,0.8364813464686052,-0.47168454175815283,-0.47367579585537706,-0.435818680820506,0.26154455566318113,0.06676802207387317,0.8292025259186664,-0.7664081252139654,0.02129842834555463,0.14045229965482245,-0.17288414732213886
,0.11314166523456184,391.8561615164959,-0.00874914130765429,0.5623379032417082,0.5504374355160291,-0.6923794405919081,-0.3486900144416924,0.19190997515828645,-0.3466299651460859,0.9816246240467743,-0.9582396723775699,-0.07446653403417934,0.18288008474630132,-0.21122663781688067
,0.08543468998759213,114.87214351484866,0.22494391316208084,1.5471541326786065,0.4071239365926724,-1.636447243989267,-0.42190236112636925,-0.4492843959431175,-0.8042153182127258,0.8261401616793738,-0.06393337185595291,-0.032219279146337376,-0.24537645289875884,-0.1363056655422799
,0.045892306369506426,42.779242524178194,-0.32709495083769957,1.0884676057107132,0.3240425384786518,-1.2173537252518403,-0.41971208874338084,-0.4043677609060343,-0.6550615120441862,0.27229509005746466,0.4852649956871257,-0.2789420406471891,0.08379210508687711,-0.07192673617320605
,0.02065493413751041,16.321068771787882,-0.5908695572876446,1.9729271030359445,0.6244206095489542,1.3196938874724329,-0.6601187973418295,0.05205099549744848,0.012704816333105776,0.394118985179237,0.0087947243411567,-0.1153095393648146,0.055082976675384664,-0.2824513360737173
,-0.3209907572522621,84.63633771227659,-0.38189137923483085,2.838320069399859,-0.4011905161198543,-0.16404121623203186,-0.4944453041814166,0.1137844957961085,0.10442165148279481,0.45084635589372585,0.4012896420716222,0.008781449252209689,0.541603988181729,-0.3442821499016657
,0.7683995512555313,58.483364600287096,-0.12839709207885724,1.2332558332082582,-0.40818351054706203,-1.7774840484049663,-0.10781990244344275,0.35221448981509706,0.1880687970747192,0.2744284234316373,1.1103339072258664,0.05787680435325934,0.13211118571884276,-0.24228400518335133
,-0.09708763789758151,-156.40777626800093,0.16843895590259927,-0.4607632426094048,0.45453379641493385,-0.9089299492118363,-0.18732584648082826,0.24275041015461515,0.09325846495720738,-0.038981376343289374,0.9805423698341995,0.07727455865848969,-0.7514329739503849,-0.24427280038777063
,-0.22099889763273817,-75.11005261776036,0.2595338626874209,-0.5651315697437019,0.5657707950785286,-0.32622979867195195,-0.5299779014636001,-0.00784892001576551,0.258824378354688,-0.5447704011501674,0.24337711632526934,0.09543738684670869,-0.15406816776057558,-0.07169797289986743
,-0.22947515729521023,168.80076087997423,0.23050284257258447,1.3374514617607147,-0.05730184384156786,-0.7927154922733168,0.4625731901987833,0.4092282749315414,0.07417914267211752,0.05646830076648914,0.4420663337031772,-0.048998915007888444,-0.1412328439542915,0.09482925983188738
,0.01113613951842405,37.728500162774026,0.06032093670378878,2.0328069661255967,0.7145800899190472,-0.6751127755692706,0.7862965999277925,0.3210690437316913,0.4473407543689336,0.05316146971860836,0.26825204242749817,-0.2185542446647785,0.16942057016335552,-0.10328187211276199
,-0.1536823280244695,-73.83418513127464,-0.057892588657074855,2.0269999955849087,-0.12755598904719068,-1.1251405424092336,0.15863851655121314,0.2381888020892029,0.4243280983621116,0.12000789938156681,-0.4363132189421622,-0.41388867240588356,0.6026595283357654,-0.012337456966119561
,-0.11835587189473976,-139.55671853655974,-0.4800891334935138,2.2494945559785164,-0.533951149500899,-1.6349254401580695,-0.47422339664184676,0.45278709105025117,0.019838796047914015,-0.2101584416489257,-0.11112290599936196,-0.35371051938879594,0.7998591681991194,-0.24509429699169744
,0.2668815002384163,-270.1618878021572,-0.5788579466212336,0.9417341035102342,-0.8180067576818761,-1.435465395209438,-1.1058204875480653,0.2777029644227634,-0.0800397024080728,0.31697464822327664,0.11248577396616725,-0.3614861370587607,0.2563553083140351,-0.295400839074755
,0.09145571500198828,-98.54174432752083,-0.2213907897556919,0.7140069520870588,0.16298614260182956,-1.1846516962290643,-0.7783999966674018,-0.10434581115262549,-0.4306254684780098,0.2854463565324359,-0.21081637535131087,-0.10304393206374278,-0.18059893048594902,-0.30541377649913526
,0.03419214644649368,129.30866399624972,-0.018392929023879765,1.091842412249701,0.009791689881234522,-1.262546599803078,-0.41856874205585703,-0.10843857084892873,-0.6745069218388636,0.4266561429043162,-0.662240793333749,-0.16675670433610384,0.3185400254432909,-0.12733668427669692
,0.3820394208212653,105.25325844411961,-0.24628339203293528,0.4702734014851024,-0.7919614125165301,-0.6345800799749496,-0.7166374334860179,0.024088704879743142,-1.023805544515567,0.528728406122881,-0.6937610550916213,-0.22504064208065847,0.469285562610874,-0.06511193167160385
,-0.023730810400299868,113.2667322947154,-0.4903964149260628,0.8798340297605347,-0.47338165035176366,-0.5937391801513089,-0.4537388834033443,-0.07839851245846599,-0.5866892899062996,0.13028020026889783,0.09305001567359295,0.05410577421086105,-0.04233573830159272,-0.12883997832873514
,0.30889146169779713,212.4043409163181,-0.1779551115301813,1.0907296934427855,-0.1948726701728443,0.03300475756696033,-0.19414324145439305,0.1517567236815198,0.07360770889665157,0.1131580169611039,-0.2814537037069306,-0.05993934335817161,-0.2889068192730008,-0.1316383696311959
,0.31105023962198347,221.74328788880158,0.0033945187755012526,-0.9344605093913921,-0.8562580347283796,-0.4927143536919832,0.7639860514401964,0.22870488944291864,-0.39377247601887494,0.8770484267360771,-0.08639160847609542,-0.003912934217407808,-0.050357312376028196,0.002905172379085599
,-0.8418522221218911,87.30236648337774,-0.35519270134679176,-1.6966587570524643,-1.1982429600214057,-1.2484006067287614,0.32432471910759947,-0.01395609004550379,-0.22341107274138908,1.5461882462442755,-0.3454995586946352,-0.3669979611584039,-0.07920199641084588,0.03391068486451884
,-0.7937392081722857,10.947980010315181,-0.25791265238889277,-1.3345727557121165,-0.7019253560551478,-0.6402120194203418,0.550080168038604,0.2557691249118056,0.16878515590561563,1.0717601132505954,-0.06015116597656939,-0.2739101590329383,-0.1386780126793687,0.11608467217670096
,-0.5924263093995046,305.7198134575898,-0.3970218769833326,-1.5354641841855399,-0.7196141765085821,-1.3334392448821548,1.3577168922293157,0.4728798401339931,0.28415478406783834,1.1223701157455983,-0.15580379138811562,-0.3872713681691126,-0.32325387109079645,0.10041079934590932
,-0.1255871624961742,-20.254910193681134,-0.31268075272695756,0.8600484711060462,-0.456377092998412,-1.0427710027447725,0.28190917814073924,0.48503599090418537,0.04531985293128406,0.672066200219268,0.1558864593146941,-0.4482214551167614,-0.24533000890824522,0.1305659828906308
,0.5427602028121369,-26.621443746358874,-0.11391491923342217,1.4879304154333435,-0.16892155990459695,-0.8711711772117048,0.1275003832280885,0.12681716507859933,-0.03346402517026175,-0.025344064392487674,0.17207254628243582,0.10685648256081957,0.05669988477873629,0.08785393302256567
,0.33414685939469907,122.23658658166855,-0.45448529153495104,0.6076570930058235,0.41652230438571497,-0.05614312979729636,-0.4383999833615013,-0.47777410042344753,-0.5931344600009353,0.31591474805916114,-0.379657683385025,0.4758992104161243,-0.25935364013919116,0.2167814810867825
,-0.1247105252869613,40.46464494860628,-0.5331747297873202,-1.199919898879336,0.6596064203990263,0.24211845677561195,-0.10543902141953039,-0.29857469912160056,-0.5061564796498386,0.7561810877985201,-0.2722341077437451,0.3968930945848598,-0.5603877094229598,-0.26299115679117585
,0.2990909407028831,391.7601627421227,-0.3779119360285769,-1.2088526525745185,0.23159471899362297,-0.26610168475962154,0.5353592715722104,-0.021534593582625414,-0.46078789906683437,0.7927356498714573,-0.25229804419058477,-0.13777621688398844,-0.19785861004626124,-0.2971349611960704
,-0.10927969384780103,341.0526859342131,-0.10038127574626639,0.6070928061444395,-0.0816470125072035,-0.49978035247616553,0.1457385353995379,-0.22753238400344486,-0.5928046320726239,0.5285494502547475,-0.39379778452686226,0.39503407435391297,-0.1881043993660373,-0.49727467903947203
,0.08351629022432122,107.96998869910993,0.20121422431015748,0.8844061231483586,-0.20931358527352725,0.044737669441385575,-0.36149206942524326,-0.4627618934080933,-0.6621206759589622,-0.539529527796777,0.12347779814442547,0.5091963999536335,0.14024517021532312,-0.43762553983033287
,0.5391988110578707,-86.10722334636826,-0.08327066305443263,0.5703249108943316,-0.30414294746627873,0.1616858506070717,-1.489254877870913,-0.5552522687816333,-0.9185169414969092,0.04371822343151026,-0.020410560837673033,0.3190398011596989,-0.03368686937858152,-0.4474012310144103
,0.6081279974974758,-25.577612835892012,-0.30731904771336926,-0.032540780679580494,0.9103775718965049,0.4020295551862577,-0.6349050111233486,0.3632557000468159,-0.48867155115203126,0.5176417263574554,-0.030741907874386035,0.10118609838019703,-0.5004570371455045,-0.38385253515470213
,0.004807125255925147,202.4550778439688,-0.29474183957878636,1.4556766949699576,0.8453664629452298,0.35423422235333607,0.2926676871219001,0.28535086655039615,-0.15596787759856787,1.1579729659970128,-0.10990616428546733,-0.11606384762765061,-0.686178732336195,-0.0719557037238924
