event,eeg.af3,eeg.f7,eeg.f3,eeg.fc5,eeg.t7,eeg.p7,eeg.o1,eeg.o2,eeg.p8,eeg.t8,eeg.fc6,eeg.f4,eeg.f8,eeg.af4
,0.46853600157255576,-1.0322618189200448,0.015454907605566842,21.193251692567024,3.319414602054914,-2.0608496968677477,-0.31575023017553644,-0.13016337280700266,-0.2286279948158235,0.7560733359412743,0.5376007263325961,-0.1324420179777273,1.120723768267959,0.5534093387477235
,0.8197448920013994,-1.29239587869806,-0.029143694229817895,17.897763323655273,1.751367978527026,-1.127926829072178,-0.17534429694323916,-0.16206924229964645,-0.557790881052218,1.1705257147713375,0.4327505742877718,0.18576266211582285,1.131891839470848,0.45822310498575763
,1.9887237131769813,-2.1509458247893813,0.2563206548679555,33.710404196647424,0.5292056091981059,-1.0752745528704661,-0.3247668133095715,0.4126012838964082,-0.21697774942530698,0.7379887590497803,0.6023790210563671,0.5761164746145843,1.1393123116780588,0.7932214174753187
,0.5980756567576473,-1.3132834311165347,0.1798110216376696,28.355213166558453,0.30350553887678805,-2.5131469480728494,0.12138763871041695,0.40409998327850427,0.5238257667995663,1.1903569598238621,0.822357196968241,0.14786788422532599,0.6407609606556656,0.1815929740157843
,0.7148308554370081,-2.13485539998804,-0.27211799047320034,11.928437389389224,0.17470065600693568,-2.9782903604528874,-0.6431704399134438,-0.12285532775639645,0.5924995432469806,1.0373446635353172,-0.1653079447355356,-0.45530005859876965,-0.2036162438471008,-0.23167846573841638
,1.1720819735360848,-1.4056103684774255,-0.09253516854022402,9.471194094136683,0.5501342624944329,-1.9582783432703037,-0.8741495870920579,0.10710368795266507,-0.4022629056048179,0.3236615503602944,-0.08172174566154902,-0.34012582581651923,-0.12071575459090444,-0.26279232757441623
,0.868179848835018,-1.1349926948405575,-0.36605327720516867,15.065757442219176,-0.5177611602477462,-2.3203703922507564,-0.9779403492931086,0.18618002841257308,-0.434511924825512,0.45429625661179435,0.13374258084039495,-0.2054587511575507,0.09114505559578132,-0.10451365535345729
,0.4757411456072063,-0.7870072578337246,-0.8631463609320589,9.047356293210058,0.0769509328040931,-2.4955230379544777,0.09688299759012917,-0.05520905910828808,-0.4390663103507224,0.4502222616191378,-0.0016422058804575182,-0.39091371049654977,-0.3971033587004235,0.2726279871906773
,1.313493437627241,0.11424014420334865,-0.4303914818052292,10.934888592212356,2.6469692815809602,-1.4116823876552127,1.24507753193898,0.3755314750343293,-0.4189065689724969,0.2834260473344712,0.4416060868273136,-0.5157122595738719,0.13793159544314545,0.42287911724107713
,1.012582563978656,-1.021577019644654,-0.3248261019942621,14.504224361098284,1.7118472037287646,-0.5866155185280544,0.58697392080009,0.1761741699915908,-0.8419328776302989,0.2447237972743971,-0.12079836196759669,-0.14983318411981797,-0.08398896903018283,-0.21995658170648025
,0.418014441289622,-2.2215018399314874,-0.08296114355477635,9.313294110565497,1.1538223965332914,-1.5075946501557205,-0.23748105061595057,0.6857968380051134,-0.33380816307168587,0.12434275194206298,0.06262335232761088,-0.2457341616651961,0.15622371521703476,-0.9235432946935764
,0.7957785308029484,-2.2999316800668885,0.08666629637060597,11.576772980600019,0.6271757023193394,-1.8561974141033375,0.1427222273558037,1.1632731571494206,-0.3180002157407871,0.22065071084571772,0.1346250168643607,-0.18041764481314077,-0.12160740124354873,-0.5679783296308293
,1.2250325756560574,-0.8968380518126305,0.26532921502007545,19.949997163104264,1.6721594513858409,-0.5305054209306742,-0.843326654965187,0.3057403365953001,-0.06772701219681503,0.47260641286413496,0.18555544389915402,-0.1716807004559882,0.15414006165079858,0.2653931201806711
,1.6836531830333061,0.42089701869276863,0.42063126287312913,26.682251781006784,1.6370622811176783,-0.23412536783364188,-0.18885129288805938,0.42980863814735837,-0.19204688153198923,0.7555593876666225,0.6392528888701626,0.10356876762855072,0.6729760014919846,-0.12700127469792408
,1.9147903668749422,0.18778412388218702,0.22028797473415498,12.939264167972354,0.9835008574607852,-1.2817451268320104,1.210773178109338,0.3284333039982079,0.11618686752678721,0.8957496041063532,0.6482182286999972,0.39212334861879855,1.387335802154608,-1.269153309391515
,0.5090189506456201,0.35484900650580536,0.1881699106548609,13.610812119421148,1.3665795883192462,-2.088003060466948,0.7172100381079124,-0.341443255563117,0.20535433933926822,0.8078082067977027,0.13758820508752276,0.4432347985523883,1.9532238905492225,-1.3234922818888344
,0.4324768751296404,-0.5885569728529535,0.23365480914894698,23.44440438453432,1.6439911345650828,-0.6973851496583247,-0.13066690795163796,0.04325461018696517,-0.049270342766844735,0.6881098127918663,-0.1484218279065004,0.09909171433527371,1.2169425522598798,-0.1673533009319575
,1.635627726155577,-0.9276377611927564,-0.16804809057189277,15.573684023206612,1.6367442362380595,-0.2825569639864419,0.2790334108211524,0.32914838335571567,0.0347255731896322,0.7679523042847012,-0.03137558925695488,-0.40196132074303065,0.22446462918074658,-0.19536061266251736
,0.56784834558791,0.3025287770665892,-0.2409482372378279,5.346376717531709,0.8717935013726122,-1.2739065803707685,-0.24299254188660332,0.3379478911927974,0.012028168969368279,0.869412527374564,0.21385093339557237,-0.3054851971961038,0.06212319828120686,-0.27542039360170645
,-0.11244293572470275,-0.4931108577489039,-0.49379928023123476,9.361242832394705,0.13555372392906667,-2.2908745446512513,-0.5293190961596965,0.47509172396702076,0.08944913573068071,1.133342988440839,0.03613256222045949,0.0067553161568146836,-0.24286516501607502,-0.2876747168056372
,-0.7925905624284244,-0.005219116884663341,-0.38549342886860644,5.436115058851632,0.32459282992671024,-2.02087102345785,-0.3864624507293223,0.24684329288590517,0.31024037228953805,0.8542559819883289,0.13956413650552743,0.2206243470760675,-0.0030678038176441148,0.1711188443014639
,-0.05479316029075282,-0.44643465408361604,0.0804230128514605,0.7332669794746581,2.0535710574434907,-1.286795078265994,0.47948008942047127,0.00213113158125196,0.17875852786349875,0.2192326959825645,-0.09636569621378203,0.009885614063949793,0.012532372433740446,0.4175316439514822
,1.0147205342719459,-1.1325933574747142,-0.007704596356808914,2.4010559721529794,1.620412389913547,-1.0105123159575642,-0.39607117513485296,-0.35485167872669976,0.4343791669217123,0.11674573857193446,-0.08966789791855448,0.2453715069807172,-0.3671419499726623,0.195614759371089
,0.657654718737115,-1.1222321232674468,-0.7996024024914208,15.006795217860576,2.217790056786792,-1.3752319372312969,-1.025252601550098,-0.3212148230038195,0.42840515114014605,0.36015717232605077,-0.5732721541087625,-0.0946069778300868,-0.035883535871815704,0.26480300281438957
,1.007997331513496,-0.5995137150800404,-0.8969399803712365,7.9664721218305035,0.5245254333322532,-0.48263841229097565,0.1283428193864562,-0.15642892285525917,0.34495207396928723,-0.0530626851904671,-0.475902421253927,-0.028971900671102134,0.2054340208046891,0.06311825128848943
,0.9315775518978365,-1.026037414883988,-0.3444748144568755,8.485667780286787,-0.8627974526518102,-1.5674874649529902,-0.26245108917084076,-0.42855584514192946,-0.0030386684880538465,0.3308712854799408,-0.19215736984157245,-0.2329745051397724,0.15433552166499223,-0.24232337998855497
,-0.06631621641570402,-1.170218367439345,0.02421971408494131,11.720958800942585,-0.4629743221653588,-2.3039245792993337,0.536934838986479,0.012411529520765265,0.05696682287891899,0.6582974424735385,1.0484666762826236,-0.7634812065828154,0.6677250203621655,-0.3455859817023058
,0.19063797331996551,-2.1927858239210165,0.1856936017957147,4.601284679506395,0.2225753328950799,-1.8697370327502556,0.6515178561642271,0.5258482797169008,0.27785438075206037,0.446499234557,-0.2667260742446396,-0.3761912054129661,0.010868775275258617,-0.058982717532754754
,0.32490038782505554,-0.6794255560842016,0.1253706486712985,-3.7352623222790626,-0.8656730479909253,-2.153521916404953,0.20599676512780196,0.1803768485099594,-0.21909829997579822,0.5610590293250846,-0.681269786139161,-0.020891836574693668,-1.0719415164502712,-0.546021682608339
,-0.3655130651546507,0.8264620970630668,0.0016197660494484,-1.9425335162820438,-0.7846183246317363,-1.2023024029855232,0.6608520085865638,0.2216100811216119,-0.5313417099749618,0.5790525110920913,0.025404019313781553,-0.08455050054963661,-0.6161806913616933,-0.7027468933731673
,0.7321509147705995,-0.2919483370109311,-0.08253933387256342,7.272113834127055,-1.3725100012767748,-2.0003300623410105,1.2359591101702188,0.062060825610893953,-0.8423981832941124,1.2528935248042576,-0.35955772247906237,-0.06950123069989964,-0.023721449313271453,-0.10491089632037015
,0.23362354228553142,-1.180740784509679,-0.3211408278840214,8.338705425032297,-0.058206018197570174,-1.64461676649348,1.154706446438128,-0.6616476429040493,-1.3001919346324478,1.4192331780535425,-1.700628839348577,0.16117566107215567,-0.3057631827097304,0.046682961744463194
,0.0937670345070371,-0.6211376038414183,-0.5650266989135239,5.455764327169258,0.4896449943392775,-1.063611719892063,0.1393473036171796,-0.27266585668130555,-1.2640726166364464,0.9965314147252665,-1.1072706579310168,-0.19121682077107163,-0.7101762190333132,-0.14323213390700232
,0.7428360289482638,-0.8494185861620629,-0.3733891921299842,4.393651165662515,-0.0756629639569489,-0.45483671347862503,-0.484417725175627,0.19216242392006788,-0.8829393088455402,0.60032710909272,-0.19773062823755508,-0.3542839834813836,-0.49037576257759447,-0.28547827081280347
,1.1355770817186084,0.7950930857259576,-0.3116968273430174,-2.0736783800375864,-1.50129353297906,-0.6133957050238098,-0.42375045524053034,0.02435713869028012,0.1780312749593927,1.2158282041688266,-0.37026983953118425,-0.4207988554813157,-0.09627314406242225,-0.31945414800481303
,0.7016221226773379,1.4604649662106586,-0.4292795002589425,2.002374702576669,-1.1631123774308394,-1.3854425082987425,0.4115563744082244,-0.11172194794826859,-0.006453237303293531,1.5509095791611034,-0.09360929818573421,-0.2418816880218596,0.07277434210701361,-0.6023536693081936
,-0.1003607584886946,-0.11159014179680632,-0.42885533943370346,0.8373046211307144,-0.7184567621484176,-0.7032024564626873,1.7568696220140256,-0.106339380638187,-0.1645589670847039,1.0292662123052139,-0.04049151334594237,0.1791235368717787,0.42773970258442745,-0.9524945747204899
,0.11633319694212042,-0.8215709496041853,0.05225243074859934,-4.626764763621405,0.8083103534929911,-1.412772133870241,1.0970297198573895,0.13258960970307046,0.1799693002761707,0.24568155381934179,0.41799808242134945,-0.3459009890948744,0.9922284010294524,-0.7949440178289453
,-0.05168784470362459,-0.5102852174204667,-0.06341181282510809,-0.42887676208742914,1.05472157977093,-2.386510412045335,0.14782506251704985,0.42009921983443305,0.3081797890206532,0.7982457539969015,1.0327713050853027,-0.7763206437857054,0.4658413491020231,-0.2261869808574474
,0.1627066883333114,0.7767459759212959,-0.22428084053513653,4.38364661477797,1.1043421722633024,-2.050713974739966,-0.6932930930604135,-0.11283878689121139,-0.14178689490397603,0.7411731210251847,0.7839949602211512,-0.5574271532996579,0.36987302948870987,-0.29678304831069746
,0.7397326001099694,1.3408308893128793,-0.09533532487977668,0.9778203777135311,-0.11544621247669089,-1.7643578304028882,-0.45062682104259355,-0.432890716735389,-0.8157940313453099,0.4425262482473043,0.27190998400651223,0.28438512235182245,0.7558567774518843,-0.39194444397447037
,0.3956463240852383,0.2929195606699438,0.0639937927052997,11.252611291553645,0.40013908651012015,-2.3288330792267415,-0.5270244475439243,0.10763901917711649,-0.7057048049844759,-0.2676650845584194,0.2515118253069813,0.08223502313082273,0.5866196076417761,-0.6484446699796239
,0.7026099565551731,0.7606306056125023,-0.5695452725669901,13.400733775917978,0.3925613091236183,-1.1775685275439003,-0.14133639187654107,0.463266758989497,-0.4178782502126196,0.2452596507286338,0.2765408504587231,-0.2383702910083322,-0.6891917322074764,-1.1471096410408417
,0.8275845138726237,-0.17432863412466673,-0.7106917286084297,-11.219243874679774,-0.8688794419027974,-0.47650926170894914,-0.46924974323535895,0.25877757751856867,-1.0154285877470388,1.0400365959783502,-0.034369638762631924,-0.7440002510410783,-0.6939456209111565,-0.8065967124016449
,1.0433327238178605,-1.5720858674347966,-0.4432743409745929,-7.821941200903347,-0.6012706182487898,-0.40581329079612244,-0.7726516451928181,-0.3443326684848569,-0.795057496659515,0.5593763477533834,0.15005943539367927,-0.7899430038057297,0.0623332152344956,-0.3435523597910723
,1.4278555638345092,-2.0587622310690015,-0.26211731707864033,2.633813921140027,0.32542708756614375,-1.3902329862070464,-1.0391856027169042,-0.7132935593044303,-0.868962894411025,0.07601127314121955,0.021258306365855306,-0.3211140253035433,0.46312789369893337,-0.1125260071762817
,1.1861498144452174,-1.2268221151941285,-0.3897282607842964,13.730070775745318,-0.11209607960655256,-2.0304372093529537,-0.7014488382204314,-0.369662021239593,-0.3381195404579448,0.5856318570563402,0.06370987561163013,0.24724895276627973,0.7743248188732915,-0.09548964467937537
,0.3391198814024634,-1.1900486378288873,-0.4634557619173624,17.63074911845629,0.32201191021901654,-1.9387685812451654,0.03619713737027768,-0.4560233249209762,-0.634338603390528,0.6003728970117368,0.5703282624039459,-0.026742237253981973,1.1633378819139852,-0.38117087273659883
,-0.05171965620585267,-1.132567294141796,-0.44396075467214857,-2.26277940418827,0.9588662339161803,-1.3685305535541972,-0.2240836150591241,-0.7265481269571715,-0.9529334796776565,0.6576706603395259,0.045683428485017906,-0.38180928873872805,0.8339637068070987,-0.398031541969622
,-0.37378545241838457,0.6221893439050898,-0.33498195064002234,-9.202112962958424,0.33658890401848884,-0.6816732562811032,-0.5388558442006239,-0.752296561442218,-0.7524584400911588,0.974949111961323,0.20822214828804794,-0.3667821080121573,0.5245506202788345,-0.007402586967669036
,-0.17776540845229286,1.2665002663594358,0.10928372594036333,6.761109192450022,-0.3901515460849635,-1.8403403956331181,-0.73585616685764,-0.7373834343497778,-0.6440146654108025,0.4491654706112612,-0.4745480972875305,-0.14842942691997832,-0.1449464546166488,-0.3856255854429604
,0.23138558115726934,0.07122186954379542,0.04453445487261867,13.896875648513918,-0.5238836666459423,-2.037792057876291,-0.8556355492905565,-0.2823298593704504,-0.35595202579266894,0.8492448290637347,-1.3668631843685441,0.41238755952614053,0.006582386346049904,-0.22368209819300547
,-0.5073372708590501,-1.5159451509208863,-0.35584760471879184,8.041542977484221,0.22188281159146953,-1.1027175723531455,-0.6903138013371375,0.04724010822784278,-0.6384621232430716,0.8437470974487024,-1.4020132184771406,0.24680971902098298,0.512182046256134,-0.44255958615495966
,-0.370872905267036,-1.7178664034834443,-0.26011568660489676,-6.109337149690372,-0.30409222839794187,-1.0484674147444848,-0.4456321881507603,-0.05145291741240975,-0.4808882997199355,0.5815939815840772,-0.8229932070015268,0.6589175017489035,0.6453771864438064,-0.3391093633922483
,0.34803805525308984,-2.642667620114281,0.34711015324607913,0.37585704311242407,-0.0300648553423068,-0.8605913874526503,0.7917026697744008,-0.03009158022596835,-0.1544425316232574,-0.3253573559939537,0.08979542717831783,0.6320627920886265,0.4776152512722645,0.3468293564314997
,0.62589090447498,-1.0545509836749847,0.11614803422995519,1.685408694564819,-0.5261790731005204,-1.6426544418321327,0.2031209572678696,-0.0707530788358343,0.004898794376747022,-0.14642845296057627,-0.23774727105415633,0.19970505738048594,-0.19336025766850834,-0.09641749430037343
,0.45328708059024,-0.05919406991725048,-0.19999032350645607,0.31490899021970464,-1.2636172559615777,-2.3168377290556874,-0.02001721593932288,0.3454158969905117,-0.5148038871739721,0.21792682499517696,-0.4130065749935129,-0.1589936463283032,-0.19505668587563926,-0.43313020894618226
,-0.4497959973600938,1.7739267860219412,-0.5398688001983393,-1.7333320377934258,-1.825682606710055,-0.8413753014250417,-0.14929252192494283,0.2902649846164582,-0.9787363907047508,-0.1745189866268321,-0.9338536606728903,-0.6130889912346528,-0.42414526999365376,-0.5367945837041532
,-0.477643528743039,0.9637106158676928,-0.5690804886425902,-2.6039651035249647,-2.1573089727986168,-1.626579822764434,0.29563302470590047,0.2715066780531114,-0.7080926485030209,0.4437924644005407,-1.1927731262118255,-1.02502796691929,0.2478298023934872,-0.3800477037710829
,-0.6522888654219464,-1.2238201955982626,-0.2044007386959841,-4.857245503020934,-2.10470953306097,-1.4034407630849661,-0.36560377432918867,0.1511292557317481,-0.5061604754029129,0.6310752126161414,-0.77388757611739,-0.7161960530651046,-0.012757880642885463,-0.30393955246283266
,0.3385762177662808,-0.16377894582805366,-0.33043761256074083,1.6474786940920714,0.2860469636323723,0.22460164929993073,-1.0136270074809857,0.276750337245003,-0.2186902984668952,0.1082808649245585,-1.0899455521966999,-0.3673451196666225,-0.37996563545206974,-0.38293273573477526
,0.6870311822473961,-0.5189040751141297,-0.7058028307291392,1.7679159502286177,0.7614058798173486,-0.3006479860851836,-0.3399599561372432,-0.14523349296233873,-0.6456179476738759,0.19271340784424745,-0.9320574714886426,-0.2120589085290116,-0.5384418493929312,-0.03289710268201066
,0.11176047209570435,0.6577591566607857,-0.6115465513413876,0.6939432409769908,-1.5692897116708024,-1.0431828455789887,0.21551323132858582,-0.1218284889630268,-0.7357736688719982,0.4035789550398255,-1.031465754946387,-0.18235823232114734,-0.6417738367150424,-0.21788933741672048
,0.2029227039109076,1.38796808378833,-0.3875670527340231,-0.7971583123512462,-2.2091840727452583,-1.1928590378964286,-0.36962056971656293,0.5891751347418541,0.18658710523065583,0.3146395700787878,-0.7471013784902315,-0.1046671014507084,0.19748434375034304,-0.35002798654247647
,0.5515964628808232,-1.0228784437654321,-0.5681412533948532,15.75174098863639,-0.6150078326743706,-1.6438492787216636,0.509521820975213,0.016964405063062234,0.36669743867440546,0.4568248352115987,-0.2375402204759249,0.07294254565244801,0.4135656487745659,-0.3933575314437934
,-0.06997086360838359,-0.2211865313633754,-0.616777495184492,23.310276365688942,0.9933317667134591,-1.4629949039160053,2.222026308726775,-0.4977212434498608,-0.3561243556117674,0.6324785815794699,0.020147154948368533,0.25130573042892934,0.42685192054770343,-0.2229215276844206
,-0.6806614034188851,-0.890779653216304,-0.49380349983823524,6.552645040544441,0.4082374493405188,-0.9138673523146088,0.6162956141342585,-0.12660903957228714,-0.4151766285041586,0.3329308045029001,-0.3464968194963049,0.06352231959251443,0.13949144777184475,-0.30380900910124053
,-0.6079426621844,-0.3389834644341058,-0.3293440178704707,10.94741238078475,0.6616596374696779,-1.8041269695073392,-0.004982676750895086,0.3424663880705094,-0.46993169988975353,0.64244013711225,0.19433233947205453,0.06215754836557685,0.23123474890856677,-0.13366383962370865
,0.24295564514074972,-0.503507484711577,-0.6599328979821454,9.23297581742268,0.36291896597879414,-2.1262892769874746,-0.3962475444516003,0.004732600957906529,-0.8122401445136339,0.5897008111371411,-0.8082660109058338,0.09861524469492047,0.42551976713258655,-0.36492710307469567
,0.1898112962060869,-2.840293474254274,-0.7140829449749623,-7.1740790963893,-1.081482123114479,-2.3443574700530787,-0.42777368864482673,-0.17758341965481172,-0.09996930616671111,0.7058683407038204,-0.4683289307815935,-0.270179544410979,-0.07109973617069748,-0.3254924664564882
,-0.48026905792739744,-3.2837844353223193,-0.17959479914074072,-5.961245390568497,-0.1284310296512668,-2.0716703005920936,-0.150565179990236,-0.5877064857373233,-0.1641704762807446,0.008047087798736849,0.23329718986969816,-0.43682176801948663,-1.622995037501936,0.0012968914409394816
,-0.21680084442623634,-3.9002700027638206,-0.2942595876037013,-6.765563670702665,1.170426736945639,-1.7812273581321063,0.012639114571435293,-0.46482511981662217,-0.23199549637506028,0.1617608937730612,0.052735390613185835,-0.2220823419275421,-1.9690542068991357,0.014351276214099526
,0.6601584027880466,-3.0774293985501933,-0.5598401249170397,0.42411858672479436,0.5297066639248913,-1.5238853844653573,0.5577722386451954,0.2167523259542073,0.12860957706887077,0.8372701941788423,0.23154503183955144,-0.11704921527388418,-0.5615152752872293,0.06715831283751808
,0.5913079145725596,-0.46535007473559326,-0.3206150713885052,2.9148140011077754,0.25623606263525595,-1.8585430737609887,0.14386793211662702,-0.1284946930343586,-0.44147742881990715,0.22756485560977022,0.34176420653823353,-0.08087782799870183,0.20218803528517446,0.0017902412138444815
,-0.5058942938179989,0.3289894101910937,-0.1775603661176698,-4.646568008784001,-1.3747180071372005,-1.7834089703195133,-0.8001383804252042,-0.6266204230509886,-1.0366522190367045,0.40959092820816484,-0.07203534697072152,-0.4022535686339655,1.387880399091312,-0.3176086253202208
,-0.33517759818393333,-1.0071481141404883,-0.6438890926345657,-1.308340100562941,-0.6682860062865552,-1.8397338328386337,-0.8505558464068181,-0.36047891693042894,-0.40234229287335294,0.18141845826953923,-0.12826719991323043,-0.3799707055112141,0.7143969462635456,-0.5964385276436327
,-0.4032074282607061,-0.7648178578030336,-0.5913236711835049,2.7446974697804483,1.981764679334883,-1.2869459377894834,-0.7128175674760153,-0.5208830303247505,-0.18599900219064736,0.46653597368926936,0.09312373528228424,-0.36227602438412676,-0.20571545983906692,-0.5339415982798059
,-0.10005113814387984,0.5806201573633161,-0.7658539455513244,4.181520287444599,0.3378589459964237,-0.6488242708388845,0.10471193091787301,-0.5400362876459541,0.5837103076180528,0.438568653588832,0.05765797891538643,-0.22779110172911854,0.037490065081937446,-0.3344302470418904
,0.34058342443960343,-0.8758978562161183,-0.7913905364674194,6.323120915364742,-0.11485255364372116,-0.6565308451932912,-0.30584419084455633,-0.3981102967591873,-0.35107575902113275,0.24345230558766928,-0.030420912287233214,0.04467776949301083,-0.11904451286901686,-0.21740274364595347
,0.17613341774793706,-2.979926333346495,-0.3735908685225078,7.004902417660698,-0.19105684118369615,-1.5821013532080488,-1.032344562334024,-0.2962389436424949,-0.3021388642985614,0.32781320889300253,0.22441580698907543,0.13025385035590883,-0.012206253676742877,-0.2820790425062414
,-0.5559914998523835,-3.602658932706037,-0.4684692911476596,7.174200827551288,0.8957470424839409,-1.541856634124935,-0.4452961702187714,-0.26251505289701427,-0.14914053351850565,0.010409390732531922,-0.3149012889480131,0.389163131815694,0.766584410682194,-0.031451471285822215
,-0.062110481904737974,-0.8669586189422035,-0.6206899183705819,3.8114047941243183,0.8817826174926068,-1.1942109897588642,0.10275255556783837,0.02067801051362747,0.1152698438426098,0.6996517866260561,-0.6440206225271085,0.6331937958241012,0.5658317499513951,-0.01646761391747627
,0.8376398317628626,0.056522446778936725,-0.6429600163273456,10.502482952305476,1.2245153448223998,-1.1245940368392102,0.16570265673777096,0.8454669479228049,0.41526512321527587,0.18391175847925284,-0.1960969503801112,0.30876678361725374,0.8122107690361384,-0.3003296041230411
,0.5933979117261465,-0.4372653571958352,-0.46641489636686306,15.437060105495725,1.7977942093191517,-0.9856041769015202,-0.5418665193052088,0.41622053136453246,0.44040436236975056,0.33935874641621144,0.6189114453359716,0.43517618107496586,1.0473674198390506,-0.1388659752350604
,0.2958675337434867,0.033636185789949695,-0.2566836937059272,16.854114501391987,0.9944734084908166,-0.04293108090879614,0.2330021098584542,0.23287271805011883,0.030793596921496604,0.03524474452843317,0.6557759247318031,0.05514120146698623,0.7963137128912542,-0.12408030678732204
,0.2566566782630811,0.5821954884307343,-0.22020900260548334,6.116297324029859,0.7592500636295961,1.8395883957080692,0.9549832469397543,0.2313977336820838,-0.8712137410197581,0.3121790948898819,-0.3041549223860898,-0.24357259379038382,1.000109225761505,-0.2336522461874789
,0.5004208305025629,-0.3936209419074255,-0.43210746537773603,6.24318644913975,-0.38468005449772474,1.4982990435073613,0.6790211370993188,0.19123487807405343,-1.1661937216886853,0.32602009174426844,-0.3903703747903196,-0.07962837344155026,-0.20668301652485466,-0.3792021186799122
,0.8802752749853824,-3.6193004860766025,-0.20115415880606016,10.753120986135349,-0.11963013053932108,1.1648399798896067,0.48914007078174826,0.08071747005557925,-0.4132410094934267,-0.45376014510673457,0.1527699996070945,0.5670333120230948,-0.2342710241334015,0.0681506784539763
,0.7601077292545853,-2.2911088252349145,0.2766159571750389,5.359951473854176,-1.5925281835002418,1.1787169763103735,0.7378243044965631,-0.19373366063780664,-0.8326920353493619,0.27534717848197793,0.599979762493532,0.38288990779065735,0.847253001276618,-0.22289771662200908
,0.7257990854142625,-0.6254148460841618,0.4626203543800764,5.682765289728447,-0.5919805033942381,0.010144356721892997,0.4619665021553447,-0.3022775168879484,-0.19584066335602027,0.5087317082718011,0.1262472016451172,0.11912817149828073,0.4444526390449743,-0.17289666125471595
,1.1940042090372802,-0.42482120092715664,-0.03877584065829602,6.4792452970415315,-0.018210551258157345,-0.24258784576411996,-0.5815726078413305,0.11084150138571203,0.38276226639828265,0.3366967119584439,0.25027186568391463,-0.4158141997670856,0.5371199705266166,-0.051851315000746294
,1.6315759142770192,-0.7957758287954867,-0.18837795855447054,-5.530286316228631,0.0294569006254325,0.8967739632011492,0.4729614016858585,0.1354847865768698,-0.21716348755823872,0.12030225544059579,0.6371276736138981,-0.06900907672927761,0.1912626752286703,-0.28604147300988825
,0.9513255166740392,-0.2757281642849466,-0.3277640643385941,-8.030589298804188,-0.9629195406045612,1.356949535824039,0.2592600537821631,0.15594029301777068,-0.13645648047502956,0.6263278881277898,0.49557531177425723,-0.007912766552053063,0.1749473770784218,-0.2185289345908967
,0.5911771734906381,-0.009311164939146022,-0.11281275807416004,-6.505019384515954,0.6050687672233391,2.3571264284111777,-0.05555008630316687,0.5543291093501135,0.23880574618590727,0.23111784012553396,-0.21530632568627842,-0.36199737057941117,0.019371446045654644,-0.0005421230294020497
,0.4623213226027171,0.8048427123111125,0.02253256616153181,5.0802634265179005,1.5372837191347364,1.1607861270274258,-0.331935879525226,0.1328334194323113,0.028300661518063625,-0.0004529729710879977,-0.037882417494944025,-0.3756378424506993,-0.2765841315959581,0.20032913265441027
,0.14194263753530023,-0.4325275890622751,-0.1322136960455991,2.8164661479861555,1.9448198989081698,-1.000475754589802,0.03702793199293056,0.0006415197518442791,-0.49248289750004515,-0.2387808124818234,-0.2745934554310063,-0.45650754700717017,-0.35341554568887357,0.8579015047791683
,-0.7743838435006494,-0.5331422904526164,-0.17443715360571876,3.4196415296582683,0.20810606631584272,0.4780631235780017,0.9367359526529864,-0.5978035010399102,-0.21312247469001186,-0.5438224864533453,-0.585516297198645,-0.465060094484846,0.018487418766091415,0.02434215268679745
,-1.003704786248109,1.6119441210532206,-0.010161356232816221,-4.894607262738066,-0.9638897379517912,2.333069073085048,1.0633051335065944,-0.5539497230703757,0.39101665672137453,-0.7534923253165808,-1.2081192438544215,-0.021559061331687997,0.7180992441899979,-0.3925410175058994
,-0.27881556220760917,1.71392309097555,0.02802145474246619,-5.977948736677155,-0.5881967520319352,0.6968375758025227,0.16423357876489453,-0.37535724091504985,0.38305908833422225,-0.4305533654745405,-1.0218244528259801,0.10445218156567228,0.10654408504157824,-0.18923657417964906
,-0.10924995733699365,0.46303700840703993,-0.38303410559987217,-11.228437688847228,-0.4273898337776066,-0.014271033150066455,0.34038499790216625,-0.07028735004456964,-0.5271940631831206,0.2528313618304981,-1.0360676851124717,0.02304138416393707,-0.17855830022998648,-0.21198260757930315
,0.015084828974683563,-0.46125903761800313,-0.42757462861404616,-15.895905458924942,0.5299447482330539,-0.9282902023165457,1.4112248697365597,0.1756387005510625,-0.22403262874067625,0.7522417155150863,-0.5822478303806712,-0.46437281260680047,-0.16956346852459195,-0.23008132017126923
,-0.2743586438614225,0.28835699126905445,-0.019542345149713796,-8.959100167093762,1.259419331502845,-0.7007034976005019,0.8138874502937831,0.6505022435332615,-0.14870559921423954,0.608371992266071,0.1702203267654944,-0.12893625122250466,-0.10568752386463544,0.042850472696893786
,-0.6076365292013138,0.9325459942230444,-0.12283515319598318,6.723496568900702,0.6196943550727966,0.5072973633515375,-0.15875221364892245,0.2251228066265677,-0.7782780677518119,0.4971029640231297,-0.27063393734380103,0.11238488842953116,-0.17081002383296448,0.0810230610118706
,-1.3733995191274497,1.4197601013546999,-0.3855146240437433,-2.5293097932533213,0.5575492118522569,-0.6509325419567138,-0.7798517879628312,0.039623473128452866,-0.6596329734802606,0.32192259453988115,-0.6433753890651928,-0.4612963732543859,-0.043219737867119634,0.013918000709897828
,-0.6594885267787909,1.5474535697091596,-0.5129969614706222,-6.8891704269753555,1.2328126443183032,-0.5231139298852732,-0.32267709769337805,-0.14142399968688263,0.09814919847462789,0.39672387552363064,-0.9286662019793738,-0.496718936291129,-0.41808135904759536,-0.129696534099264
,0.23589073610884967,0.3710658881601486,-0.3817149869915954,-5.49979491889898,1.2957737778130778,0.09767301676768643,0.05630042825407888,-0.14879746655868512,0.7095846796837756,0.06629428022915385,-0.6000384066620732,0.004100904269476223,-0.7123738194416976,-0.23397422680493746
,0.7843413182920238,1.4425918201648256,-0.029462970314270462,-7.300311233627923,0.5308627519780196,-0.10739788334818373,0.014035668987747189,0.3866209097837914,0.24129219070935937,0.04431474348474855,0.003134606907273604,-0.6351269152994199,0.10693146568422535,-0.11115591833580386
,0.4133729589238533,1.7547374167124694,0.027180629075262305,-3.0945173652608093,-0.2926532548473096,-0.08443317443849707,-0.30627527890926826,-0.3449908770101673,-0.05155426324620263,-0.6276246790998126,0.4961174889041418,-0.2498531789715056,0.6379800780218869,-0.13276654708688232
,0.053276799480435774,-0.2448371612891875,0.31371400539277705,-4.861304916627203,-0.4841684021525257,-0.4872972381897895,-0.5494153687903571,-0.4269268543673944,0.10221408122298846,-0.18798373694502704,0.39592818928558904,0.29015646676214774,0.33779250900431984,-0.3435336570853682
,0.5918853163176412,-0.26933682021135447,0.4559112852368054,-6.6226269657970835,0.5288243841108377,-0.1725292776898368,-0.20450147022923285,-0.020249264918202305,-0.023757249020224823,0.4637755455081816,0.1494831573496844,0.382930775053468,0.4224860298741816,-0.30779611068070667
,0.2594277272490284,-0.8915765342272481,0.3938118763725206,11.983921545418704,0.3275359926102405,0.7770388827398753,0.11529788562943938,0.18143491829282962,-0.07806833761821962,0.008399715001112888,-0.17096389532054587,0.4381661411091101,0.5732699613917325,0.14919766572086446
,0.7951185002173276,-0.3106117560849607,0.14015728420187976,11.279593324721269,0.9099058145903651,0.2697495837215047,0.47468626911637046,0.20249084198507852,-0.03997471254141805,-0.14734227718548193,-0.05779598235086126,0.459551010816267,0.12638667726561734,0.7146407789077296
,0.038491090617269214,-0.7269003848454885,0.6940356302788669,-3.7872621056552074,1.688303394916764,0.28523652639524044,0.8758389911944287,0.20869825525642824,0.26344520894099194,-0.5575488937121916,-0.23068676398180055,-0.04668269710962634,0.45254257299214684,0.3378388863393139
,-0.9058114007511621,-1.741654575956533,0.4291501973043006,-5.104912112128656,0.860877378053404,0.11710183399857566,1.0420538974882065,-0.004572106019026475,-0.24164974573453732,-0.29168411415683865,-0.11235038487594429,-0.33304098852672737,-0.3502677735586461,0.15438232183791314
,-0.47406448386575967,-1.6331516488805038,-0.037862396679774604,-1.3812853442924802,0.21728303499731683,0.865968854023507,1.2166441991923633,0.26182442977149334,-0.15256701195463215,-0.004025123666190704,-0.0666639687514839,-0.04662163565409988,-0.6051299633732421,0.009816932492171056
,-0.5695827977713764,1.0441241247222792,-0.46189712203046757,-22.00228184528495,-1.5165662605695776,-0.49702244226719555,0.27811906266244113,0.3892713820782384,-0.04986097204849146,0.08295904400693999,0.4046828635674631,0.09356101739037602,-0.4112676124641516,-0.09917405679873713
,-0.6174807542131517,3.1529322922032694,-0.43638734601454177,-19.36928319171585,-1.6191093740555267,-1.6084058806022359,-0.5029756494877917,-0.48962683413971864,-0.7633127560323573,-0.307266406214084,-0.6816169229026584,-0.5469923551850149,-0.44161624964400786,-0.16978442397549773
,-1.1756258009588014,3.2773088775697903,0.06901184064447582,-2.442016006184354,-0.9755644317081748,-0.3901096809238356,-1.0984238376591238,-0.6960195372565627,-0.8884195782188283,0.31023326868666085,-0.5127579057120953,-0.15034628013114765,-0.14630140958412272,-0.2743555446451682
,-0.4453823088393335,1.7051331952628412,0.2246846299024589,11.034365620006444,-0.26573531758203606,0.5372950937693344,-0.69974693026949,-0.3817159559566565,-0.16567537639304944,0.519341311356423,0.4408926157864383,0.341088561727861,0.7570429188378949,-0.13599337212423704
,-0.0007157438932048902,0.2549188617894719,0.11412558127818463,10.982244463232176,-1.262223529870485,1.0254508543215375,0.026340431604191278,0.39955276946690693,-0.43535317934938084,0.5563828800764571,0.286782172372114,0.46125064030136204,0.07816667015680527,-0.17368760631212127
,0.045082995686535746,-0.38577878891535505,-0.06522782144384386,2.5488104422034303,-0.6469344440996081,-0.7607056906007756,-0.19906943488027762,0.745583167304094,-0.26933664420814446,0.4659000735417313,0.3855844568958843,0.3219421769311392,-0.6007094976473353,0.295946959383504
,-0.22827841531432194,-1.4852635626406565,-0.2587101780950897,7.386998746107764,-0.5324024340757855,-0.8923995543904617,-0.36448233029686916,0.38661678187225346,0.21469899134202278,0.5059016001421694,0.36903724901506213,-0.291104221531748,-0.4024973395403906,0.1621280211561497
,0.909731252996641,-2.909521499297599,-0.3520065481879224,17.465963285893213,-0.16252151613057172,0.45712555529541377,-0.11771372018489856,-0.07550580283337285,0.6262187410994703,-0.4723217323942145,0.44472307197124905,-0.04970980777568366,-0.08171168931064601,0.03376452478086068
,0.9498115364962988,-3.9516333139453756,-0.3255166284594075,15.672869004865856,0.16569979170326332,1.0907745513034104,0.26596428427141905,-0.43226475706444395,0.90392673489225,-0.8244293741833713,-0.014825439518062932,0.053449322114891576,0.6773578303830243,0.25420190733022135
R,0.23955232206968727,-1.3754064840796827,-0.42390675475677664,0.7873666839678892,0.7752575069356743,0.6977462813458825,0.4034818518924474,-0.6377854502787009,0.5362826531866524,0.1324728888971084,-0.10457252278798737,-0.2135936279105816,0.13383624322883886,-0.11805071151067287
,0.34863473754496505,0.015191465513673178,-0.32596742120489114,-7.513920773637637,0.9164307246478506,0.6723286711408701,0.9344168984234665,-0.16316999221573655,-0.24644742503099248,-0.19987837344013287,0.026433397349228623,-0.11185265998991016,-0.01356525348800246,0.0013907306728907604
,0.2579219066212511,1.1267862280162204,-0.04324163529908809,-10.10343106769326,-0.05134098178883523,-0.26647093662617827,1.2181385257588946,0.03608972799333046,-0.4652510600490788,-0.48264314733313834,-0.40363246059409913,-0.19041130632641734,-0.6664633547589097,0.0059368931560051024
,0.21801198656928183,0.7476372816118431,0.2612735604037268,-7.809587979009437,1.4532526076317807,-1.238444041480511,-0.6206485334035668,-0.2638559733200468,-0.8332057130891392,0.5572372658955735,-1.052992502658755,-0.3379436140989673,-0.5559429044442037,0.12510408420288666
,-0.5401421355133587,1.0659778113404863,-0.24041867787765692,-20.05128044839018,-0.4601701214922187,-1.2535378205925003,-0.2697887701001182,-0.6751333530159854,-1.1201130637182992,0.42310469158250397,-1.0199128032877722,-0.42958921251661697,0.38868761036411453,0.00558920365652343
,-0.984928119285205,1.8346037764374392,-0.7173491322834127,-17.497563299612267,0.5111575261847274,-1.8624301517360136,0.788049221523917,-0.6732287477957363,-1.0323557008594193,-0.14372242208816702,-0.9942947716936271,-0.39794636297941877,-0.4578873230286432,-0.13983945489370092
,-0.5385582819550805,1.0717790508262484,-0.6485202104012779,4.017885528338223,0.7004853820161367,-1.0947646635757575,0.011516454773749846,-0.7008936972051659,-1.0696524436755073,0.45332666934401195,-0.7484493118588865,-0.3791864124129004,-0.6268221400275945,-0.6052206381209297
,-0.8027140169277611,1.7062807696907625,-0.7377100445832588,-2.260155140023055,-2.510826708967615,-0.13248636371109904,-0.23444142305939739,-0.46704606640118534,-1.1475878426304522,0.7699674071157897,-0.9434065518440496,0.0373424348949274,-0.19963192282259987,-0.9837735700420723
,-1.2108057099854084,2.4944859674116002,-0.630977454599652,-18.662104616299427,-2.4035379558190626,-0.10232397203000906,-0.3407957262844209,-0.3398763126914009,-1.2305861061584134,0.22543346638185868,-1.016997628826531,-0.40935644549595224,-0.9060417771720813,-1.0043231430185038
,-0.8244158327798747,0.48164570783151206,-0.22739817727400416,-9.296949451671127,0.36779092492026333,-0.4187221229205591,0.687292617478741,-0.18558345981880378,-0.4698468584532596,0.08039474580830978,-0.7898127346103692,-0.4835527288836635,-0.8146482191030007,-0.5401723475710704
,-0.6112947847121626,-0.08221032327338694,-0.33507088390358214,2.499401318909714,0.20074354375509626,-0.2911950183288838,1.2267323063343447,-0.5654843429554655,-0.33226854358292063,-0.08589905042980399,-0.46387333154723587,-0.19399405816487497,-0.4025643013508043,0.013114243637147902
,0.17151003748386856,0.24631456992415798,-0.32430969773959945,7.287158498731216,1.3896666627067809,-0.13614177744412517,-0.15430353693925164,-0.6326301511585544,-0.0052406618050344364,-0.07956367971359965,-0.12166804815313151,-0.6102839307250931,-0.10173708920290478,-0.1716677141296762
,0.3823977944126207,-0.6261228928505062,-0.26299996733214537,2.3255046574264293,0.21833474165266553,0.3096568345168627,-0.4449420858555662,-0.4104804276725143,0.03065971161294497,-0.6336124297740489,-0.26339316368869736,-0.47487514758065913,0.22939463520328024,-0.46808634817042033
,-0.6528966318886675,-1.5998290397076036,-0.5931739950535493,8.83261986178691,-0.6006411165859062,-0.8518745964287644,-0.619443593176529,-0.10142497468495484,-0.24669791039906275,0.08862957577043622,-0.5339159384708909,0.28540892162076004,-0.8147508285261815,-0.9758589855728949
,-1.010428014772084,-1.4787508289654632,-0.7304162245181998,15.294595042734166,-0.03896245475731941,-0.5856819122193323,-0.35792459270540616,-0.11072876041554007,-0.28250384523325556,0.13737046285865684,-0.16270438582156296,0.059593411821178624,-1.2046171145547093,-0.8309124804492075
,-0.25153017724887533,-0.7596168858444176,-0.5759086989119577,15.748059241753435,0.8682143691574259,1.312079966695349,0.49733148547243555,0.13814447191151596,-0.10409936415680246,-0.2925904871700202,-0.07472243390148134,-0.21258960643269117,-0.4989569687738083,-0.4511234134275905
,1.0243617052770722,-1.0211021776694582,-0.32383713064000086,11.607999458392849,1.908262753027346,1.9675722954550985,0.007171397964318668,0.09545628548144458,0.46050636979793313,-0.559790331754608,0.06096392120118428,0.08694494088916517,-0.41182395336913663,-0.342009749390667
,0.3353549027589064,-0.4698285177432684,-0.09856177687089802,3.8814475842717204,1.0607676574074738,0.621149608595242,-0.8999861689894383,-0.21913725049955782,-0.5357692650809361,-0.58255281147011,-0.21733013254037756,-0.5155881135048409,0.36817566886093844,0.4788212323932585
,0.2965718178877983,0.2597574056846446,-0.30149956700320335,-6.148935821048395,-1.455656085856687,0.4352759695843937,-0.4432766544772085,-0.44480251769549717,-0.5654644943626378,-0.39579390226522865,0.10495386242475967,-0.7315021936348846,0.7162815857611153,0.48832334333735944
,0.8859627295253301,-0.2780605708954731,-0.09716349174421815,1.2130736176637966,-1.3386728956441778,0.06583672832548385,0.22831930476784615,-0.39212961450322603,0.3878487991128684,-0.44964496821219746,0.4486529461232239,-0.39864563115684065,0.7199904709003978,0.24362505549286628
,0.25094174847788775,-0.2632115441096517,-0.02495938179797971,6.951606432452916,-0.08674010419788813,1.2713681461975417,-0.15723972010114792,0.2816404264414057,0.17967244494537385,-0.37475396287180324,-0.07986262782803714,-0.40784185844622467,0.35131264354235947,0.5719224462112641
,-0.4513377241196968,0.10220952569162416,0.02561359963358299,8.053939293915503,-0.03254812547148455,2.1326800308731384,-1.0893798333542903,0.06876018930568172,-0.4188924973365134,0.036657534261063586,0.2581823913839869,-0.43309261565103063,-0.6164342404214176,-0.2541900526552565
,-0.2975304455773346,0.609366771755071,-0.42049170696294796,1.3322187605389586,0.03106025324418424,0.34853758362126114,0.1488067291446414,-0.3090583922697249,-0.6350926700449527,-0.10804773987641456,0.4457113553567797,-0.15751296500507422,-0.6653100735063908,-0.5118369421014018
,-0.27350584419291174,1.14559370765321,-0.5653263608203419,-1.6745770585562973,-1.4192239663947255,-0.3327874274702248,0.7140556789449238,0.07160830228060663,-0.5618607358073091,-0.3735744340469429,-0.05795936249999472,-0.31100843128208083,-0.7503900115667179,-0.42604043903710404
,0.9871703091725257,0.1536548137191067,-0.22740512986668207,-9.619512261134282,-1.9621998519048593,-0.6720517924385256,-0.03134671244595955,0.830159324126547,-0.34723119366659266,-0.458012961528439,-0.44613322826102,-0.5978653302736177,-0.42400965128688295,-0.22334428637096
,0.08052907912211842,0.20802030626562687,-0.21923486078910098,-3.061844283346486,-1.1788570229361628,0.17349370974516676,-0.11099065556278506,0.7130997330718967,0.3716156018866742,-0.10106658452741725,-0.7414432613404588,-0.4109379278282714,-0.6108370519326517,-0.12750224599810212
,-0.27503420960942315,0.15417772784795272,-0.2488108334171367,4.685329121067985,-0.2511212376942293,-0.5176425465280868,0.2807089930026463,0.1294934825089621,0.10631604437320516,-0.19303123169463443,-0.5868023813041232,-0.371474702484019,-0.5426700416917031,-0.3371586047702787
,-0.10151718485647605,-1.2052028511813178,0.056810981824702525,2.8204606001269656,-1.090693770158911,0.36069453003084145,0.3139994263161645,0.44110126885522255,-0.28632116398456525,-0.5251529006037378,0.14161042160943477,-0.7589917289650594,-0.7305902173224769,-0.29226678475005485
,1.3128056382632394,0.3407072507272422,-0.10771875203856633,-1.8740512306030053,-1.6436087065665346,-0.2955204155704188,-0.12216698577691355,-0.33280490685373826,-0.4592602844150825,-0.28836894130949015,-0.7659134236842865,-0.41287438716434927,-0.31732504246923143,-0.24580569829025598
,0.5108110128711183,1.5731300044441365,-0.1880267797506708,-6.7228393375550075,-0.9408737484336385,-1.1877442091487909,-0.09436745836126721,-0.561336040614589,-0.5496562786585533,0.5218067764441121,-1.331673167872033,0.6052537655547937,-0.25150203740093446,-0.3309598937602465
,-0.30197897806106266,0.5264457939372702,-0.27721023888325796,-0.646816742513928,-0.3307086682469967,-1.675673533912843,0.4063129816064337,0.29694406883148844,0.8834020167261039,-0.3645380752263157,-0.3395475859328664,0.024670093112529465,-0.17870966440824748,-0.3300733796487751
,-0.8088968288227354,1.5696007410628694,-0.20446413744953382,-7.272718197593368,-0.7419872738668443,-1.5908937084881096,0.2822167344135821,0.14810157704125024,0.29472526147813577,-0.1096259604987523,0.15030618320869493,-0.2637241172366823,-0.19456028379065685,-0.24582765789918043
,-0.48213851781095,0.7153501230166177,-0.2604429706446308,-0.7311698627318579,0.5029901017670241,-1.0797421047701297,0.35109171111482673,0.5683129981965082,0.6314521546147146,0.06645263713827766,-0.13528344825005556,-0.4923018313376376,-0.5006147146382394,0.026615779837382007
,0.37565397152883756,-1.242811008450058,0.0801541913923468,7.302838053576326,0.40534539367719014,0.16913076203568006,0.8440222662120871,0.7285852317376037,0.4579672067819856,-0.39605853555881537,0.08975289387921609,-0.02528142527557822,0.03827726851296567,-0.09573092562163642
,0.017724385473510382,-1.092734734423096,0.3996885232473537,2.305646913012902,0.09022535184700617,1.4595072523272148,-0.09106001148102763,-0.29870008776745843,-0.510572309869546,-0.2367914915964801,-0.21131747024627384,0.2161115685070745,0.5628647762425534,-0.2496932839787893
,0.03803745764666923,-0.8934916764846866,-0.10778176343131865,-0.6476873205087812,0.0662035381909246,-0.14666469184573325,-0.864111632417874,-0.7183921592882273,-0.9294386992987589,-0.24270846578545824,0.11830589658025599,0.3730486747500779,0.11032279055901627,-0.19124367286383773
,-0.02358408887067536,0.7249009940482826,-0.6312636937408008,3.432479037079588,0.08254428533153572,-1.2273587393430787,-0.3902625988744883,-0.32649186125834867,-0.8272024706225884,-0.40869819470327423,-0.025733594244320236,0.7066077644012786,-0.7890021539438526,-0.4208541256600211
,0.5664770709404493,-0.17504158981047394,-0.49874531864073657,5.550134491023697,-0.7080243998556555,-0.7307396176369704,0.5235745170226864,-0.4334313621565175,-0.10406187514165542,-1.0695988688778453,-0.0956474459970943,0.9168419371223875,-0.6771259257858517,-0.0138994864807201
,0.5480091282954359,-1.3999532076540793,-0.21794814221703798,-4.5201531185455,-0.30815233785390506,1.8257161792383774,0.8330589570969459,-0.44061250692027876,0.30262173360235906,-0.7676750501692716,0.129086951379492,0.45045621114319884,-0.43924746969835765,-0.20103842022024226
,1.0355447074619808,-2.2362770752242107,-0.061753375578733616,-7.1548168860766825,0.8005597483504111,1.9730747782065718,0.8201495680015268,0.06627574723044076,0.22530020695511072,-0.23515897303591923,0.3632981671550255,0.19795754701384588,0.5594081654606162,-0.26947326909977615
,0.8105490188284545,-0.5406314529139729,0.15522081926270406,2.496518385043532,2.008321148468728,0.8628588072876885,0.24429912204774668,0.013965485637728328,0.18199374429493628,-0.1455905710272439,-0.05257659377745952,0.07072638050202175,1.575964579997072,-0.05182391930703819
,0.5551806470314634,-0.36371507315152296,-0.1931088699892351,-0.1455520206667161,3.076232975313802,-0.614553926307531,0.40980265417528455,0.06049691629195634,0.04158827788796829,0.2574227130920214,-0.06931841584150258,0.12813644911579875,0.6744947452896541,0.015519396772900818
,0.8912331008755068,0.027990248265621437,-0.35124105668742844,4.000663502754074,3.1362549020974333,0.12608625971547174,0.20407517069322667,-0.16011601454559024,0.18286496108252098,0.4963119239291114,-0.026152241098809776,0.009043753727239012,-0.1972986397641088,-0.33995579798437014
,0.514861732627933,0.8938488567252837,-0.04129304992657321,-1.8775113126491783,2.2037585504561177,0.9290971182498986,0.7220230833236245,-0.3071142002276316,0.18335742574128144,0.3472689521984377,0.12851655423655528,0.09433104367843823,-0.4716748376488584,-0.3075587584715444
,-0.2660501476168943,1.5615486221517474,-0.4163795364489107,1.4442864373217974,-1.0441839189162354,1.5498083547687072,0.4353669244052659,0.09139044386659964,0.22358417281560547,0.4460914415596001,-0.31648309867774754,-0.18631803800443966,0.11794013907920137,-0.31825708339357306
,-0.4240189591954957,0.42192328746658975,-0.39073005885696366,6.239176519746683,-1.3659601046591767,1.908167611953746,0.46945142416614066,0.022278758155385672,0.09017013504192041,0.4705060481088872,-0.3930595295293486,-0.02215396365755836,0.08508263862397343,0.18195138062415508
,-0.7375955547897114,-0.5406674398996848,-0.10510264978920336,-2.6585104447115624,-0.2868671395330581,0.5526937477379537,0.969491904750318,-0.39430606284162534,0.254686930060584,0.1454956673536886,-0.2001199724488614,0.007160196239374486,-0.3275486954022452,0.6506731634259573
,-0.6491434284172758,-1.2614269143039434,-0.4248128793698936,-6.306919239678653,0.7683963321672198,0.9761527496840747,1.6382411924746165,-0.17835948366837306,-0.20468834656460685,-0.32777312939010744,-0.6186434400864292,-0.28622879771789894,-0.6802822821609694,0.13469465773490796
,-0.3985263928654951,-1.8866520636650248,-0.5141989068011846,2.40022506600441,2.7253100768161858,-0.012232708220240791,2.0901428099948065,0.23206529330100342,0.1004654152399935,-0.3678996414228916,-0.25693239345372354,-0.5139737029357877,-0.1326470665397422,-0.1816123750833484
,-0.4958561516480832,-0.24105411211322084,-0.2303415833643509,-3.828846036776565,1.7100700862818135,-0.27700931144704494,1.5419497331893814,0.017216847892242083,-0.512019721190628,0.16479321454608878,-0.061034176572738456,0.12368806787732543,-0.34529767254973825,0.15184764440598852
,-0.2984195433077442,-0.7216903354804042,-0.08874676204315218,-5.799972830305304,1.5203336346823597,1.0756349411424582,0.9392128661768008,-0.0007845312312593601,-0.5053184793043134,-0.2561377197790105,-0.2560553711389025,0.22018843429310586,0.15163522521569311,-0.29067960282220123
,0.44583764623752126,-1.4368919973391139,-0.08203287225161568,-4.272367310052002,1.645800960669554,-0.03085799815721134,0.18468072944054945,0.28005823550928466,-0.41469349660694727,-0.11933498136608059,-0.1545248284466259,-0.2418731073578584,0.04705141201081093,-0.1622445660730406
,0.200649568240969,-0.3258642931254857,0.09672866384953858,0.48705541176930384,0.8655703309864284,0.07781003478690549,-0.6788965783796822,-0.0423682373647557,-0.2859630236132434,-0.2618093591606114,0.11901235796585323,-0.4093405219085086,0.3400650404923084,-0.2410609864360738
,0.059385844318797704,-0.6130049097580339,-0.012384049490913575,4.148432934402034,0.9478535948968063,1.3490529731625922,-0.6720094030063726,-0.36668609403206837,-0.2660987618565622,-0.4804227528179501,0.2704766811887735,-0.003601128258366638,-0.08143073593378981,-0.14753330365361536
,0.20064830027397323,-0.060705254304555825,0.007865804706766634,11.505572192693766,0.4268421534162732,0.545483894651893,-0.431620903512538,-0.05791116232339676,0.242404986222685,-0.5029184202269001,0.008779772379848406,-0.3241076585523831,0.09413765066788267,0.18933445999117726
,0.695672716254983,-0.5471567679365522,0.33027937310198646,14.287963664631203,0.8546317975729865,-1.3189171379310434,1.0954812886882246,0.12639043218091567,0.6677310541032377,-0.6297712633852875,-0.05811351098001814,0.0001634507509073523,0.6612444339971693,0.5063986496387719
,0.7493674287822434,-1.5387388495651841,0.49164446098603626,5.224748837957002,1.6306125843233847,-0.95313366155807,0.7477809448069549,-0.15059372445869224,0.323013427538993,-0.47399960887187015,-0.20828231726700108,0.18126764114116534,0.9451436666982219,0.27573782762255095
,0.240005828465299,-0.9310492684861135,-0.19468491191927859,11.863316979437403,1.8334328791943948,-0.1970748165536159,0.5014681755867602,0.13402082278310004,0.7298906623390201,-0.5171650899723539,0.35443197313415775,0.27050433000866936,0.42957343811470305,0.1459166522615852
X,-0.08279757908109878,-0.5635126552958944,-0.4437401171412116,-3.531656416020229,0.43962754309571395,0.4253349603413785,-0.25553228065207545,-0.47288410593681507,0.33799909559738267,-0.3076006396835596,1.9383023983274161,0.47197341094281836,-0.21022222108188837,0.2952439045546601
,-0.054813383300343646,-0.5049249407303997,0.06334823772569657,-8.131876757054844,0.8000966957626447,0.4727405284879715,-0.22337862573332354,-0.5826817124340472,0.13041643884065343,-0.24570188647281677,0.993897754396934,0.0800574623321568,-0.05200337816167328,0.09641784160522643
,0.18593152879413719,0.35893168510114537,0.2750137320070679,3.980327852917387,1.2597888826225774,0.555508335162124,0.8448724460221406,0.25920047109409866,-0.03012815825647879,-0.7164078579493884,-0.6543101968415179,-0.3099935890675698,-0.28963635356096185,-0.24150622539714073
,0.11027024949603778,1.3642715466370665,-0.03282387731613198,-11.4803020791026,0.8338580219396156,0.07252859111213349,-0.07821371915773632,-0.024250121420013437,-0.5554921415646271,-0.5166340515411441,-1.0556717418867319,-0.7131830723514901,0.2548831240584641,-0.0968585298957391
,-0.14163142794119665,1.1786777666433716,0.1384954856247005,-13.61039804589372,-0.4379273059177807,-0.2503104208059775,-0.08610385321657661,0.11886458727106705,-0.34437839383413793,-0.11167890245333688,-0.6457951140368922,-0.43166025291343735,-0.004677137460596651,-0.27656727183405094
,-0.24620422439955061,0.9661294378785692,-0.3123253795698765,4.38049176218108,-0.21244103802996442,-0.1219163244976971,-0.696493495845649,0.07463567235915296,-0.22413226158636493,-0.168319494266575,-0.12077980858145076,-0.5012944913979089,-0.3189288089624668,-0.3698926954030432
,-0.3826113729223239,0.00916823785742072,-0.25038518067726995,4.8284821973042735,0.5879252858572204,0.32669979276533734,-0.03239867960715243,0.19403383188672824,-0.4952365668138615,-0.14561219004920023,-0.27882395934453386,-0.21697158132204666,-1.1273468520911278,-0.27767753866841394
,0.2301021980189807,0.7386200470510897,-0.33031988533778855,-11.640291017264808,0.37041380137398605,-0.8463415259777397,0.24763550816725793,-0.5265629498889756,-1.2569485831260256,-0.6758954656529631,-0.71133421079514,-0.3347007223581204,-0.39805155949801846,-0.235719287855716
,1.460143964985295,1.0159765803328524,-0.4999425122275568,-6.841366265636764,0.3172210361614302,-2.1066860114698898,-0.24748011043796928,-0.3174648866822021,-0.8233951616104064,-1.0959148468425002,-0.610610890772409,-0.8277828422658212,0.41057754944548225,-0.03360560027800138
,0.6208456306862661,1.1639440080187837,-0.007251329318714074,9.089727927809207,-0.2478311380867604,-1.8183705344691397,-0.22512286932473813,0.041170356084146875,0.2312286195780697,-0.7815527630699111,0.1102255302441416,-0.6765130502201044,-0.4510988320866057,0.449963837311353
,-0.16981876538156535,0.14390534967483093,0.15657394158288765,9.491700274916457,-0.8666076739476383,-1.6531023068858337,0.4291457959976768,-0.22622066378882733,-0.858631103179376,-0.23313751960628673,-0.11924789366475298,-0.04390429926305007,-0.40295808187727844,-0.08040622565292543
,0.3435717169357035,-0.11429448900691262,-0.23488610343366378,14.17539505948987,0.4704046878659028,-0.9435898476131841,0.49408427461061377,-0.18786109149609248,-0.6394154432734955,0.060747219181635635,-0.001476642315809447,-0.0008988682248569661,0.20407762744562793,-0.36499833910286256
,-0.29883887113786084,0.07209341515405275,-0.4299650588539006,8.943670192780884,0.9583362503010918,1.1996274236466085,-0.171689239131802,0.02207139142695918,0.0015376252772312763,0.23751989809491503,-0.1205668552129589,-0.2610067524255312,-0.1785973699506852,0.12490802198744642
,-0.3480351660236506,-1.8618019681913782,-0.1529178013971459,-7.942826265231669,0.19082056884742835,-0.18541726794713406,-0.5113896160614868,-0.3473221666063007,0.5747043802007001,0.35597986081057503,-0.11933814277026883,0.03415991939078818,-0.42815141252329164,-0.006293648200626336
,0.3902061313885717,-3.3964773240591386,-0.2133310958159534,-1.6315655122241568,0.8583905583977025,-0.5421197624708263,0.4272072324973283,0.08551880315778991,0.879963562563353,0.23958559223980258,-0.5682640894025008,-0.16586408170113165,-0.7608307895730552,0.06693409786030972
,-0.08511110899450579,-1.5813011445387244,-0.49550620987477545,10.123601786761501,0.12434598571612161,-1.0933169500287794,0.6047396466373022,0.36963130345241924,0.6733132092019076,0.8115734093679065,-0.1941449209474692,-0.0759063656326798,-0.703262033831926,0.058643710089415844
,0.4520492824723763,-2.0540847916846006,-0.6460837845189287,2.6515304258081787,0.807093951979431,-0.1166709781616499,-0.5103330773952418,-0.1234105242194937,1.1024980971151261,0.2606909165163842,0.1016217196590075,-0.2637045119773505,0.1531714777792412,-0.11644027174036164
,-0.6402050405086537,-0.04923775888385449,-0.4674294557925784,2.071947385662888,0.7804477998928339,-1.1154805475922414,-0.23155555587465676,-0.3065943322706431,0.2846788316406661,-0.4119249137104714,-0.2979451818448258,-0.721738213493356,-0.13273430506314948,0.20298021483178302
,-0.5519622871698806,0.05365110012374245,-0.21350107653985548,-4.947745770879418,0.41718971871223726,-0.6721296194055794,0.9673550487177807,-0.016224591719367902,0.4022006755364826,0.1375749027545925,-0.22328107172362838,-0.5716505384118921,-0.18015306445808596,0.3692442891256767
,-0.3094168718592294,-1.3437378623321596,-0.04420334810101075,1.0151793160280251,0.6129837720829578,-1.1422668788415935,0.4879583105053976,0.11421505167134052,0.1057170444365339,-0.030394889106740364,-0.019477168949297553,0.0001656036586230702,0.10954154624066441,0.31175942366379505
,-1.0117288642701658,-1.808520746020912,-0.40042467762992157,16.1131112424678,1.6477806915309046,-1.5924619284042074,0.19708969731924614,-0.41674832280951973,-0.34874169746009415,-0.43407376727661473,0.27710962154587016,0.424159151237021,-0.16533456140001046,-0.0589591381660761
,-1.115897313952769,-2.1968275056409388,-0.39415767851293104,1.3955205385375977,1.6678318212756584,-0.8039019696577138,-0.2628487117068432,-0.2807533821632149,-0.2341384630561247,-0.5734156518583601,-0.11626812590398919,-0.03209152586819442,-0.002451490052991306,-0.45474992236756456
,-0.20698985927193897,-0.6273434310999421,-0.014537037226722333,1.4423015980922946,1.072022392445898,0.9117642837261503,0.6645892389641473,0.5913967061334422,-0.13766761422794507,-0.625817990675816,-0.1802639324912238,-0.2913614135311974,-0.224782277382986,-0.4149900124651422
,0.987222484247412,-1.4195151813892462,-0.08447211596829922,-3.93187480685705,-2.294026994201441,-0.024443036796093495,1.2125155370671108,0.39036802162972695,-0.022382696859135368,-0.6283682193630408,0.1804848042677464,-0.2373457185665484,-0.7107846224442174,-0.05672639278565199
,0.3779882401434022,-1.0252483914381578,-0.11418727477389706,-6.642086755575969,-2.511312538900223,-0.08867953743545848,0.4056587337443522,-0.07416471188782968,-0.2511458013484153,-0.18446502445776594,-0.4508493535656334,-0.27321259642805046,-0.6974742686751784,0.15431313989352863
,0.45364508073789134,-0.345956860810251,-0.16481779834493912,8.700072056858005,-1.3595664801302192,-0.10899347929182027,0.13676786124416118,-0.18093446071216532,0.10645346681662773,-0.0963790891121079,-0.5147897325458963,-0.20923704272476318,-0.5011240140614872,-0.009828500558560223
,0.42164746510570683,-0.16965165761391057,-0.05277314854024354,5.580674078478841,-0.6903668492461392,-0.7727488672612547,0.7683104907968508,0.2487282726765671,-0.3031909387686227,-0.3075385295369379,-0.02806011160763142,-0.07352962316816551,0.09228275398894428,-0.23976520397559492
,0.24004488518314596,-1.1542272314456938,-0.1452067315742625,-1.3930605741322912,-0.7562142846326165,-0.9752081059595162,0.2805982125173066,0.36321319635394544,-0.16583019596312357,0.26018770860570456,0.1372653164996725,0.09316212487468135,0.3682730093019918,-0.26610350272634137
,-0.09236955610899845,0.10622692013129044,-0.07758675080275029,0.3636023734698002,0.25607729545175745,0.1347966287379344,-0.0702993132501874,0.5998531974641769,-0.09227760967832928,-0.0060479523682214625,-0.023091114424133426,0.38036000338227727,0.06455042119637898,-0.012438885183130098
,0.011244316701563109,0.24321643055575556,-0.3373004237054411,-0.23590145631667214,0.8170532297943282,-0.5674118487391661,0.03117376321611691,0.20956550150488143,-0.6341718978739284,-0.28140660238576454,-0.010951035212102785,0.1265992743344027,-0.519250883914105,-0.24149065637509656
,0.9185735616545628,1.584479346907329,-0.1897049278839421,8.527216526178615,0.6217220090504243,-0.19897445236117886,0.6233685961625491,-0.3248539929479939,0.00870438204372668,-0.12957071314355745,0.5689953111674972,-0.011579627151611456,-0.3790111831160369,-0.12374356131209116
,0.7016649085559573,1.500675132695416,-0.06438960308391943,2.3566760527594655,-0.03719541423091133,0.4285060571239468,0.8627055845723735,0.056427964316080076,0.7531946467154061,0.47921759064455643,0.2738064228862518,0.09866861196296232,-0.5538961200279766,-0.08673593828646566
,0.5689035675455796,1.2013258075453512,-0.27888155951811455,-4.212741168918032,-1.381149429934411,-1.5010162410357433,0.5288775288324035,0.38915776003772873,0.13447869671563012,0.3423931329120564,-0.5727507579467153,-0.02641291046604055,-0.8438047226874934,-0.03726879700191845
,0.9347206452189711,0.8252213365153199,-0.21804737704364266,5.022995922788015,-0.5536631370445175,-0.4629556743716457,0.006775094069213105,0.1423299013147019,0.5716885784137556,0.2376187117429563,-0.3441482081367214,-0.011331356154307404,-0.7727183271778091,0.65153074771159
,0.6045051942793,-1.519103516604994,-0.2236808190060915,6.480103940961852,0.4550151052662281,0.49945022528279276,0.050002685989790414,-0.5283812850116811,0.27926969045998834,-0.03749154654420801,-0.34632015096186636,-0.15248803517445503,-0.28317385557696156,0.2849872892848249
,0.4612008707082003,-1.2145129531067422,-0.20321651380446376,6.4080590489499025,0.6309277352981881,0.5919472869619576,-0.6792470803208448,-0.22666474325586053,0.27834770779876955,-0.058990655296412536,-0.47208568935777545,-0.17180876910743803,-0.45681067737345693,-0.19384482470028877
,0.9503485084146763,-0.7012226368071532,-0.6575533819863452,6.228419601531832,1.7056486014349723,-0.4665658299074495,-0.4295149990945888,0.6475163619845046,0.7650741588455859,0.5229589974962284,0.18532264186427613,-0.20029230901372516,-0.37580586672271626,-0.8106375043613456
,0.4180127225301136,-0.2306239456232769,-0.5147657452032041,13.83629147803597,0.41221971957362474,-0.32304901451724743,-0.4802111653289822,0.27274240148708695,0.45108444082084626,0.5838325306124073,0.25820462827628526,-0.7651781687885474,0.2357883601514756,-0.49301997798141445
,-0.15394257560732696,0.41604304275941933,-0.037883603979632974,3.8676226990922973,-0.2716157064013902,-0.36121276911398487,0.4876540520874726,-0.17129573022594125,-0.17053063815786418,-0.31433337563326136,-0.1996641453602778,-0.34637104239026123,-0.1851599954227395,-0.17448913981024572
,-0.5067354482827617,1.2492618354022966,-0.2649517616682254,-1.6872279101515826,-1.3437292690998457,-0.11474924781607153,0.6433097125447708,-0.06390448535977516,-0.21319985307489467,0.41461520181499584,0.22986915243361156,0.5882497132328394,-0.3250143401629151,-0.33707892967316405
,-0.7874112002658968,0.8921502900832948,-0.34915337842366856,-3.091039587877017,-1.1757013739294357,0.163151807608717,0.7360000927510513,0.01306755500739394,-0.04308149086189586,0.3989026719862706,0.6562472107437498,-0.1781996043554562,-0.4368580885033601,-0.15784261806864489
,-0.902302776019552,0.797160662572971,-0.00534008132375743,0.2435790345233571,1.3829042145860855,0.9116776414880284,0.8925967660580161,-0.01996644348272249,0.3869520480346235,-0.20178854486240658,0.34783347096582734,-0.742068058841091,-0.5825282351568424,0.01835351570663039
,-0.35909235586757743,0.6982009150871269,0.06582314588900126,14.07493421422572,1.300226523290995,0.934423147786813,0.2762625478498849,0.1944883304707087,0.3800758348955301,-0.8550605808066386,0.2026022959908406,-0.15796461995311942,-0.07504704892444976,0.320710526580196
,0.5713514540722556,-0.6252932881647921,-0.23329198331325982,0.021193441131090132,0.3265858807898581,-0.7054042718040361,0.13062372886545834,0.1232990336869349,-0.27078235350467467,-0.2609805578151126,-0.26868937027828954,0.4595363890549079,0.5400503647162649,-0.05814632326068794
,-0.2348556763692123,-0.8102107913030335,-0.13452646503343252,-4.79306495102354,0.24724543411757188,-1.4841491106286384,0.22036122434240182,-0.22978382298964742,-0.3542492709186874,0.4846036556020132,-0.4094681543403617,0.038979181130030925,-0.07532571043677426,-0.37725639362661056
,-0.2645355701644117,0.6228464232125401,-0.14850640896703998,10.392300625915563,1.4901080585299094,0.2443793920855838,-0.537777576382862,-0.2453058450569805,-0.38003092460804666,0.19917160178986998,-0.48882832038157253,0.031964532911936974,-0.5818989602346565,-0.4507095075795904
,-0.022264306965219,-2.0274968937824513,-0.5624962978771523,-5.017906244579185,0.19793688413794142,0.7510356387508693,-0.07160824197120602,0.15744418600849017,0.2758636309124478,-0.241099479797041,0.3644800694280968,0.3834430352719438,-0.4036784030207053,0.04924548702294838
,0.13655357548107716,-1.8505367356036817,-0.6673700487116218,-10.521191698518724,-0.7177291019652485,-1.3398190438204318,0.07632349736502873,-0.031986588492948644,0.033359225746095456,-0.1042541310397215,0.16712405481341527,-0.21154504699726817,-0.4461189829295273,-0.08996656800098092
,0.4306152205795361,-0.06488017908454664,-0.532707679468953,0.8664134638430544,-0.17442510581287962,-0.7894807476750867,0.0041275339202134316,0.11107696944223235,0.2679497178418447,0.45423903334183874,0.07352413965780472,-0.48293864125283303,-0.20415476565258378,-0.03697099829614079
,0.2700632946550636,-1.6040975179097754,-0.34476318456066996,10.187048591068198,2.366653479295785,-0.5665199411039903,0.4266822417369567,0.5603408468799187,0.7110095043073587,0.11616349380074274,-0.007542104125238706,-0.3019091417277968,-0.19550013380177872,0.8197472844424972
,0.03266945668764598,-0.23075452210680053,-0.2562901759215861,-6.113241950806418,-0.7559762315676792,-0.7412897699336531,0.16851820512302002,0.38322106046068366,0.11206037590936746,-0.04723334009529798,-0.633262050577298,-0.9081713064624041,-0.7852530022251331,0.4245411747075411
,0.015105003774595603,1.8318581533307907,-0.07786366696735406,-4.826197017500617,-0.4196090778953471,-1.0528207713064623,-1.0407512758399076,-0.3991596242175778,-0.3317572262964833,0.23541856849590115,-0.23301503420692607,-0.43595729366670294,-0.06698913458652586,-0.12735879336745703
,-0.25275024064929574,1.4444542618830905,0.3323256162440749,-4.364345977737994,0.39687464346563817,-0.4772431380583155,-0.6486775662484915,-0.5431057265423971,-0.4253747196351057,-0.14314332162082916,-0.0013679163394590213,0.15016316453274417,0.49102899870689803,-0.22862797102176072
,-0.48934869717981966,-0.40022376268994986,0.032896180856075916,-5.927779366265326,-1.0912783398805805,-0.9994328607859195,1.559726023922214,-0.049679941416397144,-0.6271004033069747,-0.42591435303119995,-0.21727048202911514,0.08519943940405011,-0.6776468431615011,-0.4204456784797177
,-0.42658222742645047,0.5675114325002173,-0.3573884376414424,-1.3724568862153685,0.5674860508016109,-0.5752796857173708,0.3515592914094545,0.012179225469448742,-0.12715942496229404,-0.15723178661843257,0.32645495517024903,0.05625416962423624,-0.6666421554317502,0.014681156058063699
,-0.5630002798599516,0.1804496803029965,-0.19975992609144844,0.5363741118896878,1.3784681063391155,-0.15454389811844632,-0.16303015628105957,-0.03652089972980253,-0.028418125638296585,-0.15561497449735714,0.6096182179402175,-0.28807417148511,-0.4000668630397179,-0.19770828982127966
,-0.11147215737293589,-0.12628937797186643,0.03880909667997209,16.47304733142202,0.6054294040952785,-0.17559552067415923,0.8982426179015705,0.3478570921992419,-0.3512994907325994,-0.28116345883288524,-0.27684612402399544,-0.16050702559792912,-0.4399381465502692,-0.4381965204054539
,-0.43680319940865153,0.30478384682862314,-0.14756148538997627,7.981856250717957,-0.6554537733328332,0.3579775281921742,0.6740244651946736,0.14355706862782286,-0.2272234404730278,-0.13698233624370712,-0.18907432070756347,0.06670620125540669,-0.4423005101814116,-0.1067089759296297
,-0.374427384168373,-0.1746927701002021,-0.6222696335928048,9.227145940578131,-0.37673654450160743,-0.3374889704437137,0.39159010392654875,-0.19135525523864946,-0.6693106179889535,0.3525026339587422,-0.2662286058495099,-0.08431509129369788,0.09248314821919186,0.233769376279534
,-1.375754185478273,0.7259954825075938,-0.7035854269278932,3.3621256976476923,-1.1802193134537393,-1.543823244202321,-0.8276501802599073,-0.637805600142188,-0.9767125765441769,-0.20962425530274695,-0.6255730159052977,-0.4218018849742693,-0.05058387187850393,-0.17183489800146232
,-0.4204377775121525,0.15753611796336836,-0.6738238330873512,3.0428147445567935,-0.8183128709820366,-1.2969347668823266,-0.8255473430121668,-0.3636129171098231,-0.23607230769458384,-0.479470026023774,-0.7462449428892275,-0.14511814413228047,-0.43326098630718585,-0.37624356012522076
,0.3432343766734649,-0.7778673247666777,-0.517767494500196,5.9738868565073675,1.8973548296703449,0.11639420975456759,0.41897350259985316,0.5007075523707903,0.6956001733662405,-0.32577154031813055,-0.7211433604188018,-0.26264721524118695,0.03816976983779887,-0.05181592496063229
,-0.39343756152369624,-0.5823547495433578,-0.5359177382920536,5.048065038098901,1.234653359728578,-0.7497434545642144,-0.37319571219335024,0.9632088999799047,0.0724467295586314,-0.4317782829270647,-0.07083048187348083,-0.7184099703193462,0.5182152069010748,0.45489465848926075
,0.13457595676455208,-0.5223381108042265,-0.05325929267247057,5.522996767260314,1.4205214753041993,-0.4949185838726268,-0.6313988501350906,0.20717908058841716,0.038594941783271434,-1.0784030334605934,0.23656745758300748,-0.35386308463877786,0.4527710513604396,0.42151659637102484
,0.04873314620803588,0.12437865518746445,0.31815475524092135,14.922013264349962,1.1759611319985794,0.013286152148445753,0.32706872977387036,-0.20718725827109327,-0.2712031008724294,-0.9751508899192279,0.03152053207213545,-0.1256623898270357,0.4321500873459158,-0.16024835903206502
,0.3362292806719549,-0.6558203534673688,-0.3299635615730884,8.59908211801726,1.7236571714881106,-0.04652818106041375,-0.23206799316904028,-0.2515156115082687,-0.1846934059138415,0.19110367243763157,-0.023455619296398136,-0.054512860237092384,0.357870876253906,-0.17678927731833557
,0.6953883596517852,-0.8328537314358108,-0.562019342049422,1.7401809119861058,1.149236538002214,-0.08228189985767734,-0.4219144778266192,0.15348816709496343,-0.03750126425649664,0.23625524088290165,0.1477884199275624,0.15858870507252681,-0.3751780762702343,0.34582266813350576
,0.2537847922416059,-1.0115390947288638,-0.29624114340961316,0.28990417851794714,0.8782671605160521,0.07048874152687047,-0.2482209003465293,0.40724429467164336,0.21972493128612122,-0.20241767769700478,0.3369728839465317,0.692505195583007,-0.26708128410904086,-0.13253391175238802
,-0.2186521961260572,-0.00937052433072972,-0.28306402055322094,11.812045437879524,0.7597593693133083,1.3838976791893993,-0.11811695859369006,0.18855110716727488,0.24109561748195876,-0.6853690186126983,0.9454283044737262,0.3406560971525225,0.15532937346533557,-0.18573076236328753
,-0.1672176960669139,1.2526653210868743,-0.2412823206608507,8.056021923069492,-0.658886916497632,0.27670947249115807,-0.7557132767331174,-0.2905931756408881,0.11059923277958353,-0.4876964245104479,0.4307290100154279,-0.25263539335468516,0.5079041156692478,-0.3542316738843309
,-0.07354343033802238,1.3104518336366553,-0.20072686714615015,2.1799205572526157,0.6678047527431433,0.9639837368539261,-0.14816252381223485,-0.09161902553424944,0.6212370277925435,0.024050076545450483,-0.11005169108486318,-0.3724436678022129,0.184718081224358,-1.266227872303009
,0.82755623933868,0.4703825265052671,-0.19131226903586435,0.5257454033252155,1.1140972107102338,1.3020408981972111,0.35457767861396444,-0.17786471716883506,0.8109487099871092,0.48319861473973524,-0.0537638278369468,0.21844809664933088,-0.0526049757862742,-0.9872482505661356
,-0.06498927996504254,0.38956377092710426,-0.27952154279307684,10.25658812286432,1.6072204886911892,0.6283667289576003,0.21277066736787875,0.43493524168230424,0.21870602906612227,-0.5014421859352405,-0.29913941510094877,0.16199913874187064,-0.24254679457657066,0.1301034156590501
,-0.1527344554837043,1.0598228672240158,-0.6200652310707356,15.452162713268123,2.0111698478335973,0.19561284757445105,0.4814589750108769,0.5810490725863172,0.10540842311967333,-1.0920075295666924,-0.027885701817416064,0.025807387182691134,0.6124996681680498,-0.24375402654386275
,0.1221574468650387,0.7566973255630403,-0.5305603558381448,0.9330069624847971,1.2760057479377929,-0.04351367089752125,0.6426289183181111,0.38790112946243116,0.34931731491186563,-0.2638535882297053,0.4296197420542876,-0.08950020105470508,1.196145989178905,-0.4605759317785909
,0.10560977575796103,-1.00641050305605,-0.5068489422571825,-1.6083300363017212,1.3481961438517838,0.004277844873316662,0.42320839106226665,0.8347408441040769,0.7074630933463121,-0.1359429812083534,0.9912354358576997,-0.06159467476945825,0.8211915238735729,-0.5332281552257526
,-0.031966145683220974,0.5982509396012776,-0.42104800988021823,6.203745540609514,2.6649126199481454,0.6289715125824853,-0.16634984377967824,0.3790938056181,0.8361629637354381,-0.4116053273935774,0.5894030842169226,-0.28816133000738664,0.33356453607570963,-0.35264250569629657
,0.12047561588393044,1.0361316862565007,-0.38993395940195674,8.563620155709659,2.42375135285264,0.6475440987939572,-0.314913795575845,-0.26968915863990234,0.06416384403278041,-0.5282878053685214,0.46287737318774314,-0.13675284605502422,-0.2609008137668162,0.011957984535102101
,-0.09402763877084776,0.10551566189725727,-0.39784373744235974,6.90309685510145,0.8304278634593807,0.28081748563088627,0.09908334130816629,-0.22770044990942254,0.3483832402033291,-1.0371576302288639,0.47977902285846763,-0.40448382163850977,-0.684568987625292,0.0616801852033305
,0.10038043885273046,1.115798401624668,-0.6607959892815778,3.358595778672008,1.1621564982509613,0.7673169327369385,0.2801196499452124,-0.14369660762598985,0.20529964417554336,-0.6693448084161169,0.47980508208333117,-0.7107985151459378,0.12488529776209101,-0.9674339760862518
,-0.17100839543483773,1.0889142098812297,-0.4749653027350263,-1.6703606668741418,1.6317068955127436,0.9376392888619055,1.0094841546144495,-0.5916278117649022,-0.6120079122211454,-0.14449646183073028,0.2931258738475311,-0.09758620023448293,0.1534256041047357,-1.2125739823216162
,-0.35878576749460767,0.6656634559678435,-0.2209413602666934,10.222655927722059,1.1384456410955421,0.551060982866882,0.498816326955242,-0.16313415651756707,-0.2237448088729039,0.18054849590633795,-0.5236271589409108,-0.13097033981856682,-0.033979325844582194,-0.40738014664191174
,-0.3772157516344714,-1.8916338271494166,-0.3648046368097945,4.578034455463422,1.1466059557295842,0.20732963783940084,0.0048765437408285275,0.6005804704103817,0.20339095287780612,0.01620239071116852,-0.3184420782848617,-0.3532653278411463,0.4059317094783987,-0.12354563050369699
,-0.0294977725861447,-2.7150577636934625,-0.4571657673466839,-10.701391600897459,1.3866682220315518,0.21286034155141512,0.07220625715831569,0.31926906939103983,0.27528136815124354,-0.18708795999155825,0.38649527748307794,-0.5145264061953657,0.7397089844536514,-0.11327133472120308
,-0.2927024279244781,-1.6886558574769623,-0.27295966271512706,-1.8191571088750687,0.035889407848504404,0.8197667661069818,0.4622695717763544,0.18527049332257317,0.17666637785555359,-0.3747248555148187,0.7315676489621309,-0.18458767988796876,0.41338763170800563,-0.4388881291719359
,-0.4217531944572557,-1.8446399220559222,-0.4883350004674366,0.6909296362229872,-0.3372658850623363,1.0280553881636794,0.3986900758995116,-0.05424578627963842,0.09801221711431105,-0.16686632097261248,0.8379233492471242,0.09160421936041571,-0.13075985475103657,-0.4414455718745418
,0.8262972555204003,-1.869189614189152,-0.379883635794254,1.588372799083269,-0.3952702622678957,2.053379200518544,0.11463623260401125,0.23530359503633658,0.4271861503393876,-1.2633027978120164,-0.4432291342282693,-0.2808669274321925,-0.15166684594041954,-0.3824496054752967
,0.7346456382173264,-0.1990421489118296,-0.3900351452981098,0.6934153062085856,-0.033330952978140566,1.4624118375531172,0.009215913314413526,0.25768805858592625,0.9092957396373503,-1.082856273348109,-0.26365692643428257,-0.04568549591554894,-0.029463329399799947,-0.10474131244103677
,0.42649910989113105,0.6789691251978793,-0.33693269247030394,1.3464852115178958,0.47172673593483844,0.8536323209804427,0.38958497233050043,0.2704822972304735,0.45163039531716354,-0.4886445330683481,0.6085523791046602,-0.07548959577334521,0.05842930160487661,-0.29123632224749524
,-0.45861531727212834,0.7709579684796732,-0.0007217406799080532,0.8414186242479261,1.1218372031399684,0.7490148466332057,0.06238069786959195,-0.14568176894049942,-0.3480024345088477,-0.7907010562588589,0.9359194512974414,-0.3799479233472583,0.7491820692626785,-0.15697968649158206
,-0.45564803369475915,0.7008553390788421,-0.34234838944688484,5.59653118657488,0.5862829884655704,0.696102593034731,-0.7251022446361324,-0.26178471996127706,0.25845804045588155,-0.11512450431274299,0.3878366943163432,-0.07682854829320264,0.7779701142590932,-0.22149204537925857
D1,0.03799310287343533,-1.5696596211448004,-0.16753981663620818,-0.1299956828396436,0.8008361133212549,1.3515253460345205,0.3518815429845655,-0.2965536982937664,0.44471295545882517,0.12964756465325056,0.09528492339744506,0.1281183956440912,0.002656500011909542,-0.13946765618075446
,0.2921267714997126,-0.7825380119464724,-0.3823182016090935,-2.242792083473525,0.41921862582116337,2.130111709425983,1.0290576387396244,0.113865204285676,0.47722798141155764,-0.35007085393064763,0.095303017462991,-0.27107852361496715,-0.3520888439708311,-0.08686930701966178
,0.29277886208421405,0.4322913881965728,-0.6205426971775446,1.3509246093530556,-0.9521865934445808,2.056041798669768,0.8396150594060251,0.41308835981510394,0.23351319403299842,-0.9684742322159943,-0.1669821876033048,-0.4581736175888409,0.11757426795987809,-0.21742539697223148
,-0.5102295862251961,3.243610636984835,-0.34646917525272203,13.790216514186174,-1.135560938091648,1.0042285631158923,0.7418680001899947,0.259336368139699,0.27732136256218703,-0.21721242534650698,-0.24110935574812958,-0.7764000027074018,0.47920231828640447,0.20513150157252444
,-0.38205828328477087,2.749329558199319,-0.4980230638879981,8.72555951308787,-1.3548740589102883,-0.6062908547544255,-0.27729294185372655,0.7178797150257838,0.2843585386856785,-0.26421566079225123,-0.301512098447506,-0.44365921366273514,0.11527981516304903,0.09624834134994514
,-0.4007573527074263,0.5988929091401057,-0.6646233676954761,5.3274573526493585,0.46293329709306763,0.03246246034787838,0.12610421109182218,0.7092872411897173,0.5847154052096936,-0.4562710134901304,-0.2314274035005776,-0.3621739662384187,0.06181565627148513,0.05404673700866347
,-0.006440189662176071,0.7813437126678399,-0.6522601078099808,-3.976592777888786,0.4267124697862843,0.17999663798758261,0.6326629793910843,0.18895396765632155,0.37262907256138617,-0.6637686332067988,-0.17062246212596047,-0.5847497347915259,0.18835687992954156,0.14352264160046024
,0.13639918966239822,0.05535877951751774,-0.4871078730091126,5.197899261001877,-0.44285837694184726,1.0783655712450106,0.021840640687657686,-0.4774038780842939,-0.5941447936112558,-0.8728659673609062,0.08959173190796299,-0.725264320603042,-0.21026614371572494,0.15545116187120112
,-0.41949580726290736,-1.366167648465634,-0.6037449258084501,12.077284330031636,0.46190612750000604,0.5284481030314293,0.4089618533856314,-0.3230376588793567,-0.037666859366643525,-0.7683249278311078,0.6609018885614059,-0.8093560629509209,-0.4872947934720634,-0.11948086098672936
,0.2347149176123624,0.49339296629884144,-0.6644098640163614,25.010094902213243,2.2844348152537606,-0.17209294707522685,0.15456544845137732,-0.23608968784730383,1.0430820657152378,-0.33241381915185375,-0.20339572999790317,-0.36422079391027323,-0.05069363340772201,-0.3018067243530732
,0.3578958029493144,-0.40713326395256944,-0.7079015958646894,37.22384786353113,1.2002995303079913,-0.87698370857931,-0.9925795625079622,-0.172041526859809,0.6708296435169953,-0.1706412650432871,-0.14386805947927264,-0.07458721228685379,0.2154862449838057,-0.3089955444763247
,-0.6189869519945661,-1.7077583584809235,-0.3491636840056833,22.502647521162285,1.2264635462255806,-0.4544739050878951,-0.6305480112039806,0.3864556545604585,0.5060998028787179,-0.2627782313968786,0.35205897386531504,-0.696894576518679,-0.24856602661653387,-0.0876521939043161
,-0.4438363923791697,-0.03130049353487702,-0.4040321166279056,0.5470057412722419,1.8767479053174794,-0.5413642753386784,0.3379550875890415,0.45556269233897373,1.0532450376007523,-0.05389254883285323,0.3704653153759123,-0.7101128681119682,-0.4760391899994169,0.22215326460217918
,-0.3578351341251244,-0.35623053257091025,-0.5961983650555002,-7.761345962220158,1.502196105005297,-0.5853639379258385,0.3154660209826696,0.11151501373751362,0.32396755992694326,-0.1411431600518377,0.7783748389171036,-0.3642831756560292,-0.3627817488980742,-0.04713414402659513
,-0.09490857373482255,-0.8215937455133182,-0.513261176624002,-2.3786828032857805,0.9861419473152131,1.0573455542639767,0.5312140462629179,0.3422675317341021,-0.06856546148890455,0.19593384335230954,0.5363099593019487,-0.1568791748724344,-0.10892365162270859,-0.05730077148179841
,-0.16988303229248874,-0.3005683722810469,-0.850553728914578,6.172277896853294,2.182288694451317,2.201583682343106,0.4710761952214167,0.5852629734226239,0.07138274384329267,-0.0833801847029172,-0.006762326747847818,-0.1645927934045217,-0.30094478694035987,0.16993934463425434
,-0.39638234270740785,1.0532331695887889,-0.7803934790143991,1.5390186672973885,1.6534406927107221,1.3792163893826854,0.9371779346842087,-0.006643458896616417,0.17262282257440348,-0.3631141473597224,-0.12239984585369386,-0.15267902976186717,-0.3846894707243554,-0.23495513821953504
,-0.4009482495122869,0.9856614550640057,-0.782892420716617,5.1991933158775945,0.8036484232467577,1.1835178142561849,0.696742758188855,-0.4623854456270458,-0.21960530243607507,-0.428704721390516,0.03328038866231009,-0.10144149398591128,-0.40944532390547944,-0.4322569398053877
,-0.2372760002317594,-1.04286150871814,-0.41907158981993115,3.6590815502905634,0.9393718304415632,1.882935474849103,0.876669929326366,0.11626697093243198,0.14750217644358746,-0.18333856436711293,0.49620194684915664,-0.25724698294758663,0.3501379537951721,0.03530467172856442
,0.14903594245227825,-0.8894077703931217,-0.007890492891401271,-4.276327623916387,0.7268829219985533,1.0511217001986588,1.2279913214109424,0.32612793385408234,0.27645565182524934,-0.47953896848812877,0.0738784130833581,-0.4402317916333409,0.1002138193664394,0.2944060684358979
,1.5992642771799448,-0.6824292747864991,-0.3001995738381519,2.95757466320779,1.4515387952272565,1.27869222462495,0.33013050836571217,0.20412468786451096,-0.033289868549842797,-0.8678369959022268,0.1859064136365339,-0.302784048874716,-0.13879548031995365,-0.10006891478226994
,0.6732877308695633,-0.2205082842092319,-0.3916293520513679,15.353528754963756,1.900993460717793,1.0652369140344093,0.2597753602537929,0.917485640090274,0.4975486580377861,-0.10754890083777206,-0.26115546221349506,-0.04661138024776912,0.05465507726789173,-0.367486808700089
,0.30303382166781884,-0.5810129008429786,-0.27496162174653227,5.954362227868462,0.9607759174763487,1.2954625974053318,0.6629146022910359,0.37282299464770124,0.5976313359424725,-0.22125065975777414,-0.7210465436134519,-0.42066665374754575,-0.2133298961127807,-0.251359274372529
,-0.3130396221457683,-0.3556563579156929,-0.2633216101933991,6.500670033220001,0.18360778600729546,1.476002238969375,0.6023461629538789,-0.3081428088412172,0.23783405434789678,-0.6661836740288978,-0.5261226069444525,-0.37937210439003216,-0.46086554168838356,-0.21826117719190194
,-0.3516541444528338,0.9523364352391535,-0.07707780066924697,6.420275458723792,0.5398643435683108,-0.27126632850598215,0.18279732900488027,0.1501802007270926,0.16746052243669712,-0.3892271948495665,-0.05953693028422227,-0.5328915036780656,-0.3357945352209042,-0.28010369005070024
,0.18831729234482228,0.28760468930122296,-0.3262668533149519,-10.955478533118653,0.8204028561757208,-1.2830553318247597,-0.25094775996056945,0.6626307838679172,0.43856990655573563,0.6195408733512793,-0.1254388898747722,-0.6075375129238568,0.08491227419039142,-0.19185339596051862
,-0.2567026656936876,1.1902911916549506,0.04878754141492067,-22.450907163451916,-1.0733885834515762,-0.7855692122251191,-0.2231679024875672,0.7744581835489366,0.6716978506011928,0.2794010061703807,-0.10160588010920445,-0.655240016195315,0.7234820537050921,0.025297120308273417
,0.22270357385112982,-0.003473372390431928,0.11284074948905186,-17.393606907054966,-1.6371769142972936,-0.567103062738107,-0.24146347183842073,0.020992127740693593,0.556033381404767,-0.36182650870210203,-0.00711055130612053,-0.29154567560331046,0.2322486692108986,-0.24670822521452335
,0.5690260679982816,-2.6314782307366005,-0.12562925266524827,-4.356789579433184,0.1846802134688924,-0.19163622544478512,0.2778456187049181,0.47740541590764574,-0.19238682782413588,-0.708474279300041,-0.0953684194080187,-0.2650001862400215,-0.2672242432495891,-0.15556589321980285
,0.1760647505373745,-2.786969170849707,-0.007849067498973331,4.37494929112171,1.1614473888472527,-0.38696112952754474,0.44245813733430345,0.005015687217983123,-0.709706200032576,-0.12721708734715387,-0.029854206613874574,-0.3262722653916683,0.746992990230803,-0.25463230206294557
,-0.08535163374735288,-0.2121813006153715,-0.1020565176287815,8.674610843929052,1.6611232092464427,0.42005457230201654,-0.03874423557799345,-0.30685632612929875,-0.4001362021403928,-0.2915057592233641,-0.7381613758310344,-0.027301141874368592,-0.08246578590411717,-0.15761244574036767
,-0.6048958540883519,0.6108730061630492,-0.1465580760241664,27.286992571727847,2.3288467416105667,1.0132652374522908,0.22874575429306193,-0.23574001262820587,0.13644339203669573,-0.18619633799143112,-0.4710706906642432,-0.5370844298333342,-0.38262059118674696,0.03547759150349893
,-0.5741881106292751,1.9022208290072031,-0.4787346692711498,3.137226521990893,-0.9225193406152189,1.0510530361157147,0.5073624016991186,0.052224506398205375,-0.038112426688790356,0.5114116924563245,-0.17610458209998867,-0.9658198768787978,-0.1893447523260176,-0.3941468364317096
,0.0801013530630793,1.6163537986741547,-0.40528027982441583,-4.642629618950024,-0.7123016326404499,0.48615351107967253,0.4548227840853285,0.054932929979587354,-0.2735351160224575,0.40171929985618704,-0.568515669135757,-0.4452521177156484,-0.04603272631982389,-0.3072670336045987
,0.07765545402558627,1.0345065495410402,-0.22397073961773978,-15.706490837058542,-0.6118567063559313,-0.47639040941254307,-0.22371737967089916,0.7433177701254501,-0.1774956653773156,0.4068997294102811,-0.3367248162962855,-0.30541064752024966,-0.6303430402996566,-0.35987341006817275
,0.21055662548490062,2.2453560374012658,0.03442264510075143,-13.95463372344923,-0.7819131557593572,-0.7899329680233036,-0.7304902416181154,0.656427767015352,0.25211756225447923,-0.05819192605198765,-0.2960155427366499,-0.507487508057322,-0.34499502023486545,-1.1549252624509228
,-0.018280164601291615,1.1165540005794101,0.47626791354379044,6.572131225282344,-0.6658286758441603,-0.19439905676486638,-0.2802353017381056,-0.11090922437374241,0.04988496555272247,-0.8564385670644895,-0.2893543991700067,-0.24646368092010484,0.06381584198729628,-0.8633188418075094
,-0.4094943649009991,0.15671444649015798,-0.09012878256885865,-9.751042893617676,-0.4342962854216923,0.35103735032106437,1.6449981800271363,0.25673471923612196,0.2978596636979835,-0.5747962385755637,0.04804995377424863,0.020994103046296373,0.6642897066589959,0.09764812514512627
,0.2795504003306809,-1.7400929210732579,-0.12486685701297336,-4.496482965557796,0.6369384895709831,-0.43903310369532333,1.664695358986213,0.21881250588551573,0.4448596186278043,-0.6931951081169121,0.9916686638925499,0.281077116404393,0.4221508268214968,-0.041614768845811737
,-0.22735141027318986,-0.5484611502758244,-0.08734203558485634,3.5015783552211746,0.4425226237596406,-0.6054068122013534,0.2437165474511686,0.11558117622182817,0.02513265852445647,-0.8815705973366311,0.4221934936960294,0.2572668592078578,-0.15043542241133515,-0.1144269873707372
,-0.05834397186738397,0.04491110465322111,-0.2839859888488245,-8.245162346897644,-2.337396668764705,-1.0373438173445073,-0.3744425985427524,0.08676470899489032,-0.14259531012373985,-0.9599203653106188,0.22949088137862503,0.5264423815747563,-0.17840771024545837,-0.292856358743154
,-0.8480288919231885,0.0800506062290835,-0.5595549851605499,-13.371351670841046,-3.1902392958602976,-1.1807581658217168,-0.5250599779517062,-0.10338019173803781,0.07672267027374961,-0.39349902602578907,0.3525263733891517,0.4302070708810176,-0.04333991470708278,-0.6418150039301166
,-0.1080817938570179,0.174278480243547,-0.46963922727299906,-1.8949681520928512,-1.6832376527485704,0.3092191231446878,-0.8023528294117518,-0.23354958795876685,0.04020447131298386,-0.23450640834196232,0.40675794770984475,-0.14387115470121853,-0.007342735496189555,-0.3679192168237647
,-0.013819316027780025,0.15248798012457832,-0.647725717903161,-1.7937320998909962,0.9575910553323881,2.2296807490811705,-0.5994745066961128,-0.27217284390668234,-0.346484045103397,-0.2988123030679557,0.4949842167708742,-0.3694272721475647,-0.2889642194453756,-0.36145707726640597
,-0.022507721423837706,0.1222825250167753,-0.46992343212266763,-4.036019441764767,1.5840351597131406,0.9397868164415445,0.3897792162956231,0.026792292872007763,0.5217360202761506,-0.14946584966709037,1.0371774239385738,-0.2336107402990629,-0.3751115017994554,-0.16762385576029734
,-0.6837870704747759,0.38401097068364454,-0.5647369998538857,2.2602379407746462,1.38231135709164,0.26068464414198206,0.5226731317619637,0.8068129344986784,0.9422942240593818,-0.5318835392099034,0.4066741512426726,-0.4244387253919044,-0.3438292719423704,-0.06345554029196764
,-0.7644531711795106,-0.7888010486302478,-0.3754580313404326,-4.390283157639524,1.6691557939713537,-0.4419281024340211,0.6035525989145345,0.06356817892578454,0.027716955277415984,-0.5990402862425901,0.7939131868404544,0.02142218308062119,0.4028852259190209,-0.13993281218159911
,0.13726469983148584,-0.3277771876262467,-0.2010127022462161,3.7877799580709324,0.9638704669210324,0.3549538518131384,0.2803664792530367,-0.13398460931284428,0.13686589887028672,-1.0398930646550644,0.20669228252380759,0.2541493296823122,1.680461409940532,-0.4723688312650448
,1.1536009702155705,-1.7699045446439994,-0.2946859243559975,4.7411616656627995,0.21952153789880213,1.717571460551537,1.2540267838565597,0.30206062120169164,-0.19812040451168722,-0.7729618645974303,-0.1828765853461309,0.13833386760165017,0.5540848620447123,0.19238084355542567
,0.19103841618096631,-0.15357147677540414,-0.16146191541242,6.449357224774436,1.571427238717643,1.9104270095155917,1.1032703560440376,-0.16138224128965697,-0.08477520575269253,-0.24586780222732812,-0.20032748094481112,-0.5210592296894421,-0.1399648823824397,0.5022328893248454
,-0.4892161150811306,0.38618053268883157,-0.7136198510366776,8.666538673898577,1.108677891120922,1.2676165352273188,0.796853055219567,-0.5562507079801629,0.336743389720788,-0.29167046312584105,-0.11413109757290613,-0.7360012686297789,-0.3990849565235121,-0.13814743673148783
D2,-0.8133625688601689,-2.670112337740673,-0.6153604161997914,1.455154080077171,0.5108011461013952,0.44395219292677385,0.7535801140598809,0.0043503758580086625,1.1420004634787109,-0.4212943186205535,0.5399669772396313,-0.7126935484893284,0.4149594776458883,-0.14892005858877533
,0.05985528431594162,-2.44903220154314,-0.23637777961614637,5.200831466930528,1.7274924960955722,1.2876237306726157,0.4207187944568948,0.2654089678395539,0.8625529061238963,-0.40374224361878797,-0.12939772424558682,-0.15692457063980303,0.4539333131029558,0.024204872752974036
,-0.08476994210436999,-0.7925795393746699,-0.04152413092373024,10.259867696794709,1.1572390919731816,1.823124708549809,0.028764132875404625,0.3800535883722722,0.2107478001513152,-0.6474808661158538,-0.37148585935264,0.1705060494234089,0.08682391489485525,0.343220364608069
,-0.5674344482940212,0.3295295978877186,-0.3160214248734295,6.019136660819233,0.22373845478936674,1.2329614502422555,-0.29618042939039885,0.09896897721657075,-0.30544456826219035,0.24073584749005436,0.02494663890352496,-0.37591423165062265,-0.6893990455920194,-0.12356666234349084
,-0.037790878548039676,0.3802500671976556,-0.3758225143679023,9.181399605352498,0.7342923414388296,0.49430736321540797,-0.04962000708166917,0.9124958567147058,0.23615397533590432,-0.02681946350429772,-0.38610868455614145,-0.6971125003958571,-0.8727298009960279,0.010376610137231993
,-0.02512861649075881,-0.628892076812493,0.2969546292198808,10.157722126399904,-0.87775869668142,1.456854651134221,1.041690166383882,0.272155956714822,0.37152921651998827,-0.21244099206008668,-0.10321913984852381,-0.3767422303102757,-0.7976990297632196,0.05237045898392065
,0.13864411489590225,-1.95878184840274,-0.3943635074925597,2.9409855872724986,-1.2953904167208135,0.8427205682823585,0.9448561385952722,-0.10992505456939326,0.00439056304228858,0.386199668144298,0.3047662466663151,0.3506177919047464,-0.5374417801340001,-0.1619951887313109
,0.2659848917792159,-0.4404299977728203,-0.4704490254717481,1.1833882165610714,-0.5684752912856061,1.5105782463904347,0.4811648409472719,0.26627715011121605,-0.10358857216367108,-0.07370858558608984,0.4244003565433268,-0.22802639853826584,0.6743139404455788,0.046408766073307975
,0.22339755549828588,-0.42864840287401473,0.06873069333179015,-1.4110644578225569,0.04007526670369883,1.2577348510921225,-0.1802267501630627,0.37232759385144326,0.546657418024204,-0.20944283700223162,0.03835506736840823,-0.5611265835278646,0.5173296821924573,0.5304376655001973
,-0.4692643241931573,-0.09087043106910973,0.3507097212512678,10.968987719772963,0.26035922931865535,0.9617359757593049,-0.9652193285005386,0.24401230785073708,0.8331333996692504,0.19235054999954018,0.1929229946989274,-0.6049596696135833,0.3208265229659041,0.6944206881823665
,0.1701810597502627,0.5576889358107058,0.13106750457766903,3.8706808281010567,0.4127745919870825,1.8423350304017851,-0.4177438878317654,0.5202230828296611,0.8512666880702541,0.11476975921235018,0.4021934342157158,-0.30453068699304264,0.3087090768925747,0.16455961491608906
,0.4273476311338321,-0.24584316165847894,-0.12794638823983379,1.9591953754125737,1.6561167422662735,1.893700248229434,1.8960335346511115,0.541793005052426,0.4546446645732682,0.40471336637117816,0.38013146884116905,0.12099206205217641,0.782385062815624,0.015462026865186995
,-0.26180990299119705,-0.5201183335902493,-0.49504324258976556,-1.9034872902466484,1.3123048529943253,0.6018821429944288,0.3464069117431317,0.34950955110292525,-0.2137044938862759,0.01380498930637623,0.16879971079158643,-0.27770160655711973,0.5609304988332358,0.11245330584557285
,-0.2962720074947576,-0.7693221970036692,-0.7324205761709028,-2.2290380939030103,1.2010726271596142,0.7325337374343514,-0.382886559609286,0.3286141975075014,-0.011679659116400561,-0.26232250733588613,0.14192949464624055,-0.49850339332882604,0.2942474761876999,-0.10798243373324096
,-0.7436413025511875,-2.0865936454136254,-0.8945624726344922,-3.7299953323434716,0.10189185993470962,-0.6998580462574802,0.556931253313225,0.070833671558589,-0.7644701168033267,0.6319522836784036,-0.3691910651411776,-0.8511176750445896,0.8786053945237199,-0.3973546746648803
,-0.8365674963983705,-0.5104012257401098,-0.5884616240663892,-0.03990895754483678,0.2410028895837487,-0.4507098966305915,-0.6888025301099764,-0.6079660826301903,-1.0683249403613184,0.33490124122198056,-0.38022588033526866,-0.7402456249489878,-0.09444689800785151,-0.5535621766318626
,-0.7082173508790266,-0.8289274274131365,-0.2745013652730724,3.142415708334948,1.3327912402408368,0.012171492628060719,-0.8729265685687737,-0.572070095872961,-0.4905110464899287,0.24038856353467786,-0.3554106196342237,-0.11331387703603218,-0.15611127685011209,-0.31545264770266684
,-1.2116970328304082,-1.166733159188589,-0.7732268141361652,-12.980475092992538,0.12243147227021701,1.2221290958114186,-0.25094250524078016,-0.5643414785939613,-0.4965065216594245,0.10601565586618139,-0.2594423939177594,-0.6804400742056551,-0.023296375575561353,-0.6600525456726097
,-0.34470813859214194,-0.3680868050472842,-0.67923903914365,-11.24351072904709,-1.0726021890137627,1.969755455030367,-0.18291192789964658,-0.9695912449505006,-0.4998876506144498,-1.3442822505261183,-1.1937933787928299,-0.5186268933817261,-0.9761925060909389,-0.40931281269632364
,0.2541213804140213,0.18035222948336815,-0.2367005966552646,-7.5937188417609915,-0.9164653958302091,0.2028283795475527,0.6308261264391852,-0.5973762946839212,-0.3257852885601387,-1.1763343811316642,-0.8688144647156966,-0.22433205738560577,-0.608216633522846,-0.2631842942662395
,0.5278125581368333,0.5020877938425687,0.12836451807328378,-8.46249958370931,-0.9159154941827655,-1.3973124350893247,0.16060013311526652,-0.22610202925966993,-0.10783106358746337,-0.7112551219903184,0.0021728279627319575,-0.23549966411109854,0.38788650416986004,-0.08587333864669608
,1.458118584805256,-0.7027923364035511,-0.2841016471819589,9.408224785305714,-0.5170980584772111,-1.3038298176658298,-0.19917989777314107,0.011194641522552961,0.20470507595771328,-0.3050765651689114,-0.3195051225137942,-0.47694842624928563,-0.08819305372653476,-0.12430510311717159
,1.559480050271959,0.9078364502456816,-0.38695949390982254,-3.04920208652017,-1.604527550017165,-0.4991486204908347,-0.4650919682755768,-0.029917123402038472,-0.09140584992035335,-0.2910686731307134,-0.49823435984795084,-0.49817909759510076,-0.11520708767061578,-0.339821439919861
,0.9204466769492939,1.4134044029988815,-0.5669695812776903,-7.927015373912974,-1.8449928639554993,1.2742879500432995,-0.008791858440051363,-0.33710936594558677,0.08449418280926563,-0.31773401692703584,-0.3401038200604008,-0.15965018917654258,-0.06147291020474948,-0.584690366397221
,0.4108003710154899,-1.5980693676371516,-0.6028746866538185,-2.4471566508524023,-0.9418712811449148,0.2713526352901805,0.34305129566332415,-0.16526506942969416,0.6700250059793682,-0.3245175562797316,-0.6507518111949355,0.15767954278073287,0.16546531797416425,-0.4042469574741123
,0.1966824745211934,-2.099626949063997,-0.682667755779703,-6.131842230612795,-1.518069098663128,-0.5194888732003006,0.13490783997549907,-0.3075839093950702,-0.27156887615101033,0.21598982969986774,-0.28020051273529584,-0.1599568288891699,-0.1970990424533991,-0.28414392478609257
,-0.20593495161654995,-3.156334685629264,-0.5673092900698781,-1.9475476245401029,-0.956841749057388,-0.2618482622749277,-0.06103460385768682,-0.05261986931573688,-0.5939594919896368,-0.1303177646215972,0.5532235802697941,-0.05654031660052356,-0.9202646952737193,-0.44998908011666006
,0.12154447978532364,-2.0255240225084483,-0.13400480687349817,0.16993742027872427,-2.305131366637219,0.2010733237245515,-0.02397059967144379,0.14329558144577595,-0.4737788838036393,-0.17764992930927836,0.22221343710339733,0.27119845720559116,-0.3400445829966167,-0.26874700744986957
,0.9607882235144419,-1.2221780957400317,-0.5441935354549537,-0.8131460552805404,-1.8825789201489733,1.7194544701180308,0.01912407521885112,0.18940678543501188,-0.5252247748888167,-0.3935340497144523,0.17051532635937774,-0.06949482566628656,-0.45135079051818533,0.16896900638124268
,-0.05895237321941927,0.9904249884694042,-0.6251863313207716,-8.61721022913747,-1.8535114139036417,0.32229702851618824,-0.2502015143941534,-0.5455164565183206,-0.11795179401576751,-0.6265231723386925,0.20611628384590588,-0.1762195593383916,-0.6567325703910354,0.2138103378333231
,-0.7564369583054561,1.052711655202067,-0.8577126534625926,-8.734321349320412,-1.4447230310754346,-1.8468085081170504,-0.00870774377359016,-1.0039060408852136,-0.7821271781659778,-0.8084954221021452,0.04755176362376759,-0.3061662045857257,-0.567145466065614,-0.11347392186193075
,-0.5573379323497617,-0.35936906802004526,-0.41650552276353686,-13.608149348345343,0.3295953689702212,-2.101141230856964,-0.646629434509918,-1.035656096798164,-0.8482463178062218,-0.18363294115270626,0.05674414522061922,-0.20678469880715422,0.08370392225011287,-0.01744081946312206
,0.46833545445652563,-1.0379209743457734,-0.12753967961140747,-6.770643641941796,0.9370351545664877,-1.3024161946019048,0.22422467430743276,-0.24569847239796844,-0.45279887764139065,-0.05875760245414288,-0.17093065518079625,0.1388968965048028,0.8989277502610369,0.05400821270233629
,0.7479800127803538,-0.9845151896922626,-0.3902425237874019,11.622479061108388,0.9435066216365352,-1.3550409279522846,0.5629871656062984,0.28566325135835063,-0.14752187931130742,-0.9325038344116204,0.4713407221170381,0.12297012770272804,0.24389082223391104,-0.2163241280626464
,0.7492968511098276,-0.28101696224831463,-0.30339962997893366,-1.4951786664071085,-1.5676268970138862,-0.05695420898234249,1.1067716840035733,0.01946150567636266,0.1302886364611474,-0.5391195042910141,0.3210845390989698,-0.3743314406797712,-0.48009173911025005,0.005684336771228123
,0.7245594914329586,0.1197920127311128,-0.22448176243823617,-8.502153962886059,-1.4096823096857838,0.8323973411886187,1.032906872910949,0.2586487278749019,0.393926084492844,-0.5286514819177841,-0.05190680793099749,0.0440182914402418,0.0851607821402503,0.2465349074155036
,-0.1734602344569731,0.4752742672817937,-0.24253906268466774,-1.669916775420133,-0.7219478874963082,-0.5870658402964799,0.7744829055790831,-0.12697691522312163,0.43136688601673373,-0.8813606834834306,-0.07893692973629544,0.1452558627587102,0.6512607861461025,-0.15196335355241378
,-0.21524104336924413,-0.8055403247052281,-0.3918607451575706,11.995427163073122,0.4136954292186446,-0.12259053240794102,0.49735784878271766,-0.3466407060433974,0.33721717283472896,-0.5023720237203954,-0.15328912672676442,-0.29148022717047584,0.7067308075992454,-0.3017286359872153
,0.15314041027490066,-0.8696021090671286,-0.7753694737013878,6.038985035287804,0.5142166632906479,1.309659159523635,0.25006992409294765,-0.29287479405705336,-0.3275241632734576,0.3537030189968556,-0.3458152350064384,-0.25578357966758186,0.8223901035384965,-0.3079651385428278
,0.3710125993012174,0.22882485931672525,-0.3027910016938769,8.36580369706407,1.1016677455104023,0.9722964641762932,0.020453134118840147,0.1872632010778895,-0.1749644915574585,0.0942754483963778,-0.2738715239532047,-0.39950723021543627,-0.193276405667978,0.14881322105263942
,-0.3550711785711406,-0.6410292352608881,-0.2063090835223318,14.222565542543284,0.8102796750555283,-0.568618220640162,0.2976189863351213,-0.13069842374827376,0.3058735012672494,-0.11411829642910525,-0.21880252599266542,-0.47181540766248575,-0.45298653299963965,-0.14119543938162504
,-0.4898851966529989,-0.4337691854162835,0.17914747321740512,7.518504804834207,0.026243892933418975,-0.45821683211140385,0.47504609623496724,0.12433263790829349,-0.4165886715367644,-0.05379758749203443,-0.3962838610193809,-0.38851880409469514,0.07071771991403016,0.006675168535145047
,0.06195218814906856,0.7663077839480916,0.004843522907811411,8.994599157271102,1.3889315014796242,-0.41113615214566135,0.2924235124190827,0.6792171389664206,-0.1433994130719348,-0.27393994272457545,-0.12997819307506342,-0.11625351627867121,-0.6775796081358497,0.2034035196340918
,-0.2695712415546478,-0.03038636364472274,-0.4908523616556677,-1.083415554411908,0.3483122542231924,0.31245609785041134,0.3258639105715545,0.6454738858806425,-0.12583711593851318,-0.036866208031756026,-0.35903521061728033,-0.27782529184002436,-0.40920982001699213,-0.23517961030768592
,-0.05001279608490752,-0.5754665133514243,-0.5887662337526751,1.6449517094487085,0.2948091507148012,1.4627451001190508,0.17626022463565946,-0.14316675274147192,-0.15859366947323775,0.421707559071877,-0.09549371920233991,-0.27990815037088834,0.85260439360975,-0.33372465548596075
,0.5407545831516325,-1.1109526333152642,-0.5762082136515443,7.6391012940272365,-0.0820427099119272,1.4889103078672292,-0.02191743362144652,-0.24489354263388108,-0.4952849691045067,0.11345332395744391,0.04961244797548149,0.2013317128148498,0.3548293824351344,-0.12368768348735915
,-0.05341971250547197,-0.7110170241266485,-0.4196919431952106,17.15003968011531,0.5404935818539784,0.5811494952125433,-0.18394357325950664,-0.419204058485056,-0.5478126432865804,0.08163190974575345,0.18617057918635604,0.367383805670212,-0.07933953902011805,-0.0181317847705867
,0.5514063787877901,0.12157054511761382,-0.5196070376833825,1.1058036001790914,0.021402955560145254,0.809739908374989,-0.18508378648820983,-0.5139196190051813,0.27309584064903536,0.38665071978288795,0.06187102200542974,0.3383017171975362,0.050430566401575276,-0.13880461023203416
,0.3482042640892856,-0.655519275647836,-0.6122999656623347,4.482439452640329,1.1064458142422404,0.18760646292413688,-0.3120299249088818,-0.08957202810696131,1.684500508728985,0.025371492816308357,0.36253742947114725,0.20030448936104697,0.6269772421369224,-0.2269886498389943
,0.15268761572363104,-0.9079395688374757,-0.12485728286363909,4.456463101424883,2.1624090114693373,0.08711495334148338,0.33644865525057494,-0.05433741303298983,1.4981497568052327,0.045683945393413784,0.3660453208063048,0.3693573438275968,0.8873252154645058,-0.17995143948327624
,0.35968066640649526,-1.220381452289865,-0.22609856546475135,13.917529686516154,1.3271395848164396,0.7299481295423202,0.8418918268959679,0.28275323934824537,0.7037072625999766,-0.48460458616239194,0.3107590762359129,0.22942064589592437,1.2756292667588753,-0.16308413815564815
,-0.00863422353101879,-0.4610285825832075,-0.3541965210979823,9.347699576329736,1.2314304030256555,0.538785357409789,0.7627266857825432,0.5285011045644675,-0.48279623916885117,-0.5987758703168067,-0.00817006233270527,-0.258872977045324,0.29746959373198073,-0.1316522121084739
,0.16145475362119868,0.7163517320016317,-0.21475424734360238,11.22474211804858,0.10148984887103346,1.0681147112397484,0.09326489722634679,0.7873164593496795,-0.7771917511855742,-0.83197316592879,-0.1716959014297953,-0.47963530989609154,-0.13424064563543006,-0.20781135217009702
,-0.5035250495944606,1.0512983461208227,-0.34512856814835874,11.412962107344297,0.5229798685728136,0.620447057760002,-0.2520259365393314,0.43774085260195134,-0.40188603958596886,-0.1706230141534218,-0.06988475375711732,0.05198966558932239,-0.20985800799860427,-0.4287510043250017
,-0.28867774965171217,0.11582389441751603,-0.24673710461212456,13.656541297699684,3.1239632761911516,0.10376559012269392,0.2868733460551105,0.22813019049461594,0.0005909970453390784,0.4738747320548672,0.30856214130377346,0.2698335660501702,0.10381255810711179,-0.3232406973247268
,0.15026022074098497,-0.7292263384143547,0.13087427333320467,12.968464929414449,2.1069055132722894,0.8651206039136349,0.2257151232974835,0.6040711187312037,0.8241210209355307,0.13373238295564502,0.22289153851078014,-0.1499252184738318,0.432720825371847,0.0038411483732961275
,-0.4362549603666408,-0.10471792422366404,0.3716432154486164,4.759268876199495,1.3592878092508591,1.929455168114629,0.6916413163393733,0.9873120248879486,0.7335855572690312,-0.5603036477893228,0.6966689950689215,-0.3612327322010624,0.5623229816519864,0.04780306443930403
,-0.6521128057416702,0.18219028833055123,0.47942491443042434,2.090813218506491,1.354585933122751,1.515274029787467,-0.5213492175851883,0.21281037533584882,0.783810217758234,-0.5707305168297098,0.891059531061086,-0.48315067248433613,0.5269952650584482,0.07254699150692928
,0.1900328142696774,0.2682926473536413,-0.24857821505685093,12.43691992344103,-0.35799890487497515,0.600295180239008,-0.5378955371420941,-0.05518746827956749,0.5953653436149507,-0.31204380858481096,0.6542386921729586,-0.14272095463380505,0.6817399659021992,0.11468549821735316
,0.7460758799218097,0.5653018590622941,-0.3101148281273433,22.835397212060343,0.16895772822751556,0.12167523160419372,-0.3025982581446217,0.32543327445159703,0.8780946928214174,-0.7647905944591538,-0.08389264671911784,0.29249230798025116,0.4657637538718836,0.3325138387004725
,0.7408395682354938,1.0401515271908899,0.02371662081973808,20.354143311073457,2.062320533215252,-0.6857457709217514,-0.30217393072269194,0.6701824866997982,0.5749711525589362,-0.7531192953963514,-0.07918014751362323,0.34627181019330366,0.11854766648444426,0.06257315435531641
,-0.19093600223634105,0.4175297275366212,0.34870461157462307,26.156794519821183,-0.21734624485315274,-0.3785999536744882,-0.05873384669909707,-0.07301473533400517,0.2927942859744815,-0.05806488431854611,-0.1914164351566024,0.18141895339738984,0.5576779170738896,-0.23731323828971354
,-0.15177520880428919,-0.49359387756976,0.42469091137165804,12.748602777785518,1.0973807062023606,-0.01751570418985884,0.21343943321013306,-0.2522956781581948,0.6876344760164755,-0.26742338267518545,-0.5338865674700494,-0.2147837226350812,0.09415636214026771,-0.09431415934884474
,0.22958346160237716,-0.15357906588585252,0.2431020229240195,4.817502668497951,0.4307252989022223,0.025197202031748682,-0.40539774749685636,-0.3837751270768208,0.2910358390761709,-0.3933913182743056,-0.6363087562578401,-0.1497461894152196,-0.25183623554754725,-0.010565162767534735
,1.3456184312138149,1.0605902911930305,0.24621819188321056,14.173613163574908,0.6088121623260556,-0.7387755977285001,0.2964236083896479,0.43461411939993283,0.5287210662157238,-1.2404414145798437,0.10051225083026145,0.00839175379495398,-0.2349128665983036,-0.28279791039584135
,0.8441627283831734,1.0731516774877286,0.18024931664811777,13.360562217559124,-1.0360643360009063,-0.5576889947159792,2.004323770583318,0.42285337051347044,1.701046620898404,-1.3344237186924823,-0.09984966941074597,0.021601687979015623,0.3508121633829988,-0.21246413038062564
,-0.024632312683956208,0.23847131337851787,-0.22605872165307714,10.222372718179617,-0.7044219324156656,-0.29658419935627345,1.0143582732916312,0.25294557173442356,0.6858758022011399,-1.1933858108525275,-0.12001726467940678,-0.7505765498000379,0.6918993508308025,0.06511934195564259
,0.6502132211111156,-0.9282644058814824,-0.5534586020908653,14.64398023507241,1.1218882444239517,-0.14406108518151428,0.37875938318495933,-0.3328186114756222,-0.3200415716632557,-0.01879191736667187,-0.25770555521808813,-0.6391103823957098,0.188405410085699,0.06783481137887752
,-0.019191733726517838,0.652060611166199,-0.35189109800247464,4.265202970414663,1.9334921715076023,-0.7537774206170054,0.6589118767815076,-0.16464427494272132,0.3010085376298432,0.31729958727610347,0.11817856457802377,-0.20652838760542486,-0.14576569529365654,-0.1400595927000918
,-1.11394627563875,2.120840808800278,-0.3131116801956984,0.08086694474864693,1.0152870354952308,-2.012044820034956,-0.13366950225217167,-0.238581985676997,-0.004796089948874604,0.16195645511825132,-0.3199612039082944,-0.18554515917658226,0.6749071057230511,-0.4388591684997959
,-0.21371588740482475,1.9400981515739277,-0.34064501370233913,-1.4586241511747984,0.2356823599869653,-2.2625230565065966,-0.11623735897703043,0.20847741921066146,0.22860451380558788,0.39975030254308186,-0.5577863361846991,-0.7134809771545786,0.5123531263027258,-0.14740851068888772
,0.5667726449502424,1.1666291678494873,-0.4357261286487087,2.6757530775610214,-0.9797183172443498,-1.7844511028894738,-0.06670776567366643,0.19918526477803797,0.8638133054788829,0.5727990140569597,-0.15227435267081815,-0.5749133797115334,0.6138354982587355,-0.07954133876462939
,0.5317491517029985,-0.47199682337346704,-0.5095431011426238,19.418603480606517,-0.14689201303094232,-2.303628909117237,0.14056348949775016,-0.3067266741536187,0.0847642438406946,0.3499078598053958,0.44719277551438874,0.055434567268591466,0.8189151351099766,-0.22692500116841946
,0.6826083097013058,-0.9196234027591993,0.0049544584957744026,12.29311328038997,-0.30006146780174603,-2.3032208710846738,0.2087713680290444,-0.12698713136270026,0.09019411570017681,0.43891947732210324,0.620326378570745,0.22170743157383707,0.5058608600076452,-0.4255577055432367
,0.5890573804907222,0.6154902083522673,-0.14318676382706041,16.463482515458917,-0.16557098837992404,-2.903984987849465,-0.16354982716830158,-0.1623111041533035,0.2595442845830908,0.5380331520365377,0.6480697312219487,0.4814773198952045,-0.16604716623084506,-0.20302532735047546
,0.11099530372233657,0.8154957215962977,-0.2731425359828528,23.332133964709058,1.5883298083083357,-2.3385721801275765,-0.22296599720363014,-0.46142054530794613,-0.03855435859672379,-0.18521852905207764,0.21286004981989687,0.29647737978013655,-0.14434964788659488,0.21545742112560187
DR,0.4127494699383682,-0.08049179071622199,-0.1178887749144729,14.664762679947847,0.4536593576429382,-1.5672024421239954,0.48356818348592256,-0.5792806514523224,-0.08058675993548704,-0.22440810629521846,-0.13705131863642475,0.2373866295269474,0.2924206384028635,0.07349051719976754
,0.4618351457678623,0.2559947447246506,0.03782174770126966,14.2064469943204,0.5130429929322088,-1.3311427673645884,-0.1394082510737016,-0.3547580973414411,0.07166038764132462,0.03381244181014613,-0.05778408551576718,0.17153774289489462,0.6940396697560263,-0.16323299716872813
,-0.04099096147750813,1.5440635194031338,-0.04772196657822523,11.273939234424688,0.9117430512804516,-2.2309007291456195,-0.12976658269687258,-0.030851746304095543,0.7932992230179211,0.2085470174964376,0.17283464358719544,-0.06547824972937026,0.20342060382188135,0.018985415038084347
,-0.22338005885148893,1.1612093973868707,-0.5233670464485988,0.27525612437396524,0.9528457213611714,-3.225236246747903,-0.7381384765971424,0.37623225240917946,-0.036829930025059895,0.676028158095367,0.6347832025325688,-0.548859779689435,0.38243500561382027,-0.024604819832510158
,0.13745493668344688,1.0009629446262551,-0.4362937791999214,-10.517967187205867,1.3634216976572564,-2.3326035357560775,-0.32500500895442375,0.1424151703314948,-0.47044519840485133,0.8953818378471793,0.5940727088813865,-0.6281953883090879,0.15741463573985812,-0.10846353202645492
,0.3084917182846268,-1.0379193248788132,-0.4480447200120618,1.285445122739944,0.4067341376661119,-2.048343614762761,0.212388962784472,0.18295808680949985,0.5710395587237529,0.42608333687068994,-0.4119486093055178,-0.5564985476566203,0.23709984746171306,-0.21643274407533714
,-0.5718873706121044,-0.7305903139248647,-0.4009920754825083,3.4138619290667296,-0.44228639971188694,-2.8453237338326454,-1.0419011096678161,0.23707667757643527,0.028094998234529954,0.10796050744385516,-0.6943841952348987,-0.04711238163479792,0.878734282766251,0.043974025401949265
,-0.42613525832571086,0.0627857871274355,0.056136605042589986,-8.177475997853655,-1.3342818174267848,-3.067449664706647,-1.3570559385981382,0.14504777034222294,-0.7123515988488606,0.4849848850253467,0.06966273079990108,0.37413338023740256,0.955777948666555,0.06800775317953556
,-0.4034426561810738,-0.9082196531026793,-0.010292172655856508,-5.479219515230096,-0.5350991374450087,-1.5717739663975046,-0.16004430143322032,-0.05533028402826616,-0.7535922812744561,0.49696521525406445,0.468294976479352,0.65697706148777,0.11089607761878843,-0.26326795099133815
,-0.45596888702357685,-0.6388883900750617,-0.1475084731570803,18.313716840001717,-0.5583113265036315,-2.6917253232898832,-0.7478067317420872,0.5875390775827986,0.08349874239952344,0.08153048872546992,0.3533743475729093,0.0021009290418610794,-0.29920703768307916,-0.6002074601776433
,0.3493017974441337,-0.46449749963839426,-0.35249650767599855,15.673372666584925,2.1480383968797696,-2.1589599219964835,-0.9897942010028676,0.22531912514591343,-0.11436652651157121,0.41679881005766056,0.37807214153681085,-0.24598206894772368,0.05058200337351142,-0.5500733044128152
,0.16577390433304975,-0.2280334818596115,-0.5265572416275607,1.9699518609492535,0.36749447798100865,-1.4733752012965664,-0.2819141328626645,-0.06228045993333919,0.058688321623722624,0.3075524916611968,0.0070326581423170035,-0.24693572059117355,-0.2662835303252913,-0.5666370741856955
,0.002150584314881037,0.265680188297003,-0.5076675189290202,3.813382576527602,0.4459693925343517,-1.0463945041606144,1.0523884537937707,-0.16275647162737508,0.0858378537816891,0.09423066421441163,0.09364871201269134,-0.20353136692764537,-0.23378585426899498,-0.19580875014411278
,0.22752587770832938,0.026638593752888354,-0.20307026911942572,6.244527453161698,1.508006048299998,-1.0500446283607714,0.3793315116269793,-0.44143763951306864,0.09288488430718782,0.3439041020363538,0.07252774087654536,-0.2620912918813842,0.5353752095872307,-0.18890871161647238
,0.3420278017338431,-0.3587376290705008,-0.5437939882011963,-4.628008309468587,1.4750462202295087,-1.808529333733951,-0.21203281647315067,-0.3892393441991498,0.0941191333114382,0.6401681006058503,-0.4377323534717498,-0.14466325319787487,0.8702646371758805,-0.14023826288909808
,0.34354074515434463,1.2839044022729151,-0.9668593165561096,-5.125809126923512,1.810155204192172,0.06332617425796809,-0.8457701849043796,-0.15545556422563672,-0.009314300498508926,0.749489940843387,-0.11155528963604154,-0.2722102285617712,0.9407036288446239,-0.3340628882653336
,-0.009068127977267587,1.6138004459977966,-0.5169256263585108,-1.6709896005270215,1.0608543468080416,-0.3334186936537193,0.6543804869146329,0.1930956595919218,-0.04257041600159707,0.18654787197861616,-0.0035083974811240823,-0.9716194205809773,-0.596668210040666,0.0419558250214546
,0.3188296177673591,-0.15278745194396687,-0.35245759116134084,-8.062539946336898,-0.954509978993298,-1.1581363993982943,0.1317441135488747,-0.0982417862018907,-0.21397656778717866,-0.06477474920864781,-0.5149838333534561,-0.9061437384293985,-1.3273231361490856,-0.03965738053953327
,0.18407301153550854,-1.4804535058874948,-0.48725542240874203,-1.8397951239321289,-0.4024013123499175,-2.1809524041876482,-0.5157122785448273,0.05030452610186174,0.005952893955338607,0.06108822243427842,-0.37527394753874327,-0.2732865014681629,0.13426837941061295,-0.4741447188340133
,0.6510728919824027,-1.268249936750278,-0.39292777082810754,2.4831395963877907,1.4243566324142694,-1.3954626655030566,0.17869486054156894,0.45454695164215564,-0.25671961304319424,-0.022364811142571946,-0.4011787453526706,-0.1953202330349762,0.22859249538549964,-0.25731422351586364
,0.9954365292369783,-0.1772744599927886,-0.2957422022933644,-0.3355210916527449,0.21094166486127652,-1.695396986635614,0.6029425553295458,0.1400833429552637,-0.16586738494229608,0.904536979191712,0.11130498823587354,0.4004172389512737,0.2156905652600165,-0.3831293419386341
,1.2701597492400545,0.7288168086479847,-0.1296728527931429,4.6631247839161425,-0.13211953674117963,-2.7617776285280233,1.3040295816150869,0.18162265816443612,0.36266981929739484,1.0708016760756567,0.8153761110880346,0.6180091161249746,0.4732815988927251,-0.07715420589944597
,1.2387717762086794,1.3890020248233004,-0.6594824676925798,7.829213570928161,-0.8105923119431364,-2.4818292790433327,0.002992574795381474,-0.023509072978504575,-0.17762051069390797,0.6144479444236188,0.37501220746305364,-0.11062065358116029,-0.04536618748436232,-0.335376887750472
,0.14565683649603306,0.5433747713235549,-0.5780797296854645,3.9733361991452822,-1.0381103107451595,-1.5866729069242005,-0.6807328158805162,0.1653793397339623,-0.6435376563506963,0.39927049705244383,-0.16578488390959822,-0.3894384246005994,-0.24912874131881338,-0.7138500216857454
,0.3382610381437327,-1.1916167926861556,-0.12717506030449113,8.917633988631065,-0.04957405562902618,-1.7160779299559996,0.03178650639473468,0.7926590006183291,-0.675567891509844,-0.4977493168074831,0.15411526063007208,-0.29137968431576666,-0.2923259571104794,-1.7437158627494724
,-0.20919123525436845,-0.861303547084735,-0.036776044044683105,7.781010905831256,0.5908251096197462,-1.3596941530765192,-0.27584066722386974,0.7237843689295946,-0.09385961712381333,-0.5962623751637853,0.04613889078044969,-0.29359279058191684,-0.6190262482944369,-1.5338177117838026
,0.26775029333595246,-0.016323202396622587,0.16853592142723545,8.05237668595436,0.9770402542059551,-0.617716824331059,-0.020931772564763022,0.3881194291633061,0.1551767536424051,-0.2187174193197183,0.21188370950259613,0.2428310247434543,-0.1788974741675701,0.2243801122654168
,0.8277677343871522,-0.041785371580720876,0.0366793916351397,11.679971180672085,1.1165782601166316,0.4718947202100979,0.17009946285452768,0.22434685425235676,0.2491840059656606,-0.2764078232499537,0.8582586896336137,0.14968213438701686,-0.006900312434261948,0.2951124117598482
,0.9521365255108023,-1.1041910861323168,-0.02510540434525489,4.15311081690947,0.28262409497876406,1.5226204825548095,-0.2086724877712833,0.2884605042563444,0.44432545709412335,-0.6329553167909887,-0.1537142972177682,-0.052806040041151234,-0.33457343124802785,0.16179737561647614
