event,eeg.af3,eeg.f7,eeg.f3,eeg.fc5,eeg.t7,eeg.p7,eeg.o1,eeg.o2,eeg.p8,eeg.t8,eeg.fc6,eeg.f4,eeg.f8,eeg.af4
,0.7053965141572953,-0.5119159334551608,0.5442270692535888,-4.881508943696149,-0.0766573258733677,-6.718333762655354,3.326677463161394,0.7336847073018621,-1.1497472255305548,1.8652486228675127,-0.7002387329625535,1.088721650515927,-0.48905605801179297,1.4444095418674332
,0.6541508431377488,-0.7451474892068021,0.7967711070783705,-10.10146161029197,0.34051893397203764,-2.449368669554826,3.7110212647638696,1.7073639423363562,0.4216313608738434,1.3249432322934935,-0.21789684497890077,1.3463225162894195,-0.4326875225904995,1.3608256693268264
,0.4138878719939769,-1.096279240163253,0.8020389443035814,6.4752287257256445,-0.18346186476704174,-4.441898831449804,4.003255533428789,0.510228988648888,-0.06320316376224906,1.1268937438401556,0.11540629504625338,0.6092133189217305,-0.383955677368497,0.5550203381760697
,-0.025017284111698814,-1.0665648379283248,1.0720840344532987,23.033383323604266,0.26714091944928914,-4.1060805731919805,1.6396575773452808,1.0335074785773588,-0.19898568749147233,-0.39280183685106224,-0.6140542637788882,0.5570786433151499,-0.13663504147136282,0.6441930804222903
,-0.23184890073501868,-0.9199879445415093,1.1718153126274669,11.376745362137209,0.45393770728518207,-2.0790648270742955,0.7719963565735476,1.1997348729875623,0.3609420783843791,1.0340620313449267,-0.761476947795168,0.37679473407005415,-0.22558341071887902,0.5899489447004169
,-0.06975472755751592,-0.7794622874036996,0.9945498879368714,19.339062851936806,0.071059051375828,-4.622196535547915,0.4539107560312625,0.05775237359488834,-0.12050415974376885,1.8443308808248036,-0.34278895855297575,-0.12372486966673725,-0.19968064658393,-0.1365801803424971
,-0.17695678524853697,-0.7853034491493975,1.0959400555830592,19.767497658237936,-0.43864295448221535,-4.296729519340153,0.5251814993910171,-0.28165469590991216,-0.17910850270366574,1.4196832646494337,-0.3185079995173724,-0.3484091945157277,-0.1560198995264794,-0.1708215273589294
,0.09343524544362818,-0.5779048023317039,0.3188439983823573,17.328256978188662,-0.4600309870441557,1.1796330187340849,-1.048219583453255,-0.2589800090742314,-0.1312103218117331,0.7207304840100023,-0.628630210722334,-0.09041829221551924,-0.132900045872495,0.4099714814968225
,-0.13057768247111273,-0.09580231120461835,-0.0062822644271994695,11.936370114392831,-0.16681605297724794,3.4967009246383802,-1.4105221953676572,0.19391907554081944,0.035115133041764626,-0.6195998684130161,-0.5204442691404182,1.053334240635275,0.12701757938734773,0.6267628531220538
,-0.03186333788646907,-0.5920134590471645,0.3312483237406918,15.12567212208746,0.07464562768367924,-1.9691120591958335,1.4754575026789638,0.8535658247096298,-1.0423943105570344,-0.5538692953407824,-0.18047965899681429,0.8816485339355483,0.19408147095454092,1.302855743035989
,-0.2769958717628018,-0.659019512083781,-0.22981811442541286,5.330122624364173,0.3309609186675922,-2.921883684189344,1.2661289593538814,-0.07320100038267652,-1.7150078849649844,-0.37524158686284115,-0.11289401911855657,-0.7310926091438231,0.25188485779091285,1.0814580296586103
,-0.13705246612854907,-0.44032375380382016,-0.004098567322508249,9.524818748480781,-0.5571604525534606,0.4062274514879178,-0.7311755512411123,0.3101127235953469,-0.4106312547533312,0.3846633841886306,0.1639651263910927,-0.6215881386311857,0.11628289270130177,0.8297929489115475
,-0.7077648881575034,0.1122273936920939,0.4351858454649925,6.1636962135571975,-0.7426049859360028,0.857168173944818,-1.3816639560102997,0.8038630786973321,0.046539758654694646,0.8822618990741793,0.3490713389007985,0.17392012252955416,-0.09363450080085509,-0.017874041728325702
,-0.10490130272905565,0.0054189959149016495,1.0231044850261612,-3.0121834434815606,-0.44029600041813327,-2.6875057852176014,0.4753059914248876,0.3167993430189799,-0.35482025167365827,-1.7421052204535556,-0.192376931502823,0.5876224532426563,-0.3021639714826746,0.43469571121944495
,0.3916976688415812,-0.36017003477643433,0.5545986802012207,8.538703670872824,-0.6171809595767879,-7.424600744644823,2.236014856604926,0.8687014747465578,-0.7511590645019329,0.7012233175566007,-0.6442551758754852,0.2596225081952499,-0.08163838222010106,-0.30562441320978445
,-0.28334523303014686,-0.24808513449372324,0.37788879993287,10.328920904185082,-0.2818342643598964,-6.07123381393132,3.922081758325211,0.9924190996882611,-2.0489792204187336,2.0725442035237323,-1.1342812082134968,0.3085537973539197,-0.19263746552975247,-0.12254393922741876
,0.4517985896030329,-0.6887384353174765,1.0895796988361985,1.101419081872063,-0.16235631569773099,-2.4618769335649024,0.9823997749201513,0.007456680805974731,-1.4598481151433358,1.0196386996208064,-0.3358040398186899,0.6388771816568268,-0.3266065103843034,0.8658246614564429
,0.3436512213009171,-0.23668133118067833,0.5032660845741213,-9.558697380535413,-0.884107069864425,1.6546347096622218,-1.7170317834826803,-0.396450433696875,0.08964798234422855,0.4141555507545189,0.4918204991085988,-0.3579058404049656,-0.08289340616582944,-1.2778522872174873
,-0.15349527572639785,-0.055459440244772645,0.006141776531903627,-6.2428995280204065,-0.8303378574548523,1.7224327130891839,-1.5038309488133184,-0.19764216999147532,-0.4150019719502746,1.2250617598685103,0.499260901900835,-0.7010709223600192,0.11107859344545724,-2.275443154617849
,-0.15734573239458188,-0.378600730779922,-0.028873984811948913,-0.833972141708479,-0.47904021385239365,-2.99610989818512,2.4671733616909832,-0.575656951439743,-0.46492371450388037,0.619291223128128,0.07877175037627636,-0.8003490292370085,0.1991752316130021,-1.1021011102561589
,0.5967993733976347,-0.6605328977798909,0.453523658302998,-1.6130981228886587,0.831996873493118,-6.000537365966088,4.585921077186907,0.414627411261124,0.16983895833335472,0.7775350167144358,0.7692417207268505,-0.05689255849098461,0.21552719742930848,0.7552773302426727
,0.6301262758392917,-1.1852510581178326,0.325625656573135,3.6917807027370917,-0.17611113637678574,-3.108261865790238,3.227187338723579,1.3086155288781278,-1.3181650291609603,1.4047199475609518,0.21225397240165642,0.9213388395449189,-0.1514322087879797,0.8799674383183351
,0.63223624875562,-1.0814431128272752,-0.08262223360494923,4.433893204714612,-0.1625089671112125,-5.46224213057668,3.2242537821762887,-0.05601561665186623,-1.8469235321011421,0.7821864322944139,-1.129024452050983,-0.0544599215242432,-0.5976233606517228,0.7042379378971699
,0.7265186622716687,-0.9298245759506136,0.30513953178241704,11.552682407540116,0.4106343245322873,-8.20205425353172,5.434902822772515,0.6103116199098274,-0.47860438939705147,-0.710171585600636,-0.6538874203788633,-0.008923708937448838,-0.6543943132062733,0.4231524592799118
,0.4471283086210251,-1.0609658496433412,0.3310458199662088,1.640343488582328,0.2674379650154798,-5.960330752666297,4.1721934933357305,1.7009584543291731,0.0011547219462623526,0.8849706335857758,-0.5305173816861323,-0.2162592963222436,-0.36342821149923576,0.2534538032471378
,0.7583482307615358,-0.5900209426372726,0.505162823920632,-3.07151273990504,-0.3579342344642564,-2.8467581184844697,4.058719093611486,1.2977240299140542,-0.17530703179657064,2.160588145169032,-0.04824153411024116,0.35865030172734724,-0.07767413146614673,0.22105782209220562
,0.03649363535240048,-0.2607719082808549,0.4670780440723582,10.834571992193679,-0.4208752613532774,-0.1823741862402613,1.0923852634270859,0.8361559351023345,-0.4807648524035639,0.7522962986864694,-0.13005431250612576,0.49880401852550094,-0.14810545860479177,0.013773609214098707
,0.2696102549464224,-0.49616451353282737,0.14839426488231003,11.666895428533595,-0.04028073445934438,-3.5356490967357583,1.6139532526204243,0.7984789194182943,-0.7288451567769999,0.22898966279328536,-0.49540188636027066,-0.42044034008446446,0.1702730536813842,-0.08662199237790062
,0.38763728385630464,-0.9267520679348297,0.24087808365382102,2.7794268064701915,0.42737837824886343,-6.582622169407145,2.952991932140408,0.4962347211482634,-0.21054926354507092,-0.8141974863258461,-0.06699094750843303,-0.09229945242106445,0.007186912874619674,-0.18313217170151327
,-0.6684523939240132,-0.8343369995783797,0.2619860020502352,-9.802865719033976,0.8791288914931903,-6.052525241046398,1.7261887794988748,0.4636291324567711,0.2680484399627965,1.2173524709806038,0.27495131694606806,0.29299286047962403,-0.1650746731450298,-0.1947958670396625
,-0.6256666254545972,-0.806091919250102,0.7484187604411102,-6.897781937798932,0.5590695575133197,-5.262625368450476,1.4599648347361767,0.6912519154597961,-0.05307787708022942,0.14967835779078198,0.24030267533533478,0.7646640656420193,-0.1738006811165482,0.03677514199452714
,-0.1374159371437936,-0.5184874542490828,0.4371179241512045,-6.557255532603613,-0.07647376545281867,-3.2623959924529413,1.271203590995613,1.5798866094041202,-0.3278415550471159,-0.03210326626038311,-0.2755811165836769,1.4969802726561299,-0.22938436596595607,0.10469068208274564
,0.3688885152993141,-0.6102015440174988,0.141965215571232,13.28874476639309,0.7063319001388814,-2.499755095254559,2.3551444668603643,0.568453064005362,-0.3279634380527795,1.2271362545412607,-0.45957827740489365,0.6684855993174041,-0.6432593706461993,0.8871944016690125
,0.41597042023828656,-0.28672479744257107,0.5880570401910595,18.147277484920316,1.4799525168595355,-5.927253833286264,3.516922570083379,0.540120020689114,0.283001636770989,0.22995390342338087,-0.7449055820782486,0.3599797197446124,-0.25262681015772814,0.47273045655469953
,-1.0454809046572198,-0.10733097296463891,0.11780429840652612,20.939858640621324,1.0431455443988904,-5.533789450418386,2.994828153954499,1.082854905991064,0.8947440120163507,-0.710917450449535,-1.1703993131734216,-0.06612020229563968,-0.06410942393421717,-0.032826907624530256
,-1.283924849191072,-0.5839920147100609,0.4880626621689111,24.41288483088034,1.1052236571810055,2.376832261290425,2.645190922696525,1.9456298645539494,0.801428585858495,-1.9508744741085973,-0.4988194851328236,0.18332575719370967,-0.2267154059878994,0.3779648998237786
,-0.026936400503102323,-0.30708261370184875,1.2822038346702516,5.9126507387249125,-0.41207125849897086,3.5889558800380317,2.1496695066990785,1.5964672182984976,0.690187802110065,-0.9017891314732357,-1.2048922445619357,0.224959285158605,0.09619289843500811,1.210538991291604
,0.6692051125622229,-0.30483409368296893,1.1022799739756415,6.717378740092519,-0.6797060011889282,-2.3907605762131117,3.338738957185396,1.5014446687248275,0.11696277494295124,-0.3903869607098234,-1.174262409814989,0.05680115721152179,0.26581320651956136,1.1843478154757823
,1.0390879063226788,-0.9168137399728097,0.9534058383692738,17.332828298743046,-1.3028394626024473,-7.330310976946494,4.116774479321969,2.767613022725029,0.6473371066900095,0.39746842673513066,-0.3760838740357347,0.43059844054414936,-0.011106086946097942,0.4744969391947136
,-0.045744864438097256,-0.6030648043508009,0.8891536505144813,4.455939774403122,-0.8705747283093417,-8.361994935680414,4.453940487279535,0.19494125046116523,0.2215276188624663,0.1208722901262663,-0.04579400881530952,1.0542722799650222,-0.07732307185106801,0.023474919095053448
,-0.14331913934515633,-0.3003167381013576,0.9404868173307358,8.207982345126968,-1.1202657844341506,-6.439557445356893,4.406028387886275,-0.07844726890481843,-0.24541006801737766,-1.2633941442178342,-0.6081006534577152,0.8126290679607755,-0.29650545171733284,0.17427550171671552
,0.41979743009804427,-0.6213851199091588,0.5239936287666676,29.404245642953434,-0.2890013382765016,-10.295703910278263,5.642758620005858,0.6786827299286261,0.4746447740192289,-0.7916324657899433,-1.0507078860607364,0.6779241231703347,-0.4677185165261161,0.408309027465361
,1.0264075279079607,-1.0391035874753844,0.2898187311358447,13.800715344032543,0.7384157362170708,-6.240570194679091,3.919070320565937,2.2685794964946098,0.46936970973651415,-0.5771683265013031,-0.9291770144553957,0.3419932708142291,-0.39483532742137634,0.36533652124018934
,0.15494747733326594,-0.21017624362583073,-0.14260121062275855,-1.6224655717817222,0.18818041336053254,-0.37047994882603763,0.18783004407732704,0.374874927072266,-0.3511713276234212,-1.1926325444408103,-0.671889482795289,-0.035952987649618476,-0.20459839108933753,-0.007693410872240592
,0.16928144112442242,0.05245485470020564,-0.2681337876030948,-7.358181538227845,-0.1529491236801919,-0.3432698441409807,0.8814378207813076,-0.4267856707761269,-0.4307648141282529,-1.2716902080180759,-0.5194202147837516,-0.23940675861954067,-0.17956165580749778,0.18587051837439839
,0.9919137059321694,-0.3378063134894957,0.3196596927919594,0.5176630678184855,0.2395637684842554,-4.0085830029963745,4.69558179288197,0.3225301722731041,-0.22533611819639363,-0.6780830954296587,-0.1421294050286433,0.8045273427704885,-0.450694854878632,1.4448630428244136
,0.17006821235561398,-0.1186422601367712,0.22673556842925033,9.952084278153405,0.7403343255813222,-3.2991810271891615,1.811203810718968,0.5982738813754671,-0.29097482898214005,-0.04065226245879487,0.21848228950129642,0.7207279682903978,-0.42947741894800134,1.2612219387598993
,0.3666212166198333,-0.40840506159742396,0.3202922904800115,4.04640733291487,1.2326431432060514,-4.854177370347589,2.834412116345551,0.7126916476411277,-0.2195262420125297,-0.014394654416146771,-0.0997643934573718,0.3171628838128097,-0.7301199873093638,0.5393830776683057
,1.0727406385765588,-0.5713503271696101,0.2943804087227157,-3.4758207263256105,0.8680076565687374,-4.901848865633635,2.860550497166658,0.9510183377110554,-0.34430673780277005,-1.5809412265622678,-0.5289062804999909,0.3644914149407001,-0.6524807213526421,0.37766927969973235
,0.9965348355296438,-0.5569335875631056,1.0876620296740274,4.995597681497526,6.752984024428617e-05,-2.0289311595455284,0.6807264757463453,0.46066571920020005,0.01568051468067714,0.055861087126067084,-0.5492619672042238,0.43008317129828455,-0.2548563908515914,-0.03387959427376483
,0.37529507726796024,-0.7869300626311763,1.0563765110549501,-3.4261940080036877,-0.42383567117374915,-2.0599797907399067,1.2287086119269153,0.7713413729641729,0.08491974659355331,1.8883173456581637,-0.4949840424667099,0.4949604931162963,-0.3410395352742975,0.15275437492375538
,0.18233827849515588,-0.6149064263980086,0.9087629362663158,3.198042646838054,-0.32946885515486835,-1.3546588501324819,0.859274596395863,1.1168403330257075,-0.15432240869460145,1.0750624101837574,-0.7446572736214107,0.7274262292803185,-0.2575410847195578,0.4890110369822869
,0.0997371335020632,-0.3870605644342666,0.23255312342071888,14.24138650580391,1.0734582312716097,-0.6379310074090158,0.4659261815671658,1.4982504132876988,-0.20045275969748746,0.3777145056398123,-0.40804411723980233,0.37736402776102607,-0.09681232245294716,-0.003578034588375173
,0.600831247014897,-0.033369746295242204,0.35684615806504605,-0.8227505944529256,-0.020620043117874406,-1.6793754038991977,1.0734666394411816,1.2223612343613446,-0.4312314218611306,0.5041376051899281,-0.35911629430057684,0.4336953450372952,-0.0029327582982034356,0.09624498927517355
,0.9159602325479059,0.3094430165337324,0.6377035025622254,-15.573793654968776,-1.117229319504833,2.151624102991715,-0.4993861721551938,0.44450285798648265,-0.36858708649293703,0.7375352320659988,-0.5577541727317622,0.5928337424482814,-0.04261178136820441,0.058510505525072316
,0.8523345677353624,-0.05043057688222361,1.1300769727518538,-10.462202974154568,-0.8428877783070399,-1.438228070238511,2.1174166043095464,1.174603335992393,0.37098136319097663,-1.6231340829707108,-0.6754903056033221,0.704560476885965,-0.22827808186222792,0.0274114197713211
,0.38406730106219,-0.2586334919736125,0.5487888921687332,-13.679308695237966,-0.43109875095552586,-5.490603194305935,6.12491501354674,0.34267556534238475,-0.2913121200820386,-0.9039079219568782,0.08959741019601561,0.5845748257051955,-0.07564807652917242,0.21100640007131685
,0.5868456516256528,0.18094125632495628,-0.4577620447432809,-11.870739831143753,0.11792110767512472,-1.9756559111512821,1.0789958232897308,0.2021684722771554,0.06848486389250472,0.6625083056639554,0.22115772358322616,0.26595687445835997,0.07013370047947032,-0.2894812927501909
,-0.026011059834758595,-0.05526037696402906,-0.32812119808383167,-6.6848061635663525,-0.40754635548542634,0.7191122347926845,-1.5163728060231674,0.7287459867673856,0.3205245687840113,0.5770096405364094,-0.6805965559061697,-0.12296257094470624,0.24401574841186668,0.06729620408233755
,-0.23412881419542472,-0.7027680488714833,0.4594421542564943,17.826418340679563,-0.7194427313029961,0.26944710164336333,-0.4220029275909585,1.1665707634220903,0.28672584939920326,-2.261035199752636,0.1769120700977054,0.40228598465734056,0.4032948608872389,0.8891656005994387
,-0.022482691543588045,-0.07616819580476064,0.8072034384743618,18.046309485054845,-0.16499255273235675,-2.1229568007704507,0.7106259880325242,-0.483056154727523,-0.6870203278075617,-1.008664584711283,0.42272305110571323,-0.4117103728154053,-0.026155798260659252,1.2812407276131381
,-0.008706516441949565,-0.18124391319196687,0.7752189178126491,1.8203829158769806,0.042167857913616505,-5.402180183701316,1.6627930838142782,0.16550863349015046,-0.46646966062310063,-0.14130554146429775,-0.6719215445036121,-0.4741959806292638,-0.25730841219438544,0.6424690730165614
,0.42124025096967554,-0.3029261944282404,0.06351504899419476,-1.3548897077254138,-0.3522093330894927,-1.775789029185137,1.2445140678963151,2.178862981595021,0.3658327309653397,1.1920769976331234,-0.3214113432727652,0.010596351403376817,-0.3809886707474621,0.017007953558803055
,0.5540518049856602,-0.3697160648212396,0.015848917988713882,17.042197356187337,-0.8397110360569364,-3.8423510221233736,1.7919095993560366,1.710573914839786,0.24029849808194814,0.4423401571040687,-0.43281798541081373,0.07996653555847318,-0.2057619033362193,-0.013982896126868006
,0.6285154334046832,-0.02869140222846756,-0.232309672377557,6.238703278376502,-0.9641242098059256,-4.336315794083771,2.712372170209464,1.2486865115541255,0.22727877285111905,-0.9198786851639229,-0.23301177606958434,0.44208243920479073,-0.12464041443533143,0.34214483442039445
,0.49871858139606545,-0.20781249210887867,-0.12649068980364242,2.897417907304721,-0.4423653435054197,-3.75528600602183,2.820891128843724,0.07950358261133518,-0.3080049232243671,-1.7295967258063052,0.14741776523117991,0.013946647986209891,0.0657880420501737,0.18306623176403436
,0.21623891834441517,-0.10337619206886137,-0.2337311127125148,7.04133737737636,-0.668726959718262,-8.178723736287287,3.972826190591615,-0.6696563440938663,0.41555814677678055,-1.978372136339741,-0.022456767583493117,-0.6227371068509633,0.4145421111754031,0.08348968837129964
,0.8060740297306453,-0.07037605343370855,-0.07511637266833014,1.6250353541021851,-1.0308280036626394,-1.676623242499046,1.5788574366807118,0.3310062843702941,-0.2137440364127863,-0.048972462010451405,-0.02109771716576726,-0.599689899111315,0.25864910934687496,-0.04331391332975757
,0.6618841335727065,-0.08821552639645891,0.12646550030788342,2.860838985382818,-0.8847481076821518,1.0981047578181828,-0.30083522448464756,-0.46147156477600565,-0.9481975427388178,1.1374935429735198,0.3704251613666958,-0.6630890990119256,0.08232011177890931,0.07396728156467591
,0.5330998791402338,0.018311557827047218,0.3570062357203763,-9.458962300618884,-0.8353234045506914,-0.7531135622647256,0.5573053888337008,-0.25288830742296187,-0.2973637960293729,0.3397146030938236,0.2724382838360586,0.04069614317164131,-0.24663427570507765,-0.20477454397997644
,-0.17230024874926136,-0.013308748988542922,-0.12761039208046043,-8.093209686628855,-0.35534069716722017,-0.0003424690387252852,0.9677181540269278,0.29607678750430566,-0.1434358221127914,-0.6349644483180746,-0.03373534293773562,0.158213842940148,-0.04292868509595151,-0.5058005915717492
,-0.39142287228078765,-0.14050067119991277,-0.35347240404336666,7.438776186795781,0.2710812146637113,1.3299216798884648,0.2954156336706177,0.49714365684836653,-0.7144889555595251,-0.7481332328117549,-0.009595476764397032,-0.1409480485970611,-0.13419557878530147,-0.3843385765515383
,-0.11020562628961139,0.16168027735870022,0.19937426758754523,4.008206993044844,0.27331600470237427,-0.8242076663380531,1.109640706621686,-1.4269523646202051,-0.8293763683134118,0.6231844489578997,-0.08804232238247532,-0.31868674840009936,0.1582577220890777,0.02113927147437088
,0.6572499985035695,-0.1346533568249617,-0.16675101691662814,13.553467050667601,-0.6216452747590299,-2.7550838493871326,2.2076879752699603,-2.375362505426639,-1.49499750045371,1.2587269094110851,-0.11827270756693518,-0.8662346455036015,0.11360984099994617,0.030564140925822544
,1.070437319763378,-0.1342864091108173,-0.35424555550431797,23.917148044406755,0.1536655670252322,-3.9636692566768037,2.0314271102128156,-3.0988671372649206,-1.900103404749533,2.574660757345961,0.1306672409620808,-0.6496902461775553,-0.2431405868346915,-0.32738775593192004
,0.6753535675330383,-0.4081509076008059,-0.14482958493667814,19.790322503746662,-0.4147774905971961,-2.0721215915353954,1.92811458172938,-3.4124539575697583,-1.1958214873593855,1.3577419460012872,0.03811160972612714,-0.2960622586609463,-0.25259429022818203,-0.3088222870699431
,0.1243846433501922,-0.7416294460932888,-0.36501561097032637,8.895597592945803,-1.2365294300437806,-1.4710459234479831,1.640231186528027,-2.6651773187560726,-1.5525314523595686,0.803662258462807,-0.3450470567787486,-0.02970009012838118,-0.049750538834487955,-0.2736412655821192
,0.40260379912112093,-0.43549397852915894,-0.24539679562203684,4.640351884977079,-0.8508499228351998,1.7582265334877136,-1.1467074328384028,-1.9529663849126344,-1.0710686260439992,1.96125396252787,-0.03866110665008106,-0.6554886944038685,-0.1234876491275139,-0.41773757746363527
,0.11241921585788377,-0.1282479673232853,0.19920514124105176,2.206691093807111,0.22960950443538228,0.10949031381261294,-0.6858060562416677,-0.8444480583492735,-0.19785644899814372,0.053248592588542844,0.5957486640380268,-0.464576324706599,0.01753354099698069,-0.0968130849044652
,-0.4178510636439827,-0.1307695795329508,0.10618965063643951,-1.948269697062468,-1.1992013039823168,-3.187617085686495,1.7409585012800053,1.416192918635077,-0.09378001492747129,-1.2472542661990547,0.2586058578240306,-0.5520058246275338,0.16796459340300973,-0.26918189536060827
,0.29537568638627576,-0.4032530877061191,0.1675990322637027,-6.521022859259624,-1.4502244026198476,-2.052489699474114,0.9242552657249693,2.4877042030471235,-0.2646504432324225,1.2614865371485884,-0.6472007052579976,-0.1356962633963804,-0.05744084365187877,-0.39219576989091137
,0.7915130959771889,-0.2608103633319837,0.39168674496639244,-0.8820826578881733,-0.3606994469026903,-6.802383991567838,3.0989208719919517,1.3927952089539863,-0.15044496021419493,2.572624921455744,-0.2570814147021265,1.6606647031067256,-0.3933992125794805,0.4430961327201303
,0.6500509817819791,0.19573696188692505,0.3141150339201243,-2.168729561603322,0.05602224303248938,-3.070469475941831,2.488767591366199,1.4969821033472688,0.42889730495537826,0.20291511679990268,-0.36741078178510644,1.0651328031162195,-0.38722063583840244,0.7168216537236806
,0.7214909732023825,0.18039519316892938,1.022127441271243,-12.286818987758041,0.2917010964132539,-2.945452797112027,3.0704873058403255,1.2350528913390302,0.4985157507690908,-0.5342825072983695,-0.23380859742538812,0.031089135343821638,-0.3906245969582629,0.3262956243788676
,0.5653890282675277,-0.14021949882321905,0.4611352152639909,8.380974055129409,0.9125254432690084,-9.058295700844006,5.151179570435862,1.3202460378803493,-0.17454537362911413,-0.33947678340948806,0.46699281177147894,0.2498625390394109,-0.20514428043048819,0.49137957891580636
,-0.05540394115834174,-0.43440184450085984,-0.17850553099825536,1.4934163730804582,0.29447654494223635,-2.135465114860236,2.858262683136013,0.6025391168316441,0.1404612835746538,-0.9020134229057174,0.5348417392959236,-0.4084559618017826,0.042074559734752076,0.8091287421262428
,0.5292622117932781,-0.024876964882093514,0.06409413651231533,-8.186575265813179,-0.17279136742544152,-5.434700568108533,4.4360462388468305,0.6064653558764651,-0.25574234351863506,-1.4409428005192213,0.3801366948617902,-0.25676437201682845,-0.04567642562832607,0.3187764360434174
,1.0509407070202776,-0.06008146322214517,0.3646734697428283,-18.772979625369565,0.04932259864729577,-9.45169005122961,5.331305828098123,0.6967748838105077,-0.3585966591544935,-1.2200313834953103,0.10179613138137725,-0.2186777012257881,-0.06771493633223127,0.4551685631705749
,0.15332139723539062,-0.047169334898293266,0.5652741894603046,-13.157123237563178,1.324622632529659,-4.937248862856609,3.226634154596639,0.0025023023244615983,-0.16581813333333947,-0.2161154465475991,-0.8392105142000905,0.8464961855800442,-0.08802514296164231,0.31438100292773374
,0.07512182173803159,0.07566134004746197,0.47539954169228427,3.6502696473521916,0.9975195486298256,-3.324328429806557,2.5411036247861354,0.5996857275842672,0.3907692958960007,0.37855366316947414,0.11786010020369583,1.586884211550984,-0.3258978416364982,0.20279276005882926
,0.3491497206893489,0.17599637319039818,0.177449122794844,16.080426864290796,0.008470463614004636,-5.834995292922618,4.203868528003496,1.5860374816768024,0.03200222549385587,-0.9183657331864172,0.7054544001892813,0.5219868706326446,-0.2488606025801681,0.24176750648505219
,0.353350456927929,-0.07122681822878911,0.3252927923178061,14.575301178357401,-0.4213953126499382,-5.416409196639373,3.6071272801784744,1.0440071212132453,0.307605246035976,-0.7919606810897758,-0.16757142162124927,0.5095134115673731,7.719358627808164e-05,0.5147039374967538
,0.8508629090577674,-0.5211062104448895,0.32894651904808875,1.1425327792072948,0.16329705532979477,-6.653793801856727,4.947233406298578,0.390301174693208,0.5145968054492753,1.4300862678984787,-0.5588653751064698,0.9053005870387433,-0.260978414754444,-0.028966590831939587
,0.9219699995521256,-0.4775859616810344,0.4411963091880709,1.91517213658601,-0.40303305419574453,-8.043914819844645,3.8273083623165522,1.0545389740120439,0.43285492883622995,1.1947047659523626,0.22220621520103845,1.1861018826525376,-0.30976110527387735,-0.3909856091700103
,1.0057253610026669,-0.006391338830292424,0.4584803493641984,-6.7708908264590955,0.04918976380992037,-4.414193558469786,1.0778818049139949,0.6693999888916581,0.28039666646840916,-2.317652901451152,0.4207660654879592,0.6389891689940013,-0.21684766864701888,0.3302642554959275
,0.4611624469872694,0.2574438522807177,0.3366236159298654,-16.84693565295021,-0.20834722213177154,-4.461305753889357,2.318541988403378,1.4964307230897043,0.13993940576956643,-1.469106751299785,0.4503049254996446,0.39416702750962795,0.17570125159620123,0.3997999913349735
,0.5510555605040208,0.14049794144034772,-0.041136476340894346,-3.6099478007618093,-0.5744846279904009,-10.686041892657881,2.8277808970446032,0.8649434573834036,-0.44360837892689414,-1.3050855876196057,0.3479359500187169,-0.4122795061552105,0.07606653442033821,-0.07536882423695883
,0.26567638758649353,0.3359793780679933,0.29873367139386453,-5.109308487891205,-0.8080110698620283,-8.467817805286147,1.2807047781979757,0.5357638383251767,-0.4419615546919723,-0.08843561520727394,0.589817837586212,0.14861003540139447,-0.3022195113784344,0.42582187717399905
,1.022877914368718,0.05677312364194023,0.9561539296778577,-11.143658536495472,-0.7209966026330098,-2.554631507175529,1.1493368650523854,1.4034190574512515,0.4978547760297739,-0.12005398309429909,0.30626102214949097,0.7131899597729539,-0.3581839455891779,1.1801475199954963
,0.9327012608050175,-0.47949734311300984,0.5386424571357543,6.49025166979847,-0.029044341720592216,-3.6505510515194874,1.86201247726989,1.8685371634377204,0.052236850283322644,1.615319836058032,0.537099964358669,0.18574141514922793,-0.21943897097817894,0.7022553986977226
,0.3303941071611553,-0.687001664093416,0.5675311303392154,4.347292905783003,0.7614737403670869,-7.3190967243022085,3.040599749204156,0.9988123196761036,0.2691308201747628,2.319596993238974,-0.19584885545337485,-0.06828320864680315,0.11961188303241642,-0.1062537845288629
,0.12278015390001497,-1.1253832027174786,0.414664018370641,-6.771784331882182,-0.23211384223334958,-8.782935627672027,2.72376823195866,2.1307794308459402,0.5454749905818188,-0.9227440535398242,-1.199152293974628,0.30918982255244465,0.019470677791566596,-0.2955434784671818
,0.04814326381759245,-0.4833704878553546,0.1585395426585735,-3.6330369629552215,0.22218472597875283,-2.385673596359981,0.9005597577471495,2.4542833743305956,-0.22207919422713437,-0.9014432061990769,-0.8862737685383104,0.09250991666107301,-0.1399028973154841,0.2529915897472782
,0.062186648426432144,0.21506548668592776,-0.22513239224918055,-2.903087046729907,-0.370756557598467,1.6833856794781326,-1.5310364694368523,1.4169442102536798,-0.2369280292229212,-1.0425639690188362,-0.13834968183473198,0.05969794318626772,0.0636319012768644,0.7918180130012308
,0.35969944274418153,0.6098709607823158,-0.31890515778411616,-11.938746708076213,-1.095861374461883,-1.1545615680192844,-0.8090732916690769,-0.8697860421691822,-0.7653386732500723,-0.8118386066634707,0.5800883655127287,-0.7178544302179849,-0.08768019631216595,-0.3645424108723962
,-0.8322504290492125,0.8062332996454903,-0.9235558042467483,-15.345970218596287,-0.9751900273229771,-1.6195407938212762,0.009440468594212728,-0.5202477894123154,-0.5001811706080221,-2.26442995783163,0.4357603319159819,-1.5390898313614987,0.28412541240661543,-1.5120690392693117
,-1.5602031461839918,1.0683411293237834,-0.7836064907733513,-6.476222699568642,-1.8850548440119252,0.2404767861320288,1.3570447958141254,0.7634628129861079,-0.14736523718020003,-0.34041148669045784,-0.2390446051526059,-0.944336939462435,0.1352288477815104,-1.0863277840830763
,-1.2965598916626635,1.1414274444342913,-0.45168543184001547,2.0786420496459925,-2.082039408731261,-2.494901616873254,2.615156037960408,1.5822480220147757,-0.12998634823264088,0.24953510098650986,0.334473016560854,0.5858232894955455,0.10189720646241611,-0.5513395400349684
,-0.21052337095844764,0.19415621413446382,0.22206139585211956,-1.4750463614101799,-1.3476818525017846,-9.382225411411932,4.450934307669485,1.9766822510361817,0.7342305172979247,1.4578122626704533,0.5041986503230373,0.9272979632726862,-0.13441987473101213,0.4206379635174318
,-0.5531795948147951,0.6248978932071149,0.4199860568174716,-3.1030300598421574,-1.175228773979293,-6.824913115472733,2.0743222770362966,0.5721665554548291,0.09730292021365469,0.206072236225914,-0.03959235237570298,0.6807327335558092,-0.5217056600808041,0.8079538756095911
,-0.616026039361923,0.5625456846519398,0.598297723306411,-15.102487028169865,-0.955239679921767,-1.5102043670626915,-0.3725087359700555,0.6402778339094021,0.10523923369945692,-2.5943961696051216,-1.347202139888455,0.18694757607804371,-0.4793445316756261,1.177578638804824
,-0.061961773387223446,-0.24396933551249303,1.0884565458427429,-14.933795166132597,0.07024282837244407,-3.9886454428314067,1.3218505676680012,0.7135027668553651,-0.3152184107163535,-2.2570847472396305,-0.7659052980804887,0.24491436956540635,-0.45330879405963703,-0.011035915348485687
,0.05616020424592736,-0.38373865032619026,1.1769640775619443,-6.574070050318311,0.7178624404752292,-4.876062056061517,1.9567077321559174,0.5771746723873136,0.023484196966233273,-0.9938799983722872,-0.37627547317762494,1.2571010968765475,-0.18235005032396076,-0.06100317181289502
,0.40245187952328576,-0.46659709878480543,1.2028999570850816,15.783558950919224,1.3782769429654145,-4.205884531135938,0.9869863776490396,0.09108432760587802,-0.015123198235434555,0.42991693867239544,-0.9919815581483906,0.787289422085902,0.05992507509110989,0.7638584324834657
,-0.48323524188733874,-0.1870182263772701,0.7288104656139653,3.47761359195538,-1.54402501342441,-4.176855975671594,1.0438149803304142,-1.3886006913337539,-2.2571287580629606,3.3857423603186887,-0.1303293242650933,0.2997401772928298,0.12161163404744325,0.13140752000270034
,-0.6257774471624925,0.04720633753405495,0.944519571021942,-15.711038277004947,-2.289877930797115,-1.805469256143758,1.2395484726528723,-2.23052942114416,-2.9150725333357914,4.719487217711665,0.22518370136799953,-0.33399125153759357,0.03732377274359334,0.1811662820213154
,-0.21960410719689202,-0.06965066714009036,0.6046880491655143,-22.948812213290015,-2.9326272753052227,-0.3841006582469291,0.2989959089582267,-2.374055285569884,-2.4527260664638653,4.231966212639579,0.10552790761931102,-0.8782132570056994,-0.043207251388282616,-0.2965643598540859
,-0.21729849244052002,0.27169367380686277,-0.4653711981994399,-24.01592085465041,-3.9281249975614823,-1.3202968327581104,3.82047967235017,-3.693091718299409,-2.6760637030196266,4.674503823943566,-0.12503162376452173,-1.7074609627880684,-0.03325494090354839,-0.6653036856154071
,-0.323319458647719,0.35369237655391034,-0.39976495256490313,-17.274437250757796,-3.7894323500972837,-3.3031009303270404,1.8984205317774456,-2.362200103400182,-2.476769856348652,3.10860276152234,-0.7958167387589626,-0.9409625892272825,-0.21588897461516005,-0.5828510469218214
,-0.12837102565174685,-0.19244048920230028,0.13330147354718178,0.3681204014459487,-1.9214113238107036,-3.3981570677143225,1.763044835292803,0.4312554101911045,-1.2374764772717979,0.3220080181229259,-1.4416249558530452,0.33370976931520957,-0.32174477081179603,-0.15853590422053432
,-0.40059339841436475,-0.5645774689861803,0.3118108814245783,0.3269397510969264,-1.0524760332057348,-3.9123544273857114,0.6160406995682486,1.7277878700179135,-1.4355751922073117,0.38820026257303464,-0.39533655614174656,0.7257362034644047,-0.11695019027089039,0.9616630693837224
,-0.3132958385790675,-0.6475604631789339,-0.3820824376946508,3.8492796291214,-1.873856499796352,-4.585335743501342,0.14605857185174995,-0.6288710165385507,-1.9481275574146746,1.4817460907009525,0.022015595309721473,-0.4246650111051265,0.035309424916082,0.5595601691203688
,-0.855414136570565,-0.028225196373431283,-2.10973740311577,-3.2884571655752564,-2.3601641970260037,-0.18921711090983323,0.25390875695055765,-3.795139270944668,-2.093643919339563,4.832787636135435,0.787401700750624,-2.279345466824089,-0.20388779026166393,-1.7296706406322728
,-0.5391657618567484,0.2443428939905732,-2.565241019797619,0.3608002818362631,-2.9345690121055137,4.576811443386307,-1.1738452867966667,-3.8636685912281643,-2.87806383424197,6.370229149112804,1.2229452120369655,-2.7931198231900916,-0.2621897401687548,-2.3681473967364446
,0.32125523512644605,-0.2639107005246041,-0.9265618440861958,10.408455948794193,-1.184622894986349,2.2270237597013463,-1.4264676758010641,-2.61239403633404,-2.157338747951355,3.359082997719988,1.0048953044981115,-1.0832184145032486,-0.17592748085739593,-1.2472988044684865
,0.5280517584158037,-0.32089343565530737,0.2010040448533746,4.421143669388296,-0.744702285298572,-3.6707212115094014,1.359468804387282,-0.3413025457752058,-0.34684103232210056,0.9399693815978918,0.25608312154414975,0.4649479674039568,-0.29095475521107805,-0.37947415937654727
,0.4700669060055049,-0.25744648551353955,-0.28923104875271116,-13.601100549812392,-3.633932145943623,-2.577427533195815,3.504844731445592,0.49882630433280956,-1.6421922727523184,2.2668312243492843,-0.2320007599692601,0.09584946666904319,-0.07645323893186506,-0.4186782735413316
,0.19614017345611742,0.0781709041072151,-0.3722499965481821,-21.7161901688831,-4.335603476795768,1.9577772961731001,0.017919041099399576,-2.9352727238984953,-2.4620418077036352,1.3272820598137918,-0.1815854337258252,-0.11791721004325965,-0.2083891837947818,-0.7719269875165461
,0.2128548870359436,0.29129063623811424,-0.19503529845551598,-25.607348589832426,-3.1987491466886873,2.358804030244297,0.10359600238765589,-2.680282096224933,-1.9324786152360194,0.6331233986529352,-0.6221767140893601,0.08871845718803832,-0.3024412700772802,-0.12346206581072133
,0.47725338813405277,0.4596564423959874,-0.291450997585941,-15.785050761260724,-2.9079227428920573,3.9557054504688183,-0.007868872265212844,-0.3467351621541027,-1.004373223427437,-0.3186523288909724,-0.6697826437624119,0.07164154435182624,-0.30825631931467234,-0.6214661968821636
,0.07003630771271693,0.009302830074226998,-0.5211486154147089,-6.216432102828386,-2.249936601741321,-0.2927842065686187,-0.7675402363563796,-0.4043530572634956,-1.1406691582774562,-0.18833461088641945,-0.04317910750920871,-0.6840247607727195,-0.16685225079957516,-0.791963364231163
,0.26501878944669943,-0.4813484703603282,0.12812065098693692,5.69958292576564,-0.9076994874938953,-3.353467952275228,1.079335518768926,0.638085602709266,-0.25971260389844775,-0.6869507355570091,-0.5816687625158202,0.3171274050619994,-0.2126945157487681,0.04656732604876402
,0.33793029789678364,-0.047944252626027986,-0.37778528032491715,-7.389795928861656,-0.04708706524144924,-0.2687304090682743,-0.4922279469748064,0.7924325712799154,-0.11295774246218347,-0.9576205524544378,-0.0642061752047225,-0.1359392135990859,0.22010242790449008,-0.3631966990486672
,0.17910199885228223,0.10498245222189716,-0.20259733122664655,-1.4605755121425448,-0.3537919515388263,0.739984131006235,-0.9275691520166609,1.4749416240054525,-0.04402556931700657,-1.6580570343065604,-0.33205029466210384,0.033798684104053026,0.09198872376392851,0.09887362991635468
,0.23249364283996918,-0.2217651230659441,0.6927272883808143,-4.377165101818532,-0.23129405192978034,-4.816395425021707,0.9581588603902707,2.1944263990144783,0.5223251108233801,-1.0861372697654754,-1.1660446362483556,-0.04951217355793438,-0.19703776586505345,1.0456228415699662
,0.19837888768125492,-0.6292197294109527,1.2487933378180707,-0.537638132946346,-0.5911500871056944,-4.128195927981169,-0.3602241826610316,1.1307665355038699,-0.21187844128922315,-1.5422546376474342,-0.6370216127569538,0.1518711740638792,-0.2279101388417567,0.28656357545905653
,0.08499052526888769,-0.48736630092247807,1.1480269214363523,1.810870289047997,-1.1876200849725889,-4.701496189351785,1.6445921967289592,0.6805146565164567,0.2627875218231139,-1.5631847821582958,-0.3314736041616339,0.3862791853546587,-0.1076957202711282,0.19266206469201197
,-0.4393665959686669,-0.37442669751174257,0.7051132938473216,-0.47847770602979856,-0.6016199635224406,-3.183241197257179,1.209593289836351,2.0073544854599534,0.4870553268378022,-1.4779083485858995,-0.627526853305853,0.8781771927183598,-0.27441623916304625,0.04320016063175455
,-0.11384421339676372,-0.47492769025334164,0.05116364435202527,1.0112856390928278,-0.7588776198373602,-1.3047516549933815,0.3898898778560587,3.511088223916985,0.7587514182957644,-1.6903107356364162,0.03151619378636026,0.49015287426575677,-0.46654499116012105,0.128447419519765
,0.5347630245513233,-0.22080789380706498,0.6831493932418188,-1.0116910738512546,-0.13371514702739504,-0.9111413687163437,1.2838225356834947,1.7214410072492674,0.7156243702045457,-1.3761212879085662,0.059148849772712585,0.24926368692754186,-0.27119894072954276,0.5644909278484354
,-0.2974352171006807,-0.20468513985571035,0.8006038231624557,-5.106921630842998,-0.09205010457853482,-1.5296523751104838,1.9967741713487486,1.2611631942067336,0.5911541134184324,-3.125228127205768,-0.1557805215793061,0.686701518957124,-0.058294516853821865,1.0745749866654204
,-0.2039130471110427,0.2562916375499805,0.15039045049236102,-0.032449858515180875,-0.03322418381415119,-3.0500011448111937,1.1478262434856394,1.5663805967560611,0.5788551552646976,-5.298094987861601,0.14163587149117865,0.49551614480794703,0.07373807359712894,0.2786140669474155
,-0.08827202061944281,0.4284732659503475,0.3598672675020664,5.9846513959597045,-0.07309894479051678,-3.1366888703528386,1.400534627963074,0.9096211849775997,0.12908410754322222,-2.927273555173435,0.11164100503960937,0.4526606837464553,0.18308692075422686,-1.255690126362717
,-0.14018658449713278,0.15870639897064542,0.2948218322310288,3.584522145698487,-0.5500465436035286,-3.667637257350746,1.7227543112322163,0.7695381556606097,-0.1417908869141699,0.33835581425034866,0.5542418416181437,-0.10715011029967225,0.4216001762201806,-2.3177811893584583
,0.3887065704682828,0.010850695261657071,0.2706656058615716,-14.52044522738924,0.03829023845050474,-0.7774137717198927,0.10338410622059062,1.7716556678427524,0.10894243690774197,0.7253022670950461,0.248557213561547,0.009938190347066,0.11901680535120664,-1.6355749276862144
,1.0461438153241336,-0.0696515360574927,0.3268773156359264,-18.774561182030777,-0.4587788419685031,-2.189818171134183,1.4847420805236549,1.4488862683102823,0.06869651248193126,0.2975530591397879,0.20460188547155234,-0.1909415169482527,-0.054168992898584734,-0.36631792364112664
,1.3976515061615762,-0.42199946574080427,0.5511566249833371,-9.159516635136685,-0.8306640721762315,-4.3478109773780655,2.861801948125949,1.2560601752998215,-0.20009539329771792,0.7844127596369345,0.019970277554343187,0.2979977136775753,-0.09642492886911384,-1.2102508065406483
,0.4302201212304011,-0.22897351168026922,0.7191171603324863,7.3202382249179,-0.21286123882355026,-2.21863198265125,0.21598311521416233,1.7041128800361816,0.343421463819299,-0.8324602967547708,-1.0439944618654595,0.05864405927789227,-0.13758458925690226,-0.8306056202539633
,0.6563806420637457,-0.2672129625372768,0.3580617072445143,0.6011305839703132,-0.8238821358325826,-6.375858294333731,2.619902191808466,1.1671507649149147,0.5715271485139779,-1.7672412869777985,-0.9391972277472201,-0.08714891586758707,-0.03806309155705707,0.02014867222615774
,0.7856294642633074,-0.06912373428380332,-0.07884456281781516,-2.9296353576929595,-1.0013211497711318,-6.0092346627569695,3.2469482816359965,0.7086571759334417,-0.1484167106084219,-2.0218150401820787,-0.02109392928840121,0.1895367370355368,0.20500411914162397,-0.4709395561122603
,0.4889578021563346,0.25082435601882747,-0.23616215474070051,-3.2898214071504515,-0.24627404024017754,-3.8455522751999007,2.4297992131217656,1.7868106161593744,0.3113186732619659,-1.208792022563208,-0.0825894116409541,-0.18118145375989678,0.11730454606966788,-0.38810131740781895
,0.9085518794105093,0.0013807690113097429,-0.03398828837392156,-1.9044827595769676,0.02486355945866712,-2.716363027728529,3.3775533962224458,0.9382487892982981,0.06482006139976873,-0.756937012748537,0.20763985005276234,0.2684248279400666,-0.1938724503878423,0.33808501208330166
,-0.04326424801477954,-0.4867412076931064,-0.20907962469485641,15.51424637080833,0.24691308995931072,-1.7587779037213238,2.416405485244234,0.7700916177830583,-0.3675986685046725,-0.38456975040877817,-0.5467703659880382,0.45203626523224544,-0.22585286979921637,0.2565657214347412
,0.26459664326101934,-0.2625174860506435,0.06149115876778244,12.1957685097962,-1.1372330869181069,0.3821639090871985,0.10976609560562149,0.4446764446207285,-0.14026971962757892,0.4245539921593665,-1.0130088125683199,0.08183388666943653,-0.09713512828754728,-0.2259189110759736
,0.5103556198697237,-0.2544583768953076,-0.21371334870165803,0.3567663443147753,-0.9798384563728803,0.4438494356532238,0.4179319966829826,-0.4424573362850004,-0.6211273601056101,0.06969391267705966,-1.2855966361349085,-0.35433397697299807,-0.11481529441562664,-0.35912506739748945
,0.3742026414871967,-0.4595062609012214,-0.44307065844977517,-3.633058880001564,0.22715204440685346,-2.4035611978465994,2.205110733987284,0.03528202691034163,0.7324956428447914,-1.3580905445008922,-0.5735113694496187,-0.34867720998895974,-0.441769823383618,0.10722110468748808
,1.0105896822798714,-0.8652052720976386,-0.10483618613865783,-14.007625680809895,-0.3795193965042505,-3.74987696788017,2.560647813624549,0.7353519974996545,0.9932213322056156,-2.8504985312794195,0.2126352203163414,0.030382764198329647,-0.565425882276331,0.20293183465368725
,-0.3368808654259492,-0.8269859530514391,-0.026645451537179735,-1.0600768358751396,-0.9357752930362652,-5.510956335409437,4.952859516058419,0.009606580652762436,0.49824048941731247,-2.2244163370265824,0.5294773035717514,0.18818570144756255,0.07122829929305599,0.289899231502467
,-0.9294277760761215,-0.7073544274592707,0.39977621541318514,3.7620958580726613,0.06373790437669291,-6.353373222218504,4.934506855507098,0.3479877972709926,-0.10710146427043446,-2.752284937030959,0.582662732558632,0.12213916795177236,0.09202016708908281,-0.054231069230996416
,-0.4490368236986113,-0.7663276787955023,1.2011213540186796,-7.402055441624034,0.3294650289809078,-1.3054294711129695,0.14809516504790599,-0.34346275882605876,-0.31381657113629235,-2.7411159324346466,-0.8492829365725214,0.20617209914439835,-0.3516761463428523,-0.017195901597501125
,0.6621186408320164,-0.615160096768425,1.1038496529956845,2.259480923779259,-0.4279073734038986,-2.2491982513887603,0.2976659914189683,1.0453096743308488,0.6005562533269888,-1.0402112004453425,-1.5235797014125803,0.42985558372908655,-0.3435810034141735,-0.22531588254087753
,0.5672177868728506,-0.4763140499323625,0.9626705083857181,-6.184323354168538,-0.8621576680666811,-7.892056432414806,3.337572499843958,1.9165413704778262,-0.16888632803525713,-0.10686773371967574,0.003621084752685002,-0.06135453672168508,0.17251066493942885,0.283712485801059
,-0.07218257757260166,-0.09412293939659662,0.12988725470591928,-7.004667247091903,-0.5874079486341766,1.8133106442691849,-0.9802951560430735,0.8472813803184821,0.15809166728124818,0.6799988650072243,0.3298359003381501,-0.06338495062965109,0.3900553745931019,-0.3489028469874487
,0.4144393639240923,0.3069756952930569,-0.1638777255930384,0.4903258673257426,-0.35429858564569383,3.385421416578844,-1.4222668138946772,1.6216242338555318,0.7237161764775427,0.6381634818833116,-0.42119588421143866,0.9236505000868578,-0.018579732640416062,-0.5418516716108022
,-0.03601067817429815,0.4457016411170637,0.134434425794014,-6.218419259664378,-0.32533876509400644,-3.7771792327059117,3.220002777742631,1.2919382881606327,0.1416663417660798,0.3751411871512938,0.0062804009922676,1.0666342343245503,-0.09031955042914658,-0.46289014752506247
,-0.3790923454014557,0.11234663082326744,-0.02555969656346147,4.207917997368252,-0.16571699446947846,-1.7197905863095435,2.40665371614496,0.7809115378543381,-0.041888182177252424,1.7316408211756558,-0.1463108936078522,0.13095984743149913,0.010159065837497,-0.34003359684380646
,-0.11340171383448311,0.393193985476486,-0.6796726154981072,6.575531337496944,-0.729055965866989,-2.651781724924315,1.9445782434154126,-0.012382584149340011,-0.5601361321445789,1.3970214353688262,-0.17905046892192758,-0.2981228539938886,0.09628509166187377,-0.10998084372819185
,0.09922836646410353,0.01811090556071674,-0.4514805784653321,-3.2166937572539327,-0.5409463007437105,-4.903737363121915,3.8914309743089532,-0.3826756265856558,-0.3384831673589947,-0.18666359221395892,-0.4349566329251826,-0.42855327045113256,0.1548671234031629,0.09254732235001616
,0.15659326930689413,0.27592804938253895,-0.319912661064331,1.194663766275754,-0.09594754635575543,-6.349183586943909,3.8216457876190866,0.5374962697511121,0.5365475573015218,-1.4310230109026663,0.07571293392524647,-0.2358077151690133,0.1284470784154698,-0.1866468493744355
,-0.2679091953273011,0.16457839008809988,-0.10612028354870538,9.356789909846219,0.5537432516398966,-7.1318330818489795,3.629020018409724,-0.37612599611627495,0.3123680486104242,-2.4303480368564383,-0.005173123521908995,-0.6912147811743226,0.22271520702517855,0.04423073557619547
,-0.18105877036257373,-0.2538744751254973,0.30554479277161817,9.620544607323152,1.3087815497354305,-7.6040386476071475,4.009857970441897,0.260737177654331,1.053782376285285,0.12790003370489958,-1.067785332110977,-0.242206639384781,-0.030528577927397868,0.40875186333723057
,0.7070024140021643,-0.3282587882951478,0.802275375272352,-9.818115511312026,1.0933533681694299,-6.3967981957955,4.51713347900646,1.2544657254832812,0.8998011903221692,0.0356920132647091,-1.1232240414094565,0.9808812975810391,-0.3825711848739051,-0.24260722945058663
,0.6127669538413849,-0.4405075302816308,0.5059834711669302,-0.9188575249845078,0.754328440044355,-3.16338318118939,3.2198223750066353,1.1501492104623618,0.4466216605837526,-0.8191844900522306,-1.0200084024429634,1.5537400966076576,-0.37634603040283954,0.3552242358401729
,0.08158965648371813,-0.26386397296378455,0.45979818112705234,-5.049605428162007,-0.2360946510168097,-1.953822540412079,2.8410213103802278,1.3324493024269497,0.8132400690659557,0.11351646336310042,-0.6146847382647814,0.6643347203464943,-0.11191950395046112,0.31987026167553895
,0.20057991233118552,-0.19656214078405054,0.5229293598215441,-21.14375619971146,0.2374315013623432,-0.58387468365757,1.4061886754534318,2.9356011021940236,0.5897599584400303,-0.1984975374632892,0.2325587640685151,0.3883878355018126,0.21285277856265217,0.5735897612654832
,0.5582042951478229,-0.37744889223548234,-0.11560972756985927,-15.43319262671422,-0.35726877657217104,-6.310694848408304,2.679000529073365,1.1647436023984474,0.2556859720368835,-1.8716722020662653,-0.5871511273935612,-0.11518571689682859,-0.18530582130324721,0.7090937579938448
,0.38585364280336243,-0.3035378386852506,-0.04774709597106783,-18.052095898812688,-0.2533941450235082,-7.7097222106428624,4.898281054933543,0.940396222062357,0.5697518558837816,-1.9847855752621486,-0.6210183663657124,0.724844836999185,-0.12310321492921619,0.6655945968265982
,0.4642542412294443,-0.05013200200629764,1.1350380493070304,-3.834096721834667,0.7157440763725058,-4.2854619716822295,3.4935465651697966,1.669033080778255,1.1004077052268406,-2.0499624454762633,-0.14849154323769365,0.4287447791874654,-0.0734435792932621,0.7940245715590972
,0.3955446533593581,-0.1418454247370165,0.816563426559604,11.569562198338765,0.12299604194872238,-2.796932759150661,0.9240806699930213,1.4391147762745713,0.22375427363150432,-0.48242945018519834,-0.10149301078247003,-0.33455051049432216,0.25598632728524373,0.6012277072351456
,0.20881890165044914,-0.30128654432021923,0.9568778812062411,4.546166894837844,-0.19625084629827685,-1.8154081223519964,0.7723025520304976,1.3734823422160307,-0.12233492560119176,0.7254946203270796,0.04532398117318255,-0.052222486570574794,0.13375815473279104,0.4079485257789128
,0.37752081200723797,-0.1903036259085312,0.4422986066877371,-2.1812789166615034,-0.6432428382268229,-0.6902759311831437,1.0935807088772604,1.346312523617595,-0.23190786950953998,0.7758576729133945,0.016530640063878773,0.04836156737677449,0.10926730958113486,0.23990018671387545
,0.5176617114257025,-0.23508311846402097,-0.24560412893500783,-4.615128982316803,-0.03965362326469231,-3.3165751065779983,2.0995470648089314,1.4414775995850877,0.4613034664480568,-0.7351884098804059,-0.006678259949370865,-0.5799649207136568,0.3427764244909251,-0.06746035158349517
,0.449171713600701,-0.27976186183461405,-0.41725620770448896,-2.10973540239225,1.2891505429966885,-5.820927731884626,3.202051400683184,2.0961159144538932,1.4368733653001302,-2.7843748238154418,-0.20422742978999128,-0.20276538508906602,0.2783918685133629,0.3904388481006638
,0.6206463188763413,-0.3652844307551692,-0.2051996605886406,11.254037327529579,1.8204079618064244,-7.544619359240545,4.286324174195864,2.1592654345203486,1.3573873591162346,-1.0753898997344291,-0.09460850390953608,0.8392309650988657,-0.4117697995500963,0.5903403832906429
,0.03486755281029009,-0.5267230203399438,0.13330207073198658,1.6584488985211099,1.207233202875372,-2.5707416998463417,2.537419052167902,0.6980786060421409,0.4386070084434796,-0.05695453776772397,-0.2925425224767239,1.3336669624446875,-0.3471672605753303,0.22183460076408862
,0.5293696600280758,-0.2936124990289005,0.1795554845593914,-6.869592254896945,2.0292203275260503,-2.3464777609851697,2.098909815328345,0.6336330057788094,-0.182992916307136,-0.4835751823746492,-1.3119078163724025,0.994044278424259,0.11324135656373416,0.39947566105087007
,0.017715385826944104,0.32135828214207135,0.09063437566069567,-12.475203348383458,1.2076603649365458,-1.9844475413362104,2.4315367335712734,1.3622279772843982,0.40009217064680347,-1.5586559586427182,-1.1315447579037285,0.0163530336791197,0.2680213404373147,0.2604950192912087
,-0.14495339258852016,0.1412446124136185,0.3894931104652318,-14.530700188034501,0.3468480535844912,-3.5602632543754935,3.2751006206188746,1.478610559530756,0.05436685169910444,-0.8091348532571839,-0.1722552515675833,0.04427566869898255,0.1686436120933524,0.2687438263138902
,0.5638497795600564,-0.19982225592480612,0.9569439527806182,6.057237224219262,-0.16068005007067354,-2.608452762904999,2.1058999624908483,2.0773450429769675,-0.006738520535778314,1.0153476473237022,-0.11338979202558908,0.8338258938808093,-0.21512126227069883,0.9504958154173764
,-0.019432522418568174,-0.37374730593768135,0.5955392857711392,14.552486544036961,0.31809209397148447,-4.7033806385833055,3.0608534109157888,2.6678348651107417,0.6024059495534005,1.084762237929778,-0.6224845821278417,0.8745877600917118,-0.37739539612489065,0.24160834755030536
,-0.5080021101071771,0.30915316166961265,-0.31010778840962433,1.8759111710416296,-0.15364263344078838,-6.32178669828725,3.7952075915816503,2.049020006036155,0.5505101718696092,-0.5077856534993895,-0.7054679543964162,0.6145220006569607,-0.4709433433678056,-0.4725110859014185
,-0.48849706754803546,0.3939880200931259,-0.5564420841174474,0.6345209766296385,-0.8747264774942808,-1.614434348541802,2.179951627090064,1.7714552321821813,0.5931209171354314,-0.6710212849054417,-0.3161332249823136,0.22560083062739392,-0.0405040147163303,-0.39437463453124894
,-0.36340075266055333,-0.2540956433602676,0.16158739945851075,-9.542930767591253,-0.3038631401359924,2.1671865829142396,-0.8064404546828815,0.8603135453788086,0.09941769347388683,-0.9510836715450025,-0.11190313751569765,0.34559780669139245,0.029467565095802718,0.11387472514160084
,0.20321021703923564,-0.3307472519654118,0.31183627354465526,-3.784231040996596,0.13064483689704895,2.0326216172734495,-1.4359225456684572,1.3228913660764579,0.038372385269792385,-0.737653203627771,-0.1303564823118724,0.11183285981840253,-0.333102767308505,0.28611443759575167
,0.10987047875347901,-0.5590079710718396,-0.52608052231468,-2.9864501015655645,0.07507905606472923,-5.946799658422894,1.1028310436282196,1.9205043722662418,0.4331371437219004,0.0025736805214293932,-0.3538275130107476,-0.27995498622024706,-0.5415064144892868,0.12109245361069143
,-0.2145882541698398,-0.4071893567667208,-0.3150148787311424,11.426760079136066,0.29107838723904805,-5.804453603228794,3.1086669275708125,1.7312463400495366,0.16339226477956503,-0.16770827614785297,-0.10893238712390349,-0.4497733370631224,0.02707729004992624,-0.518092709087763
,-0.1081265596594643,0.16540047841334776,-0.5518884241311117,2.5825051793578786,-0.7323282114636651,-5.459473381366375,4.789404636427526,0.8311326675212258,-0.38274876827680054,0.3428601124864349,-0.8047492459015027,-0.6939862537099616,0.23087517437836888,-0.9264596920784471
,-0.21513523664148754,-0.12006766915097422,-0.41560584360234887,2.5629986025044142,-0.7105072602895949,-4.607872134623257,3.850823259803724,1.8401302629406133,-0.033102836725920466,0.1034344041840789,-0.4473237760972689,-0.2137730298306556,0.06596203146011609,-0.5381191502175615
,-0.4803010351818786,-0.01813829171447489,-0.20300003172827638,9.843509177779886,0.300144261247915,-1.3364522355910844,0.8049050458741194,1.428182704344852,-0.7767203780179768,-0.29781475005045777,0.051644923686780184,0.37683303133724816,0.279392690927096,-0.2256887610493566
,-0.3758511649291091,0.06503640749091275,-0.35680801191153566,10.960263027308637,0.0551903491293602,-2.0555954374744925,1.370970276320022,0.630012890760958,-0.8659167706110988,-0.3463767668903183,-0.012339053517874473,0.4797490354991038,0.2601795154459674,-0.338893954266974
,-0.801363258025353,0.08389695834266785,0.44713426949807256,5.930243244940766,0.04837333090777387,-2.2280711566034643,1.2687302545840382,0.4496571094686132,0.22090346272463054,-2.6683573694712077,-0.5206131514701948,0.20321943271534085,0.28772623336280423,0.4139129231534427
,-0.7732972691233456,0.2689577602720501,0.8453668188609831,7.511334991757724,-0.32186468749610847,-0.07951247000524532,0.4393568483318059,0.8453468355712274,0.13729061738220993,-2.2953314023778932,-0.6048502342876402,0.1190290027929028,0.20430826709464325,0.2784239867239426
,-0.21304525900296942,0.03276822095891941,1.1044681749057468,-10.40178919354537,-0.024882447534311104,-0.6781803479913943,0.9882068829450882,0.1531531697609075,-0.17358047298835727,0.820367024652904,0.12498883747100242,0.0043793274837385,0.05875955994135968,-0.046492760124742426
,-0.49412213637597635,-0.3287150065087778,0.9188040142577549,-8.285167143632105,-0.05912302771990154,-0.7558781838144308,2.072213952068096,0.9896225298372865,-0.07175550505072319,1.1391723631677328,0.4679425112501642,0.6120977318286724,0.09584580347315266,0.15333684617925666
,0.13738707573962056,-0.261501430094677,0.023967095787315398,6.009393552046124,-0.8665223964907901,-3.6799129326403013,0.8500878522292664,-1.9572447097057202,0.2596427612483381,-0.7210976271840074,-0.5185635780071554,0.10626250996223886,0.022218020508770652,0.5395953198568076
,0.14731798545638888,-0.27630223092555195,-0.6098762566860975,10.503374097575241,-1.382087300288058,-0.7814354012148592,-0.8715669833444557,-3.2334655885998833,0.03987950517794244,0.34703716881307284,-0.2963757700948956,-0.5911619805340681,-0.03418282114231237,-0.3254380558110182
,-0.2326972386203327,-0.47568580950236833,-0.9448218964758159,13.603399911480858,-1.0976077053783642,0.9662778631873407,-1.1294443950454378,-2.647968627531029,-0.21556574687142027,-0.07912570026527735,0.07420010588280766,-1.1240968547623549,-0.24928906118277588,-1.1440526706845955
,-0.39735919687860316,-0.11785389464423748,-0.752117161789006,1.3043379188788393,0.3162203199780888,3.86234762394943,-2.637856725722219,-0.6837155122747572,-0.5148757644280231,0.21566152664925908,0.9088694464269366,-1.1937227087397024,-0.1919069356766939,-1.1189061024454172
,0.6941741058655808,-0.25384729290516694,-0.07998369433780993,-9.40191848361695,0.05046812190618382,0.9110841719833954,-0.6715515631402481,-0.833059916141749,-0.9504656655761219,0.3432444040045253,0.6151203949010045,-0.4890660974748387,-0.18733969538186634,-0.20204672666243903
,0.46466671386423347,0.13830534330205793,-0.12689168225124306,2.9516289606368074,-0.7098684175086291,0.9611842279426517,0.6801826819891362,-0.36336579866992846,-1.9207027406463515,0.8909719547409444,-0.026764700508246527,0.052895074449872716,-0.10314651945408325,0.248024942642985
,0.290030762568881,0.13307299429403735,-0.5859990762146716,5.333710178328863,-0.03796062631669665,2.7180565070407514,-1.6299297671392108,-0.06935574736279512,-1.4884995148756484,1.2922499811660348,0.4584641281341991,-0.9084442138570114,0.5288294716670285,-0.539409762267619
,-0.42450278774836714,-0.23932706339550872,-0.3498579959727211,-7.932001326075384,0.6364416089263497,3.4988707912388453,-1.9450550972402612,-0.3504882974113769,-0.3127917491338641,0.15242169977974318,0.16923404046880472,-0.7101715022292059,0.3167503085809479,-0.14180687193703553
,-0.09440087981728998,-0.29216611104736023,-0.017302018840684275,-5.93192536038685,0.6702748351924893,-1.959693101202744,0.9527007363982504,-0.22385238235827673,0.04974776764107749,-0.6319275142890989,-0.006482435352003777,-0.4203869847850808,0.047492235378774686,-0.1303916190046327
,-0.05401590393900849,0.5844769185421679,-0.34969520162212214,14.957529949633063,0.6500253546356506,-2.7178159061089997,1.2987855932628383,0.08396604358082882,0.7494686387103905,-1.829207379621289,0.12407100423265402,-0.44114540910331673,0.22075363526834973,-0.552423761094616
,0.17925368821490636,0.4754140659238817,0.11588104764453358,-6.0567528662373755,-0.1828214012726426,-0.639200088908212,0.3778249488485022,1.947441096246345,0.6974183270043337,-1.276423090580414,-0.3244633679433973,0.14788908289044062,-0.12927257579014126,-0.5675361642472561
,0.22644543112699392,-0.15091817331455046,0.07453950859989669,-4.597976834692209,0.6752038565374812,-2.9007510393878797,3.2001122566608835,0.3908904367256321,0.37547312680760836,0.5703490860165598,-0.07079226967968288,0.65023742227965,-0.1409175099826713,0.18706997459058913
,0.26383008022629895,0.24439855177000236,0.19923804729810535,-1.7171205972149548,0.6844366131797569,-3.3219043134662827,2.2014033307775303,0.6990178757404402,0.67642994034859,0.3285094473807895,0.019801884757435318,0.7776809595975739,-0.14046779132899956,0.16628572946712156
,0.11207667622346576,0.3547359772036701,0.7104687852009648,-0.358541342771724,-0.39445039134584076,-0.9436112775155988,0.5613847732613275,1.0896335796523722,0.4203706699445798,0.07872407236541283,-0.2212936300195772,0.6620515843123579,-0.043473802225822485,0.4339975238873789
,-0.06361849303818252,-0.011445794754408753,0.6708836270197818,11.659405048026256,-0.25639857330648474,-6.364269853875262,2.607007636759464,0.6381727430372623,-0.37501293178417877,1.4143874771344052,-0.7715368012041155,0.2449665283974651,-0.02102899794668643,0.7816328037318532
,0.13016590034991757,0.40480356134466416,1.0706111917884555,9.170522191974035,-0.018010648309308534,0.2435493150554153,0.1901598373868721,1.319944210833085,0.18549374888719086,0.02647349847206992,-0.07030671087387574,0.054902287120258644,-0.07394626097683517,-0.18745868043493827
,-0.27565747943743557,0.4210593158474176,0.5917857847193285,-13.746982304235475,0.30585008938735453,5.229835912324353,-2.3487720258815883,1.4819541773219034,1.0931131390245548,-0.11925389241448803,-0.6408654834017623,0.32882645655929527,-0.2545144780459985,-0.1439739102526727
,-0.10313607340011571,0.27251271261907994,0.1913539571806266,-16.459577917603312,0.24389775175549075,3.552686907924607,-1.5504099516361662,1.0965615199325456,0.6876996260854806,-0.4337367558086247,-0.1844301772366905,0.8244574139242915,0.01622396087624988,1.4610207737373355
,-0.48043804394227324,-0.11399964967901922,0.02062449736475863,-5.6374840788039196,0.7390541100798546,2.0682742912748577,-0.8945559660537666,0.7988408109864038,0.13182809350555794,-0.082174582209913,0.39491705097826546,1.3038829584694933,0.1775776375452489,0.8284339624850976
,-0.5195223228146801,-0.8357319905841295,0.14719144158640324,-3.6530206969419337,-0.026145201361886077,-0.7035736976015088,0.7594928276292848,0.8160940859986975,0.4113487689299602,-0.48708377414971027,0.36719686853929917,0.7241434735226473,0.2396411793095142,0.40738329444306487
R,0.23674560307707293,-0.4032067158863831,0.25227023596439613,1.4492422531662317,-0.08960643385133342,-0.42820049182474085,0.10395806974307195,1.2254566846741395,0.9595782582451905,-0.7544783235537329,-0.1035906833435237,0.0959251714927398,0.1796084534737829,0.08910293247283238
,0.33456444763209225,-0.31298665830250355,0.8317654393546111,22.33955898114259,-0.20948849786651536,-2.3875915631010494,1.164040069034624,0.5261718557326479,0.19998402259472386,-0.20202942677091532,0.24538586466238577,0.38279514707058127,-0.11220065539629609,0.7144494067838902
,0.6626448488824157,-0.6568258442215303,0.4607679827478135,12.98003433670016,-0.14396786922417337,-6.726772639137574,3.558562908822301,0.18942700011104863,0.05166680597795866,-0.16397374473032653,-0.24819176781662416,0.2642129901667373,-0.5133444350991969,0.7499823603706371
,0.36585491376201035,-0.3125362502832175,0.16501762181269933,10.309386324447068,0.5080620507287528,-4.765097895282387,4.200903647167027,0.7317655896053981,-0.0549516392656819,0.8004116612005893,-0.13873441708511172,-0.15226401786503127,-0.1309067006804327,0.1524851722481683
,0.4860337102437815,0.19936250481126275,-0.254005481185423,7.8050202794585966,-0.5645606646995217,-0.7978098514785912,1.8451256019985187,0.6781482262660479,0.0042703133676425,1.8033890265747656,-0.1257371506107366,-0.5761952936640885,0.1143250543471588,0.15103006428986868
,0.3053883000221,-0.20782285954513918,0.11058831946232865,10.893585592313391,-0.6072439635401378,1.1321231038270392,-0.20752856710899598,1.140868661387425,0.1554895322790249,0.9456623054994899,-0.8869957440952988,0.12932568790438106,-0.2938921932908672,0.3311275508464149
,-0.28205629550041744,0.012756025208882178,0.25099111949276104,4.805459755758417,-0.2736863101057608,0.035249801603928356,0.27916097544746826,0.09196891988323992,-0.3362842170916266,-0.9678190386545907,-0.3679125871858146,0.1376391974372989,-0.18958282252593536,0.16300041390679548
,-0.12006473904553357,0.21307538028600095,0.1881347339371417,9.237711308344865,0.2108025699631673,-1.976671685375501,2.2190811701224584,0.6817716036153528,-0.20060478165754134,-1.3959717582892817,0.13421739012984726,-0.2664513029399584,0.06187855834833481,-0.11497634390185442
,0.017794822297482554,-0.4061597547822904,0.009930586166810378,7.018308983103778,-0.39024101027952107,-1.858921456623347,1.8850895497145452,0.9190343309954749,0.14350260758141764,-0.03203745005010353,-0.37410777045681476,0.10534799881287771,-0.044680119430891466,0.12421978255680387
,0.1415514703839632,-0.3677767308189809,0.0449540355642842,-20.128525418661425,-1.1248708715876816,3.456725122725633,-1.6741937170285572,1.3339552909124972,-0.06424303953315884,0.4335346206132231,-0.09214709268706357,-0.16057600803625344,-0.545462429834468,-0.06702392275532584
,0.018555712644089978,-0.2652816946526118,0.3257652373335218,-11.284849765666353,-0.5262745109027689,0.9931142071667356,0.22127957591185685,1.1034417095231814,-0.3938068296475947,0.15796193039440087,0.19480481177920758,0.30791590532787616,-0.3271818367688834,0.35589177025651336
,-0.0971880023049798,-0.27864619179153544,0.26687648118485136,18.32216976237919,-1.0606158047014969,-2.762013324583647,3.3977671492946384,0.9024521442095097,-0.8257760801066552,-0.8576453597021211,-0.2397616551732275,0.7316957753163014,0.1742223763049938,0.45447586163160447
,-0.09684719909888574,-0.5966197264382218,-0.10754991840452016,7.742496540661603,-0.5971224441445384,-4.602482604591962,4.8383620404770324,1.2153405898211895,-0.7683738635997974,-1.6589812401765345,-0.69112759055651,0.2710296881437025,0.11456304886342987,-0.07943178446118944
,0.2296936449660202,-0.0028535052277667496,0.35072416141184953,2.677889068017622,0.46292973425723244,-5.47909350325139,4.324795714931158,1.0823253245374147,-0.10836634052203481,-0.5786617824580066,-1.3355548971009898,-0.15573193722657552,-0.07675151866905985,0.06468725665323684
,0.9955341533802896,0.013888120836995286,0.6606555621671968,10.851457066987336,-0.2969657285768775,-8.399791341550715,6.224517993982998,-0.2940770384676495,-0.35865978273227334,1.2299395957076793,-0.9995943277873419,0.22874782885035413,-0.11911394023941146,0.5687606006653757
,0.5844942411726063,-0.398925493446178,0.8312746609350676,12.910924905990896,-0.08952058653560681,-5.176892369775958,5.329495920668854,1.1353652323373906,-0.5462525962053979,1.1134358741588206,-0.8006306736018185,0.7819727815412988,-0.473380304238376,0.3114814839670701
,0.23912007736940039,-0.6544270216663617,0.5226105371936832,1.7907270552316683,0.07558815129548098,-5.245764331226805,5.122731490053541,1.470106788948762,-0.5546650890548127,-0.5690843231764793,-0.5278736828511665,0.9089196338191693,-0.437139219380403,0.035634945669702565
,0.015636012125415703,-0.8801336727304844,0.367296945041372,10.50554280132617,0.4292405246143418,-2.867889208502239,2.8449990457731427,1.2880371669695516,-0.28998119480466367,1.6774224773993214,0.27727880840456226,0.7531743042088799,-0.3086489698854075,0.26044168413151586
,0.7630610482945384,-0.5837968392803542,0.1837368105690081,13.615500376064757,-0.18550150001109764,-4.837783870881128,2.0130314410826577,1.2056528451514783,0.024263777586334898,1.5421826541603183,0.3902868631732015,0.27988932773942515,-0.03585485061569107,0.6162577640806198
,1.1724897360306006,-0.5479472837700241,-0.036166313655457895,2.95411068497587,-0.7203135958866528,-6.155969588341221,3.2940147304756273,1.6180393225436789,-0.3888039568832252,-0.6573919505482524,-0.1550661944668343,-0.17846543368931364,0.18543395965581966,0.03201965738646205
,0.3882241914086561,-0.5128777927487327,0.04892329510404224,-2.1338835577069184,-0.8128406787123247,-6.622952060181214,4.525875765419256,0.986114610189466,-0.3148082324619211,-1.0706003734226286,-0.4366857746918099,0.5872474461968765,0.00604716563168828,-0.24808045115533137
,0.11539202060977023,-0.25381584203251356,0.3226880452907927,-8.703019067300056,-0.31513056785075083,-6.0265030016816254,1.6221433907332994,-0.7085543939832675,0.05626455617175552,-0.5901267691082978,0.06172796533320589,0.8180107875129685,0.05102151424688739,-0.004690849345859508
,0.6920382140647814,-0.18236860640008293,0.06935770553834467,3.6719206732711474,-0.3966419179151127,-6.585239091238338,2.1531784478051037,-0.6459017158750586,-0.2594953130995268,-0.272536310884328,-0.34712440882740403,0.7459674173085348,-0.17016553042908494,0.7388159471606344
,0.14190120183018975,0.2783237247607121,-0.07684240525729229,21.91562586489782,-0.002773104931684819,-2.8961167180825167,2.602937330229536,0.9286245377077805,-0.11758711649281568,0.03317250862467067,0.02478438562371326,-0.07116564962395333,-0.3504753826414772,0.19745719625465197
,-0.7967963695431574,0.3608784450506886,-0.3348457838406512,17.266714852140165,-0.39211580122912604,1.2795574888616355,0.20534053400384253,2.0966424497414073,-0.2897117426201102,-0.26004253129213334,-0.3955020521418793,0.5891226106440207,-0.4529197506632653,-0.44371101694534865
,-0.29128320228470117,0.42045041994126164,-0.09366003911023538,7.226196375656431,0.3899312874776453,-1.1168338523009296,1.1807085599200462,1.4233369062788068,0.2084306517186513,-0.6482755257106826,-0.8033192171300707,0.9914279398160539,-0.6892010996509776,-0.9662216506045822
,-0.3206137800890196,0.22273737053493528,-0.11935235068807228,3.329615762842225,0.6468450691624326,-4.709268206284395,3.6169326165868725,2.0620847361657413,0.3004686120456236,0.3504393757344153,-0.2696260358121915,0.45063237699435194,-0.4239565454523088,-0.37231998111967163
,0.7330343239805951,-0.24329021552921115,-0.33219499450012246,11.458564348033658,0.4786872882318339,-6.019423203078142,4.4761942381091275,0.7591969194777985,0.06917110545806135,-0.37439045442024826,-0.7405490739810588,-0.10308546452998561,-0.2330421959040112,-0.16160533998667623
,1.5369160661151846,-1.1138142665452029,0.7045512830746099,3.779864071568154,-0.2982249818356659,-6.012564799377056,3.9025003905687217,0.770339738493201,-0.38337274342212146,0.06428830529051074,-0.59429792799421,0.25525978088581636,-0.33727754768627255,0.4032675359339544
,0.8162693448381858,-0.4627431443498936,0.18991586121459678,5.187977275738859,-0.4145689443929384,-6.413980079108355,2.112536459646728,1.121966983404242,-0.22514848105665475,0.27416839677148525,-0.961513026560944,0.017741446496878765,0.024367703722688577,-0.31670029897509266
,0.40936607907387196,-0.652697593103186,0.35195578275919076,13.894373712666976,-0.02485675761608809,-2.573501374419729,0.23876912138754777,-0.09606376128443296,0.06493901133185837,0.46771704648962603,-0.945401212853073,0.26510721558181494,-0.16908485911537913,-0.4321754619123904
,0.01745147148110298,-0.45820400285337437,0.13289315652663988,-7.698194060189829,-0.8724592129769699,0.5149018939575073,-0.5581445442157533,0.20106222189306136,-0.3932363175819863,-0.5181905801670661,-0.03629930512320308,0.31954861261927386,-0.2013574099096283,-0.05378608971602417
,-0.4272881273632827,-0.14358603724553412,-0.022264701072511387,-15.785885132723559,-0.7023206281918496,-0.10653787555838926,0.4496551024727353,0.24189961797109416,-0.5805071679801366,-0.636499587887919,0.27507516754950895,-0.5389585061349975,-0.011375610103693562,0.5820765712281596
,-0.42483454175088053,0.22427214680911647,0.14795401821575138,-20.54594300896918,-0.8416064145025973,-4.69652827433503,3.1117292546861295,1.5530983791687856,-0.37851878583468657,0.1597324527243968,0.5268144561757033,0.2989000651572866,0.1836793874422408,1.1068198220313086
,-0.07422186839396967,0.31858839292478464,-0.008814174520752747,-3.324907845099729,-0.7606730043577665,-5.605504710996945,2.8264004187817715,1.6199803042911427,0.2535334566594725,0.005522485602267311,0.7803501458470661,1.1312690555959093,0.1238715952679833,0.7554892820902983
,0.027315398210742012,0.31345340089116114,0.13413381513093764,7.371952794728072,0.22178936552925224,-5.983041924516466,2.725014055433842,2.0046236743751855,0.38333832909825566,-0.3516895595084856,0.32872824856608507,0.6652801048682165,-0.13876069585525952,0.12912864114243738
,0.15868417952011155,-0.34119686513508846,0.1414193563283847,1.1541620168228472,0.3800263499564406,-4.697366770826281,3.625099043789884,1.802942518793693,0.05756053219195956,-1.828638646171654,-0.8927577585271919,-0.009542786967685648,-0.10962967833884162,-0.2949982361723546
,0.31075122342567757,-0.2950746839005352,0.28179698075865073,-2.124370224999761,0.08553797992187129,-4.130327233385116,2.0335143398934443,2.875036905307024,1.132978264762071,-1.3616838059175258,-0.7046207015546242,0.4598349888530367,-0.10764330993201839,-0.39970260013688547
,0.09109825514603125,-0.322428756676913,0.7971831643320002,-0.1431471532800099,0.9805911872002778,-8.458034235966014,2.933767501198542,1.794277084694626,1.0551361924156448,-0.09337255170470914,-0.452575654853496,0.8701314794043233,-0.016796127020909133,0.26699874082230035
,-0.6285555718300535,-0.8408716180800405,0.6791273606396367,11.819979729276637,2.107807655500334,-5.298060707689312,2.109254168386193,1.830534636676736,0.9752197774056612,-2.2119486112449973,0.189108845716389,0.7018434087093255,-0.05803192744481178,0.7620508584684891
,-0.9642171138467438,-0.8543880038317299,0.7221703707896,0.3668358802847761,1.3507687205837169,-0.8567870963530102,0.33422847703537806,1.3205872056414658,1.1010639773916853,-2.2372500749483346,0.6538213094336313,0.9317180192354961,0.2111494033910045,0.6426766997963408
,-0.04161781264019477,-0.5959348883619678,0.5830058225986522,-7.981448249008461,1.0124460567608464,-3.6661170057134362,2.721252515775903,1.174282404368252,0.45508003828557336,-0.48430225204001404,0.07456816618251916,0.8135958029082738,-0.04362225667121505,0.37032686212605753
,0.48665869671181183,0.21733624593291273,0.3187906189303129,-8.785341388179848,1.2062447552354245,-4.297345912424611,2.732409368275299,1.6986866598852184,-0.467365423024138,1.4620553480865066,-0.18457663625349727,0.679118132553883,-0.098453108056389,-0.09720538549097892
,-0.08958232576443968,0.22049281394016143,0.3239721174324031,-12.08303731463069,-0.3658307243586513,0.09494155702023044,1.2581329143303184,2.1345547083133307,0.11592701315409723,-0.525435788949779,-0.713131884693951,1.6195172920469012,-0.03601959101297379,-0.35096246947894116
,-0.8051206644771243,0.47397728507188647,0.18774469833886362,-19.870967379230525,0.05751544823060118,2.379612975363944,0.7053535140192442,1.2028471058735635,0.2681629466413194,-1.937725863436417,-0.33545779791437985,0.82320759629576,0.05809686118924232,-0.4059086260559609
,-0.8222776543719879,0.5934818200950907,0.11270858935871238,-21.159532135752666,0.12185651194096458,0.5978855552059221,1.965554215394991,0.5596234767367139,0.3266872355558169,-0.8754658535122338,-0.2831962927760021,-0.38876899473361576,0.0690048982278736,0.014041368928950245
,0.04003632192103162,0.48788717968427014,0.15306922325224095,-19.022662156588474,0.4178285775421822,-3.367551267796259,1.038069948705521,-0.13248743281847897,-0.17394218921316845,-0.40957745172695603,0.6477488497366268,-0.043049719208094354,0.3347549636201698,0.14473730569017593
,0.05841129097075589,-0.18266456464499015,0.6146349361462842,-3.718374172269787,1.3817471166322803,-2.816468461790204,0.7534119768509495,-0.159377272066015,-0.10454470473240185,-0.999389181060819,0.5226889792942877,0.6513432083801403,0.22708934751384688,0.6448630546536632
,0.26151607766315693,-0.7117566396779352,0.7455473939285616,-6.801230431331769,0.7366525079136613,-2.983592608171446,1.932694412020199,0.3650032727619098,0.15544860707643354,-0.004146710723834423,-0.030584709493386236,0.5399812193075167,0.04348632337676165,1.1419001661640626
,-0.44831249623139835,0.13490293160610142,0.2623108755423894,-1.2926774929682774,-0.5641218383968022,-0.9736688732454228,1.3878652938134666,-0.5538352471235132,-0.02084882188470678,0.8667753858484029,-0.4664145070894787,0.1766725902559326,0.11151438735218275,0.489322023949821
,-0.8126140219899676,0.5525699573811079,0.13701336158412017,13.181167691383449,-1.13463413206862,2.3210874498878122,0.18257853398180887,-0.38250014129420146,-0.230470922688632,-0.6627292139417091,-0.4278339193866926,0.330771099981108,0.04491810034097832,0.3000940938578479
,-0.0420757187746727,0.23424872735265678,0.11689077609844112,6.42611607942014,-1.06873273465204,-2.0807973692272914,1.3256414247908581,0.9876894110167054,-1.3642392454050476,0.13004824928716377,-0.307526767248172,-0.16101735510607246,-0.12986896512342094,0.244676394316606
,0.7853494113903493,0.3639624881190375,-0.07294983303541623,2.73489837661893,-1.1754569783827191,-5.183130900779669,3.3047484499076356,0.7960602029455005,-0.8188375759686638,1.5598551569245156,-0.2557787666686451,-0.39921768629948867,0.08553891819126283,0.4541209397811566
,0.7984425712685654,-0.18235157233948215,0.5660211172195045,2.219203476699134,0.34455014763069913,-3.548733551985451,1.793496744433192,0.9426405806396381,0.15522716440279855,1.2460377708469887,-0.1847511952138936,0.785943783117448,-0.24696899948155973,0.6799862905508377
,0.4692979415591951,-0.49088074252838165,0.7522562292996557,6.304207432730888,0.41785219199186885,-1.196687622088133,0.43920479130831763,1.2111759693453035,-0.41519198873547336,1.2864670038777137,-0.006777905356582831,0.870302785924193,-0.5841187811228281,0.23127739071837658
,0.6023584612096364,-0.31830291068903555,0.3675796891072302,-3.1968322306777157,-0.26638835445779063,1.6206519763002283,-0.6955070369044293,1.2710172696127475,-0.7177129704669469,1.012584729491792,-0.18982246665420935,0.5264792396457343,-0.011382907831820941,-0.09352744747238331
,0.5459821124321643,0.16809614705955725,0.11820670456843799,-10.748508996276247,-1.125644270213093,0.42812994388246367,0.42256579444633324,0.4153936964795829,-0.2607932054306627,1.1342624262103431,-0.003925165620549129,0.2603850346871975,0.16909261385854138,-0.3703425434108626
,0.7989130168296416,0.3828202125022705,0.1367979647559861,-9.368631969909302,-0.9371347485319429,-5.73832176002038,1.6588643589920873,0.5511490858072563,0.22969874234140908,-0.6185467198267144,0.31714996855347033,0.3309833944255164,-0.27210721219313533,-0.006479797354865608
,0.440764548124717,0.558698153995892,-0.25138081692115877,-4.884476309722705,-0.49130521707781405,-1.3406095453000653,0.17695467408901897,1.0982023669576233,0.45145169961041187,-1.217948632017858,0.25384451603294916,0.41257275263348037,-0.23140013728490066,-0.1389915780382699
,0.0042385980344559,0.39425723419467806,-0.1420680883215426,2.8438237970413733,-0.3163412993773914,-0.38341254581411716,1.3689110237253572,1.9667937750160345,-0.1066465929308368,-0.08893837172129275,0.11648091530479875,0.3685133249843175,-0.08228645301351575,-0.3003323228447248
,-0.23565576942793057,0.01066430921442398,0.26967188122340097,-3.389434129959248,-0.9520998386342687,-2.515141913104858,3.655540147404404,1.6834511321182504,-0.06248945422580837,-0.32137887126178516,0.3497318799408089,-0.22876448593838103,-0.21848831259836413,-0.20710365087673274
,0.3090486540339865,-0.28511498771933985,0.08686097226738722,-6.482708362885031,-0.19395076938057093,-6.9500831383501085,5.511061881888266,1.856066812625176,0.9014859028373589,-1.1320733642373795,-0.0036973259422612183,-0.5208616441201762,-0.0892869746953774,0.1902113749404001
,0.5702182198891986,-0.5240259106314966,0.019462021429515378,-4.78263408758524,0.487962420981997,-5.302193445157206,3.1348221746784155,2.143232662791117,0.39138404683685124,0.4275193214320459,-0.6283142027328253,0.09268088670465721,0.14253584210786224,-0.1330484643649382
,0.3688870343601876,-0.09663451719632966,-0.07688834760803424,-15.857028533945536,0.0007126905296877822,-4.191571646275052,2.2068923584846813,1.4638071058991409,0.11973533032242224,0.5625206537667695,-0.14151232889545823,0.13041138256658327,0.36575831632687816,-0.10153944735342924
,-0.6486071639713434,0.15582053071383212,0.46298296760301233,-10.093330821787262,-0.09987793590096264,-1.5747901341510875,1.5397156853086948,0.7086124125026649,-0.3662886254755392,-0.42958261475514653,-0.168251129648599,0.30642080065333055,0.28805143372457664,-0.12527210799541136
,-0.19180015811498524,0.04404316227928718,1.0765369421026703,10.591129543331192,-0.14143799264852117,-4.673338436183399,1.8399623405282868,1.194175301706539,-0.1974509658515963,-0.16894021049203586,-0.30243740429984495,0.8215888425967962,-0.3523992844417917,0.31354231733261173
,0.34830004095824874,-0.24075650416377506,0.3190296139957013,-9.670295810241424,0.4572256021684807,-0.34118959166850443,0.7505939767539722,0.46373649152116336,0.13740099304150208,-0.5304389610427974,0.06741426162256432,0.7238735758591514,-0.23799137690361624,0.48827203680068326
,0.02620330265584439,0.25400687279836365,-0.24958834326800916,-12.429420174127655,-0.24990644341910834,1.6026698249402052,-0.52654014596094,0.3923585002183754,-0.13967024605404757,-0.6103211338072667,0.06293411307275962,0.20097500155570075,0.2942697026498268,0.1580732306612927
,-0.27369199954893586,0.4812034791655076,0.5194927192003652,3.66895562706808,-0.16835512046798812,-2.166577319137049,2.0282273676333644,0.8787410255024121,-0.7939565765866029,-0.5491689241208956,0.09684464496283023,0.17799293520918757,0.1724501105951964,0.21711368169585366
,-0.19172506782034707,0.2791640973631493,0.849827584762769,5.086743387305083,0.46502117270566357,-0.6031462714616427,1.1248766366606815,0.8695958111989113,-0.6670609484045775,-2.49999323159078,-0.24905419779359447,0.17465746632567827,-0.21459593096529542,0.6190418333195435
,0.5182726413309894,-0.035658398920700655,0.9386510957909191,5.4397880051565615,-0.05777138220008206,-2.732574032532169,2.3867608761167918,1.7203375796329912,0.5581579803142058,-0.9783552160594677,-0.26435441538280835,0.24239507670535576,-0.1790958597838899,0.5129846968337799
,0.03579991852211328,-0.6097632065285251,0.8499349937495687,13.579528152661242,-0.03675905324942808,-9.257392278598601,4.499443202999942,2.2166713195790493,0.6961661588031541,0.498754680316351,0.2674945321328643,0.33032966782433687,-0.4482494078227814,0.20032968245625526
,-0.22371274437878497,-0.6790152982261197,0.2882031767755411,7.422044964847466,-0.17376111345466272,-5.057018232614058,3.3864813381207477,3.4604742166589633,0.3118413680269254,-0.6681046185819645,0.35444451831682916,0.5959137149489152,-0.3021290886119164,-0.10012820248375152
,-0.05025623009338513,-0.7479805768055768,0.1997190412442729,-9.004323150386032,0.28611723388338456,-2.536152326338443,1.5883474883654276,1.908057627863,0.07448188049916,-1.5921457593716877,0.44962668931340466,0.5892176050941434,0.05061467227818504,0.32938165255151663
,0.0035715977741889926,-0.2368315885058255,0.37025409791339303,-10.843185021093257,0.563713694365176,-1.5327175671506932,0.6498504475924757,2.25585967985977,0.7416329792891454,-0.9086009829005196,0.19337946355305907,0.669626047087006,-0.09831897252208989,0.21265600011241972
,0.29499810692710604,0.26959303820879305,-0.5492801802668903,-13.863613442960865,-0.10858589569774735,-6.327512106519326,3.691292463789122,0.6462129681041131,0.2580656084444803,-1.1853292031761655,0.32224145556233325,-0.2526643968948179,0.2044649465602998,-0.4752816809799565
,0.13358614111120443,0.17916493557857796,-0.740241599574027,-5.129953613098271,-0.1269309693297867,-5.373272406843922,4.5338598322251835,0.21859708751890478,0.15376862962929097,-0.9413926817448638,0.5726297667451872,-0.6984853365593169,0.20161285986026894,-0.29321732015283164
,0.39458603403256476,-0.3131139415684452,0.04145665692220303,17.492679180649684,0.16691600888742894,-3.8147995587442285,2.700951728257494,0.7740112091371905,-0.4246055527010702,-0.04534345983195747,0.021446412779613545,-0.5232866901031673,-0.07845234304060539,0.264607439463769
,0.4944418347177292,-0.15940693118421786,0.17392894105296255,-4.414413169586869,0.3203218949645806,-5.496599044927449,2.1313797372520114,1.1463839623260783,0.0200045743441315,-0.9163667763200117,-0.15165239325524998,-0.04759550178002108,-0.0819562369134518,0.4122991253793878
,-0.1922836274324221,-0.10248792901406131,1.2228064296598946,-2.245301656131252,0.42864320119704513,-9.159160129893822,5.367097301894065,0.4599234520574095,0.35052530374957147,-1.13242089366472,-0.1182183203349464,0.3900159148294388,0.16702103689783462,0.22065339949196303
,0.654821082398222,-0.18499558335427826,0.5350329370308868,6.66847120207238,-0.3745277896517231,-11.791385523582825,6.807806350008255,0.6754392289178206,0.46737911422892015,-0.5520502550331188,-0.8341112185136249,0.18844042537160866,-0.11180879459159954,-0.2713492088505648
,0.21490749508943086,-0.047610420183978285,0.8132261022299546,1.7452413004192955,-0.003024670127479376,-5.0760929518106845,2.127603172703535,1.1714521007577539,-0.10674914293844966,-0.8602437967580052,-0.7587826819259248,0.07391732019178816,-0.24282196132964398,0.34198442350936437
,-0.7925492087839743,0.3992641867512432,1.2572992482558423,-23.56090735766879,-0.5281723234517435,1.535728232583987,-0.9993059177295744,-0.3056953481572086,-0.7951468238669839,-0.351664397991668,0.16006724305630152,-0.11718243600996563,0.1581971865115536,0.8075274589696357
,-0.2908191336211803,0.05398479034533156,0.48935151302507895,-23.02171684739343,-0.4572903187677412,0.9053390126332989,-0.43530428452939174,0.41345688062554276,-0.520678812107766,-0.7097302981417215,0.1601580718276207,-0.026001294726798026,-0.0333729665524853,0.6217762259960319
,0.3781375716001088,-0.0027319390571885547,-0.5672466011351107,-28.871654830122594,-0.13411991882011307,-1.9347397474250454,0.25846301814080136,1.081311796219725,-0.2017384510532669,-1.363857032090847,0.28426867173420756,-0.7867870118143937,0.13338499002655724,0.31662921444986025
,-0.10295987806627112,0.05190138410033744,-0.9637135594661979,-22.18973003644812,0.8989703336221082,-2.5465839696562185,2.1652849194832453,1.1960002042327769,0.42966660342135077,-2.844825162339336,0.5481009110331572,-0.9945041915324518,0.37330698351879166,-0.23988763980519914
,-0.07448463935540763,-0.665073865704481,-0.8355082852005062,-2.9934080147558917,1.5118090157114783,-2.765383954430954,3.695979586293706,1.8629940052669265,0.8595829221057278,-2.794458765749749,1.0198816432302684,-0.7519042423255531,0.19168331305049516,-0.14644131928333243
,0.05040888367010176,-0.27908688519242075,-0.1491490371856832,0.3106299702729151,0.3474131356855974,0.04399408840459703,0.5027103022691772,1.610719400058022,-0.21553563603351733,-1.6687672618448117,0.5434302442056553,-0.20838417241943705,-0.12169302407188001,0.09456575621788513
,0.4017577893878832,0.19576547772747022,-0.2612511042965602,-1.5769622926054878,-0.5551498061387005,-4.113475554053672,1.9391192495822942,2.1556939195998153,0.05934484533100713,-0.10150335544445374,0.37779638693014644,-0.37041513762375244,0.20161524858788632,-2.0223199308915203
,0.500364248651145,0.18214554538426464,0.3584590330183874,-6.16212483068455,-0.6688747351547686,-9.22816213134217,5.061607616359188,1.8321821428110134,0.9886727627914628,0.6343651356856931,-0.3616840398539942,0.8867653760853411,-0.0017714016922893393,-2.3227999834249853
,-0.012854808821478651,0.054188185821909776,-0.13593504455832975,-4.250269994556625,-0.02362317453241883,-6.4327766904579,3.788202936787607,3.3665677844736965,0.43642517380408563,0.8024386154155112,-0.6549512296849995,1.2539131433410775,-0.27045647328859657,-0.9050527652147815
,-0.05900969010019616,0.19084446673853023,0.3324984852848726,-14.566897278696532,1.217526041458277,-1.9602223671054049,1.471014512943853,2.91887035615407,0.12164293446948937,-0.14844148175143765,-0.2043204947661168,0.30277312318695765,-0.22438354743805436,0.22739246177628195
,0.39123324288115724,-0.0055977895260566615,0.6441894324944243,-2.7071593872033692,0.1221361031723967,0.02132710805500376,0.542554950077233,3.1831135951239413,0.4358826815075451,-1.284083660090732,-0.7655896211331126,0.4419962876333439,0.30255511817658187,0.19984808778998467
,0.09328282119721575,-0.17558273407957425,0.06293646861019384,15.00628252311193,-0.22679891261221546,-4.863195568831344,2.9442980269176897,3.1957610504731706,0.4570858702575577,-1.3202875402466696,-1.720793099411046,0.6399666868395409,0.19961595886144098,0.17188353017308755
,-0.09923590607696713,-0.29125503894408566,-0.12056752389314722,10.671524754278677,-0.10751452670836295,-4.617612780772909,1.1316150293265037,2.3498776361925264,-0.0873666238533792,0.26863721701362947,-0.8273210357246004,0.2601759249155632,-0.0271340725729643,0.804983338330634
,0.6811628338383121,-0.6932121214046753,0.5031453322152121,7.215181532948503,0.4450470868361645,-5.6374364480042924,3.8996111911016134,1.4585839279107073,-0.501714385441871,-0.9374912701317601,-1.0709636851706537,1.0936321094721613,-0.44214682321869453,0.10862097947129003
,0.8807097567803647,-0.7687349915178837,0.7977075564091659,2.7157468480956757,0.8942822323482863,-11.27367343269552,4.33964396636963,0.43263827766988483,-0.2585424644524727,-0.3630862003402475,-0.6965029258613539,1.7491482078718692,-0.14638303704213537,-0.18098002956214257
,0.35506230133004635,-0.2636702133750996,0.45725551396292385,8.348137015898802,0.5645758549002576,-6.394715335908147,0.6330999433867743,0.6228214762404982,0.40366008802766057,-0.9626415010312789,-0.1417278714089041,0.7486875601386367,0.2984937641265236,0.7973057217174274
,-0.1518136897736883,-0.4113833205917323,-5.612026048361652e-05,9.901983798984094,-0.2661989505397336,-5.093226345617428,1.3203592035866976,1.9101138444154304,1.045962501956342,-0.3289688593812901,0.5024577739760457,0.342290619487059,0.38267826435161045,1.0629897025991673
,0.37701171250311655,-0.7267942333880096,0.46288730656686794,16.1934301285999,0.43032029653486953,-9.614406455380507,3.13978130092169,1.540471619852448,0.5088288575765142,0.311438508395968,0.33865175422948834,0.9522262888940467,0.23720311642295644,0.973705614331037
,1.4690548002866295,-0.7014808527140222,0.7979515649944898,30.310978639930408,0.24324804188883833,-10.479441185845292,3.1174015208076113,1.6659120279370627,0.015677267163105094,0.4986853017880952,-0.9327426779550816,0.4233423457517169,-0.016981253414034947,0.45077963371664
,1.7056008439025059,-0.28602925127136136,0.5825206491022759,9.21763630087425,-0.15285505002837546,-7.585490234821738,2.7682112076541667,1.3020271189732298,-0.4019481587673408,-0.207444056810751,-0.009216398797124667,0.3067884803304474,-0.01812176604291709,0.5636646588914966
,0.526994612234928,0.35942282854955965,0.17202911978987948,-0.32368054460345486,-0.22563037926664603,-1.307291225016131,-0.3092562474412243,0.2569985066517496,-0.344204621811397,-0.5923006710533183,0.3000574099094745,0.1810527278500977,0.06833587791937312,0.54300795968501
,0.0186892996288084,0.6483941358398431,0.25500195686877825,5.627153678386722,-1.2359513729846736,0.9956218406158424,-1.1123263364482379,0.3012008529244316,-0.0067218816875437145,0.03062189079897097,-0.7051652468188341,-0.12336295148992234,-0.09021472398093881,-0.2124025008770442
,0.41305063746830345,0.573245782347929,-0.1854954907234771,14.57751155289572,-1.2918418441649422,-6.16684598722104,1.6165919093648429,-0.5893679750177601,-0.11205112054229674,-2.1038386211497855,-0.5127560304528879,-0.23309846725274033,0.08139865410410083,-0.9896830254004342
,0.28399742550531515,0.16962504279851648,0.24143534284813678,7.864092738426106,-0.021942649904615977,-6.301272533058437,3.486057283930823,1.198329055489252,-0.06156686291636378,-1.3593992958832821,-0.9616901811527472,0.3242518307100187,-0.0814031703928694,-0.9958970751216193
,0.13566474097836348,0.19404380408508068,0.8611729375352994,-1.3671660724460812,-0.8025102187382358,-4.495492550467082,2.62982608995667,-0.8813521817783039,-1.5018211601501499,1.6609404807654047,-0.23308709597122484,0.7173590976902546,-0.19326483633972247,-1.1702676298249288
,0.24838599660325783,0.012939963164991497,1.079494636724623,-4.573744341984595,-1.7766141285052113,-0.9811503227398316,1.1563605250308113,-3.0084308693567565,-2.129764918927093,4.170301207924029,0.17550509029042613,0.1634767812064102,-0.5766789306937156,-0.21591632364300542
,0.26061640081527515,-0.025800259810322478,0.41767591637384993,20.673394343860156,-1.1172142968608592,0.2572183587895176,0.7994657745407707,-1.1465041804347358,-1.932636943317966,3.670947413418728,-0.03837893566320447,-0.47315242030204435,-0.05225277929415054,0.5666544069301204
,0.014638409172821916,0.23625010327634696,-0.00784349512245792,28.65769836761616,-1.3095011748038607,-2.8631647895281582,0.7105910639533901,-0.7376872207782995,-1.6360130286902976,1.4588438911791233,-0.012018525514255906,-0.43551693490428056,0.1525202362164061,0.5495102387865685
,-0.392804460100972,0.2407532511768001,0.09177670967815979,8.282070482555692,-1.5668438614067686,-6.614282107738438,0.3195236760209744,-2.638598029898365,-2.130068270999756,0.9951131699794539,-0.20109228210728594,-0.5079016416673782,0.17616295880620703,-0.10431775520790525
,-0.5596836956651842,-0.21077258043590427,0.47789466781261064,22.19153716958788,-0.6981660399748324,-0.7305075938805693,-0.09158745860361775,-1.9349779658047817,-2.0760778146551413,2.6178750395146184,-0.7256231598644175,0.13762393906194686,-0.04210091032034584,0.13581795741490657
,-0.06184690643856252,-0.2950417372601716,0.6617529632410453,16.400717000937817,-0.5549509302225507,-0.4384691743051491,-0.0883696597723607,0.6289757762378183,-1.8677609305008593,2.1418904429014907,-0.5059142606484455,1.156956890243339,-0.19819712721599766,0.7143727411639033
,-0.031890261532364496,-0.8786470184244526,0.8595392291883702,20.045966981259653,-0.4104459606236949,-4.113840569685725,2.4452919740182777,0.9780129036329502,-1.3826934763993328,1.5193143942349918,-0.8745405662888972,1.638746114664612,0.03209705056642977,0.6614603372312479
,0.111490740349492,-0.25099918522112125,0.3107807402229318,17.97352587434036,-0.18947333525056148,-3.0877711113487374,1.9856832713676378,1.1491482969681566,-0.9184139782723911,0.8042367067986681,-0.6071393037576681,1.159136773637045,-0.14225359747203448,0.24983354234073327
,0.8585033122426659,0.0331548109338735,-0.135179904694154,6.577363071784408,0.35961040912278686,-2.8543406753070877,1.9035845462995464,-0.20980992225510003,-1.3651272580930545,2.005171406579872,-0.4801684278639661,0.4675590325446119,-0.16473305814912917,0.2928067983850682
,0.5072346632788061,-0.25910917861288657,0.5658287296380463,-4.563825450524313,0.3231991243018478,-1.0878034315911176,1.381986895932529,0.17463798408031517,-1.163503271923536,0.35605115666880593,-0.743167259349668,0.1750978528989875,-0.209095905702309,0.8474600506556168
,-0.2979379331509991,-0.27390472804310445,1.215252580959311,1.0412986645087785,0.18211527912931152,1.0797106090323239,0.3369847231800208,0.4473090090316877,-0.8330866795664841,1.4349427639991796,-0.841438992604298,0.45280410600544435,-0.3294884432325297,0.5219694918521147
,-0.16079021233890686,-0.12204055052183055,1.1343290591550177,13.55990296776678,-0.3271758385646324,0.05786097250816111,1.1182234460804195,0.6521292487041435,-1.086296683071549,1.6696228580720158,-0.5470297307266967,0.6187250690220643,-0.5136328067819251,0.6571831453863822
,-0.7477172849497982,-0.14779323396661492,0.4755444663869068,23.05677467122744,-0.8923488209435237,-0.6246541480386761,1.489607908533633,-0.2940767551642591,-0.890236196791529,-0.45837070763314797,0.05211177038609984,-0.05839707666212985,-0.08533085806428795,0.4689237499197308
,-0.9335992147081207,-0.19004116039409052,-0.17726180295618985,12.29946452488346,-0.35527742584640437,0.21502055409054907,0.2910694763768787,-1.2634106385995223,-1.3863557458535682,-0.7172227547910461,0.4885133461900384,-0.12441875486886887,0.2883163340028382,0.45218284585486224
,-0.14512281519523287,0.029511507714785244,-0.05886290679995406,4.955115839869906,0.8660829742046352,-1.0569011115958857,1.711362913160086,-1.1056835084165668,-1.3321896018761539,-0.9534280532074845,0.5860176168917429,-0.20725672937120107,0.0701546158049368,0.8354076094233104
,0.5999451987518571,-0.4138111843723993,0.3306539493199603,-9.45367367717208,0.2949721530843633,-3.5392855309653353,3.3123435259215057,-0.46462530217383347,-1.4198604676321,0.2261536528954822,0.5989512616605605,0.5058239011950881,-0.2994168331739236,0.18511922286222593
,0.7257579989550083,-0.10132723275213586,0.4479916641843958,-14.355103376651165,-0.238805948841403,-6.7752175524800995,4.943120629709972,-0.4985848217665702,-1.469554285373547,-0.13177875175161574,0.6031275910672298,0.7169288788660011,-0.4639972819235385,-0.06442895990730702
,0.4120722712957911,0.39026168209913464,0.8837925878015285,-12.221998168989025,0.0599318194105777,-4.869843809655267,3.9925257569189876,1.6403329876103465,-0.8083558066326701,-1.7742147345018446,0.5285586790013279,0.8320072067753417,-0.3986275400536989,0.4730193157895782
,0.11900412048140586,0.5554378073163851,0.5298101993714195,-5.0331866066988775,0.6670167368277569,-2.6060709856503363,1.9814892514208131,2.7946486461776545,-0.9170414208338667,-2.09390403524885,0.23690060890709827,0.35316573938824686,-0.362018305681954,0.32858121516052513
,0.4390418036970718,-0.022410432156067875,0.09990199207726341,-0.31514554054126265,0.25272853879419527,-5.991161930224599,2.1441490908155254,-0.3816999751099891,-0.593597802945744,-2.8288695276694895,-0.49552492378550467,-0.49532893851131576,-0.41061477821464487,-0.16392682205117803
,0.14755750907677131,-0.04838815555696921,0.2448357860744782,-1.4397977760970702,-0.5983816091331252,-5.848692534152172,2.0764122113703154,-0.7218618242555974,-0.3425049564475904,1.1261052927693254,-0.48094719431346233,-0.23561981738758667,0.06891418652420346,-0.3453816265265557
,-0.5662895162821304,0.304849064699982,0.47062560769546125,-5.4904829019243335,-0.2636206781287941,-6.420759910640366,4.375982065735013,-0.18062550017081866,-0.6522657858688963,2.8358798920009805,-1.4063626302510523,0.015321655806181242,0.11400410988527353,0.023370442017976032
,-0.39534664320051127,0.16653115790482564,0.11450480520314787,8.35472045880351,0.45968267992982925,-3.7738118115492982,3.8580466719312767,0.236408866655739,-1.1536858708686892,1.7024048174189348,-1.2850654387211233,0.002330859182674797,0.22600851027851068,0.2493899963585494
,-0.15866664528386848,0.09843371848591617,-0.056047895281107964,4.871360577063412,-0.42178359658978676,-1.5314990970923283,3.251262113007574,0.3015145430326571,-1.0433624947349558,-2.563637783869286,-0.5317180746310854,1.3131705173735915,0.13854638864098853,0.1216470121377108
,-0.3428644409280733,-0.5313593635129867,0.19263933631795743,-9.167685056275559,-0.5865679085958353,-4.789738004070475,4.4299558873201486,-0.025950698164167795,-0.9200231018102234,-3.2385549496046004,0.10816054663150867,0.34320550821986767,-0.07030915847436105,-0.0957861435088829
,-0.07859029166785633,-0.38220436021644616,0.24057957313995362,-11.081176773815553,-0.6028430151477125,-8.640048410907864,3.91745297385966,0.5894382264644753,-0.41870357538873265,-1.0863326872743493,-0.09810280434795834,0.038233961299715624,-0.2640673414035524,-0.4097728557711293
,1.2947093240419978,-0.3142327414976843,0.2071524840283355,3.5525808915448316,-0.3728365230166745,-4.826827405485286,1.4532372180109707,0.3699443426071127,-0.22934745731305065,-0.23609002419413289,0.5875788853587783,0.4101949700618972,0.09769173039297643,-0.16003022688730276
,1.9216776843427852,-0.6690649087641916,0.3949391397320371,9.904826443382793,-1.037454861757581,-3.604557371800376,1.2026303343836173,-0.38718825148764147,-0.7755243198554846,-0.76627828265229,0.21386022069586932,0.10892982329212365,0.26625544086207026,0.7529371497858501
,0.634982283431618,-0.2577799641168189,0.7537654810014598,2.507878887879181,0.0491098805053397,-4.638761588022984,1.7655800823803232,-2.2569907154393496,-0.6878209546863469,-1.6397542288277003,-0.5938531909585889,-0.4152254790252435,-0.010088551162287821,0.5056424921106207
,0.20062618234910942,0.08027558107305573,0.17305386796256694,-5.557950540649727,-0.35514199638281035,-3.6702068655332982,2.3951932489376815,-2.469027099174415,-1.2141709899454587,-0.6941656793685654,-0.44446852385807006,-0.24172265894138759,0.057695204655002344,0.38087959373374514
,-0.08443106463149475,-0.16299589321344288,0.20261638688143324,-11.195797948854988,-0.7695332120120502,-3.567652092248177,2.3519938986564246,-0.8979153082187754,-0.8443545488870414,0.509600441949321,-0.01597094463375786,0.10077235057004072,0.017170052732096645,-0.06334644522222146
,0.3451662318608101,-0.5585011183113735,0.3661202236954305,-9.07220621030069,0.4042687257790775,-3.21627464840703,2.6432896321231474,0.0255721719016149,-0.8400005982806642,0.9183191722306097,-0.01793889120018311,-0.08452581158920083,-0.27723286046641094,-0.2726321175597178
,0.2745769254499477,0.023240452227491427,-0.04520442216195251,6.702029980447881,-0.1031497235368863,-0.0027211632849754434,1.369206754639736,0.20926010646243656,-0.7485729348049192,-0.9593320569502266,-0.41297603800424276,-0.14610929974800607,0.06483581760784872,-0.2221012024419839
,0.11544902725953335,-0.1245090657098583,-0.12127197497822835,10.696480283999598,0.2637216702471131,-3.2886404625855943,0.8870768941737495,-0.9689403118442983,-0.7453976741412792,-0.5956311211704347,-0.06249108873108059,-0.13024623954441042,0.31688605832818006,-0.19177853341230874
,-0.40666575685816186,-0.002466899169276606,0.2164223169934799,16.207393448677166,-0.7189287902274542,-3.678955995093926,0.5375450582592045,-1.0336562479334985,-1.1290610204290616,1.1090714297694484,-0.20790780705651024,0.3261074131785116,3.1401793352114716e-05,0.02209794368348732
,-0.7620184922957106,0.3974670914924349,-0.33552503596383787,12.153715477400885,-0.5678143175533913,-2.5024867990860815,0.6929338783699209,0.22815954704370225,-1.2036520323786863,-0.5417618829932453,-0.35273516447119085,0.8781837224670224,0.06757536053436598,0.5136770216136998
,0.17509290186691703,0.4855009330882274,-0.8138303722779567,-1.8758733529026488,0.6946460300544691,-4.372591366439134,2.052121124448825,-0.009034356893283803,-0.8993841109517811,-1.6104863063321622,-0.4009524554057312,0.07211913082032062,-0.06527958585815037,0.7707670088455196
,0.3243806939119085,0.16616254214160042,-0.8002692741605467,-2.3242307193906004,0.19652287924334677,-1.1596640603347699,1.20877943513385,1.1127638422291999,-0.950389461698426,0.8171815762313693,0.2554949597376752,-0.024673710982221944,0.1286763062264522,0.9257857998823176
D,0.42508530259214433,0.08511461372351287,-0.1091840846828006,11.061052233750855,-0.12342480797619367,0.6804304056464031,0.3966221036894649,0.8696832003366701,-0.32247687136354114,1.4679753601702714,0.1208690350257208,0.5309373705502077,-0.057904474511304566,0.31505405614917625
,0.7640555021169572,-0.41957317760694574,0.1481410427943801,9.818750005328763,-0.5013007111081446,1.050950020081172,-0.04792502111078065,1.2353673784966572,-0.8399483913721681,0.7946305744078068,0.46349002376116816,0.4743901362351954,0.01105565936043876,0.057737519899777184
,0.9985650852263935,-0.4229710595414796,0.6782123458704062,3.1323468175798777,-0.7150775282582564,-3.7979089585205044,1.6611403687580035,1.2428655159293462,-1.2877537439526852,-0.19604503517833452,-0.06318285230876373,0.24484039384103898,0.023141469736277905,0.009139414671026289
,0.5314765177358658,-0.019566205601185813,0.4702156507504542,-5.4788113465128125,0.43849285686248357,-2.1937391481309816,-0.45470891037805516,0.47420661209616866,-1.0081408087278092,-0.5272261649428364,0.4087838485807466,-0.03436812887155235,0.17524593802994962,0.047058633727188943
,0.5328601847965921,0.0001241728381029458,0.18705471251151667,-9.795699825697309,-0.10999115496053691,-1.2306306514892726,-0.1509310290844919,-0.17324302646790962,-0.7297398285878437,-0.6753436740517957,-0.11740865680723961,0.0023272643433556632,0.26974694936090016,-0.04843309251209615
,0.3661374802334884,-0.15595471943577266,0.5898440326098316,7.441668287786025,-0.056837031999585605,-2.5180133998921908,2.1468516105401845,-0.9734427341656489,-0.6769098769517409,0.14114133844560026,-0.3541514240514488,-0.022532511916115678,0.19627783685813868,-0.5493928630403357
,0.06324201715277247,0.008679815081708099,0.42131843420409054,-5.612789504887077,0.4809169820135431,-3.2683869852797973,1.703496819909937,-0.893288241475389,-0.3647417172453765,-0.2455555420592216,-0.19905612797368324,0.22846201196989885,-0.12666061504478518,-0.09468568513778547
,0.38731776605798957,-0.5623993886423032,0.34892799188870643,2.031587272083863,-0.14417120694066451,-5.938535981393514,2.851715854160958,-0.4087051157352339,0.09175746406808226,1.0184524877330217,-0.9607058228620738,0.06590008800279276,-0.01840469953608053,0.497155399409117
,0.5494169000518059,-0.5652936776958974,0.34209779778344696,21.912890700306818,-0.46437510476252186,-6.0578257130538375,2.75360442083114,0.10971787595021408,-0.57650278778388,0.23287200429617477,-1.0624117503254897,-0.06439166166264418,0.1294034789514881,0.4577930247746927
,0.3650519380418209,-0.34221972050984156,0.007670076528321889,32.35501421692871,-0.20777689105348535,-3.6170615361904495,2.0458656415069973,0.4365850406982082,-1.1342469902901096,0.5909260302790819,-0.6054783502148202,-0.6776183432957955,0.09254935846547353,0.5765623050157473
,0.016325334231593287,-0.2751728011106057,0.09285130481474402,12.529665554852702,0.13126792878745697,-3.330407497117617,2.9896731637416725,1.286553514363416,-1.6295510664378903,-0.1562124596489763,-0.7028618624813258,-0.2727001792476964,-0.08126327116783814,0.283346755032485
,-0.39610709991621146,-0.23977079216185485,0.8264493362056582,4.7085457548551375,-0.2833375415888799,1.6907279588232702,-0.9932566035734773,1.6346095293599239,-0.8716030058575203,-1.831641612198024,-0.5533855586734518,0.8789990532855959,0.21537979359677173,0.1314555808966859
,0.12363166834881341,-0.17678226782600562,0.7224527674408894,3.644633436854642,-0.07189683087727339,0.7958003872276431,-0.4681804558915405,1.9807623035058781,-0.559272013485538,-0.7963260888880864,0.4328651339928165,0.9354743779556837,0.15229228294810448,0.199022757103021
,0.6215090181707656,0.1074643004906954,0.8163084653270746,22.109866720946865,0.03376323929068428,-9.212963102247022,3.189577546958527,4.212611457758332,-0.5063524260796379,-0.6651624931167938,-0.12204630841948733,0.7429694621263379,-0.14678219761802816,-0.01907622604063028
,0.5206029264689293,0.5369874375031237,0.7452045529571901,9.669484023047033,-0.7821443451531042,-4.676009011799863,2.98004399990491,2.174888983972161,0.07837346339360424,0.7598923876602177,-0.8896696065950412,0.6706190550421063,-0.07622608724016168,0.08937726266169033
,-0.7140241664285077,0.9518436556712576,0.16502220416204544,-4.715655406549796,-1.5927746948962351,-5.334188994976197,3.424124596728097,0.19328880137392193,-0.12920391247446333,1.0010089878407873,-0.4291513399514084,0.25999131838181566,0.12600202057558413,-0.06215198631435534
,-0.3396530803919687,0.2815731128499338,0.375753876590199,12.113273357189135,-0.8216913088956519,-8.685295906446642,4.807691362301084,-0.3086172865202393,-0.2284050274811382,-1.0230201394486325,-0.48455900208003105,0.873813518920074,-0.10470693449200856,0.3217355017081308
,0.17994692095271225,-0.7348550509164399,0.4986334096810372,8.253508898193264,0.4492796930613286,-6.602940784139027,3.844135197720518,-0.1888091042817753,-0.3719311844208354,-1.5617216469537707,-0.12993900347376508,0.9346371174585647,-0.2039792991817941,0.42101857802671727
,0.3717690237915682,-0.25791186914171943,0.16302391209830136,5.092994752911204,0.7851651599626269,-2.595368696622754,2.6984897646297203,0.6351663856337981,0.016492052549118084,0.7254403693917416,0.19429736015365678,0.5908130048153052,-0.2693406562029132,0.4908998282601767
,0.7400179820925401,0.41529778031058917,-0.08535995407370371,-0.5010066481777687,0.47041096949705774,-3.049192508244496,3.621841677117705,1.1508544737332658,0.25855369600244166,0.6000440954416767,-0.5065846538809994,-0.3653912287489908,-0.1372481570928183,0.33879437160748144
,0.4835074335034163,0.2104574720547221,0.05922649281954263,-4.785821172841417,1.1876817130008892,-4.184332209604425,3.5736474832134335,0.3435741175867234,-0.0322090505386361,-2.36206182108104,-0.603528359684507,-0.18614276769338964,-0.11672294987668969,0.19917702570561355
,0.1891680875937504,-0.48363388036171634,-0.14765880721711755,7.693100046834475,0.8223060286077422,-4.57271965051104,2.831091123046443,0.9553971780814728,0.031720400425714106,-3.1071858418570395,-0.5055645153932777,-0.2891478000428513,0.050660224190836864,0.9334311431079959
,0.5252287216033485,-0.5165298169491808,0.24575280833946583,0.3973543169569602,-0.464580441900791,-5.042082103723727,3.2010082535168554,2.017980691822359,0.6945760488333639,0.9367870844913196,0.1180474563410083,0.15076153983901344,0.18442826738786736,1.193291684236302
,0.3169128377261896,-0.5586418978225091,0.3222435055903072,-8.581428255715974,0.27696566964269914,-5.1304247312000335,2.133273985484614,1.8396217751398878,1.4506631596134694,1.954477176701282,0.1627825167398289,1.1198658634749834,0.07347765738472385,0.3913506642863811
,0.3084222265826618,-0.6658194073042143,0.021406472646748352,3.6466136047682154,1.5252506465487867,-4.654814828108387,2.1194040405128516,1.8292522622376735,0.35986980538681973,0.23512115713331488,0.20398460169830113,0.5398685281882174,0.068930806836512,0.010305929381437344
,-0.10366861101524803,-0.7220425129493585,0.25841781350112664,18.158026892584537,0.2172158452691197,-2.457777416721925,-0.26437185559535076,1.5310567388749579,-0.283453136178368,-1.0007796529519082,-0.5967291550436831,-0.03549171565553427,-0.004620164716263482,0.20124496828117194
,-0.6302532265577308,-0.772170068251346,0.7563674072606149,19.77809792069385,-0.24611343880752715,-0.1658711613847046,-0.24755487369033574,0.4621353718443318,0.028646781261490714,-1.4498729133103005,-0.3251319214860734,0.763266471235839,-0.08639451466888493,0.19070532477468877
,-0.6252507221328234,-1.0649380227311431,0.5305091014732247,10.670221160850117,-0.3557839753753205,2.2584701148213813,-0.4798979820832875,-0.42502217582998486,0.057240703943229054,-1.9677768792691366,-0.3253353853998956,0.8756190108336895,0.29141727630597086,-0.25220011883610094
,-0.30647223428644244,-1.0246246613612833,1.0786675961893253,13.286206427360804,0.3127444885704483,-3.6393023337215973,2.0318355622210373,-0.8919996390066601,-0.16757881782235745,-2.096329943858259,-0.18411800129818215,0.6444882803609254,0.22682137526527898,-0.11665453717669956
,0.4263650944864005,-0.29673151448724955,0.6592916668137019,15.366365062379604,0.35660134205327376,-4.578408499266015,1.477912935364101,0.6697896201352439,0.05127575021100394,-1.0236034435960792,-0.17179408833863513,1.1774696051186597,-0.14174159665177571,0.49952482721175084
,0.3520105464770733,-0.18303836960289835,0.49593310410564995,-5.504567760725586,-0.3309854052123096,-1.2413881079390834,-0.5390206609848316,1.4780102546843585,-0.04438738573788934,1.9538005728428063,0.3890788431591222,0.447607276542853,-0.37015365437887676,-0.21129332771381965
,0.04899470614354631,-0.22195935352827453,0.0038403198935112143,-2.0704549640298255,0.030624808326797995,-3.0077720465182183,1.2585579808203076,-0.7122692117268592,0.7942048119122356,1.5490224661435152,0.0793975622547753,-0.040655405052216674,0.10499151946829818,-0.42957706654103184
,-0.10618404940505768,-0.4270457675174803,-0.3169866858822251,24.376913591985804,0.3524749979365966,-2.7947859939889232,1.356643408207541,-0.5617430066291996,0.23407742411078183,-1.5336076355839678,-0.6408181025255352,0.18974281134032434,0.10001740659653828,-0.09247462158052772
,-0.5899331538523553,-0.44291372523809636,0.5829081013397749,18.064728563145596,1.128074678833192,-2.3317047045042583,0.2842002170199629,-0.29454227662133764,-0.5052981190627835,-1.8160253231183805,-1.3051769849646515,0.9270532855993115,-0.20574269847642052,0.07863345139710945
,-0.19944449049145033,-0.05940050688487785,0.20946189451985517,12.287911870597492,0.45307661115733805,-3.6599378601860137,2.2398942853319617,-0.32878795166073227,-1.1035614416764041,-0.49309491170911074,-0.4815932265843661,-0.2867305898878389,-0.3755707980876133,0.3382491194987046
,0.8011795465119294,0.37350746957039677,-0.4915550759827535,3.865811085553867,-0.8163163368618166,-2.8318083213741496,4.592085647230251,0.06026778534505899,-0.8136457464876982,-0.4046410768228618,-0.081183565432843,-0.11921288512626838,-0.6522100284080439,0.35105173187158717
,0.1910495074462705,0.38631768760038004,-0.2897025851068467,5.821779235739696,-1.1838929352979397,-2.9032004803668165,2.9571601036204953,0.8761262113560423,-0.5810398791708491,-1.1051251771471398,-0.29659548919078554,0.8439221874445222,-0.33815195286233296,0.012903177052045012
,-0.3606520396344079,0.01674800926168374,-0.0905118601998954,2.935201678250884,-0.6763877751040056,-2.915816367848146,3.627216679379531,2.117005960358836,-0.7028085823355799,-1.1979410837014048,-0.11542971572132357,0.8897747752226847,-0.40103901412813464,0.10831700262845692
,0.6322917603025827,-0.05161690426423137,0.032806199188856314,1.4782810468348562,-0.179629763671461,-4.079027019312805,5.141235662171009,1.2535900276070364,-0.34576921043666087,0.22118373674642713,0.474641937132918,0.4463422498014031,-0.104766893659423,0.5284620350996276
,1.2771697316656372,-0.19630250194527998,-0.29445412753830874,20.069241808620568,0.7024902573519014,-2.3302394854899564,3.5084406497631777,1.8310833329840914,-0.06330711801737052,0.2089818950268684,0.37014031591365587,-0.04507025078355916,-0.04970831388028301,0.558639403803119
,0.5541876393355509,-0.5183806134430652,-0.1979927743363781,20.71031587814166,-0.09806300341885427,-3.942220938273434,3.2663791595262848,2.6448045104851317,0.019515366484762757,0.6000114811876786,0.022041917015970657,-0.1571972475456161,0.24161009864168864,0.6213932406477541
,-0.00477320784438544,-0.06801367195164151,0.3861005882240876,11.662089081821705,0.11181047400685036,-8.850947223951575,3.715422403239914,1.4566424649985925,0.5396438138466718,0.17666915150712126,-0.19390308622140562,0.443082282729573,0.06842041621501906,0.10499861931736645
,0.05614083097419094,-0.11531314581111021,1.2967276951443516,-11.910134665151975,0.2343256748610101,-4.541077197678335,3.2521552604026813,0.8253370447058156,-0.40565066141537215,0.6438311759000993,-0.4338280973941424,0.10370886058256605,-0.30021324363288365,0.02169778153757983
,-0.2134189221359363,-0.22958196633147226,0.8282724123030796,-12.245309367339473,1.1536612294746127,-1.3435657202517364,1.6582920783793034,2.009918309589723,-0.23095737343028377,-0.5044672382719744,-0.5088220896820769,0.03022433424407406,-0.05890334017876149,0.27688572990274923
,0.05258741009141209,-0.008574222677058678,0.32023657639663416,-2.221384394034202,1.2114527747394193,-2.707495995141995,1.3239791717701868,2.5281936389991833,0.34250516860393854,-0.2861586559895974,-0.5508004351315791,0.5182223312341313,0.05111746263312626,0.8187024761144898
,0.17163115935185622,-0.3671577404487655,0.736546497362936,7.265855592579606,-0.37915016290098563,-4.730144174630947,1.1877132286716674,2.197489722805471,-0.31427557576368087,0.020938092068925985,-0.1294548763253089,0.441442346419439,-0.011465706896251412,0.5300501386896
,0.1654837520550956,-0.24734306134525502,0.1644809971624031,6.969785917678074,-0.9810446368599174,-6.71199442146455,3.2189137057840616,0.11192638613351881,-1.1382242687419466,1.6960385065420054,0.159921033536979,-0.00037392655861427735,0.4232199286185796,-0.406202321103345
,0.8402446023895336,-0.29391038522077007,0.11246303391395236,13.045394027314217,-0.08327188209302844,-6.742243998032903,4.161555658452169,-1.038299270506227,-1.2990665788006264,0.33803465979259445,-0.0780580476446275,0.32696029124118553,0.18962397332378889,0.049226429066058335
,0.8434084988836691,-0.24270875126792557,0.2242117711652072,11.467833452658116,-0.01787944700048419,-3.9513841613950675,2.813538065736156,-2.987934974700123,-2.3046425390460885,2.9855068750570513,-0.38984830811882476,-0.5134329247790895,0.21295781478597484,0.5770935881837281
,-0.11269784935521111,0.030794172655290032,0.12926614910541248,18.27074552037452,-1.2517660775256705,2.2792659141091467,-0.7500577713352402,-2.684671611466795,-1.9367318453327307,2.7182160978346084,0.09443363195781472,-0.4727487969465945,0.09843925739553414,0.14306876686383102
,-0.810150426558467,-0.09250378298164619,0.528848442971783,11.695514538327561,-1.5172942503462483,1.368830368376987,-0.7996657523026101,-0.2921124139147835,-1.1800652002762553,-2.1475568976533834,-0.4602113254084461,-0.03257154964964519,-0.19583722517197008,0.34742953430727624
,-0.4321457587786109,-0.46860742649149634,0.7098225769130722,10.83786284424894,0.5186817327991563,-2.4573219635533476,1.5538321985013068,-1.093662070306223,-0.5625591408848031,0.018637540877775895,-0.8781933288848194,-0.13612790812155395,0.03594458153428297,0.6427619892608236
,0.5961154359426248,-0.016228286107158957,0.18169602425924627,12.1913512161827,0.8470784524326396,-7.500538022521596,2.5341213395312874,-0.34928302466629324,-1.478562186928704,1.5330098852397303,-0.23848009101716408,0.18948069036448337,-0.07123794663220437,0.23395596956326792
,0.17404848227960806,0.05675307791129587,-0.7126860475499109,12.757497558777551,-0.436560604155054,-4.8592560699491205,0.7761752263108644,0.6837896944136975,-1.5270402535936434,1.4302475496722724,0.3001815785391274,-0.6668242248105235,0.0011732431452109214,-0.548594450830831
,-0.5167244571606914,0.08332454923881906,-0.910477686918544,-13.549163361420838,-0.11586046500401871,-2.1883515148829678,0.7406906277521258,-0.09837025388588441,-0.840637286282577,1.4346206018555672,0.9047908633873571,-1.1909756063336019,0.23227119018942338,-0.4641324013876881
,-0.43975712998209826,0.026418864758626374,-0.2671901364426174,-20.03054535376604,-0.47295977948971335,-1.8184512195244809,0.6908713875130965,-0.7795607161007544,-0.47457449777985733,0.5757557058196182,0.2776513516491603,-0.19077093120853109,-0.0036177813966190913,0.435386725372946
,-0.7848208329579043,0.5178063925334676,-0.26204950949716355,-3.4590198122676936,0.227265658277096,-0.5307527020604721,0.02224474461358827,-1.0949450893926038,-0.6182688371950065,1.4175383321544766,-0.0690463755509076,-0.611746231586359,0.3010325730712258,0.21349960121497083
,-0.4941746683461981,0.42439171686883553,-0.19489951081473814,-6.635658064358958,0.10327276012541996,-0.2905596469050323,-0.061498565010078055,-0.7303771948018281,-0.8653663423720002,0.4597902729575652,-0.8575680036582074,-0.6048456349381842,0.05837452405126949,0.267979456875282
,0.04359694036617345,0.6361531476217441,-0.01454917869565973,-6.496815141312732,-0.011614760743824285,0.8090700784266186,0.4400701840936401,-0.579567092514805,-0.762089622875338,-2.6286787597509043,-1.1756624899439923,0.9521096499624149,-0.3629498720066968,0.18218643897165127
,1.1496627088902966,0.4008301419197036,0.10059714928576916,-3.1485161043926713,-0.5023251319222406,-1.9356937103427052,3.1144960111407354,0.7416339633760405,-0.24296656181741344,-0.5922692276995302,-1.0262277097281458,0.822459781535754,-0.3674016515865761,-0.0006158638756341743
,0.5920273746359322,-0.17206167653551316,-0.08516846074560645,-4.2013730540251615,0.03053931769397365,-5.425382344087019,4.5350421923764666,1.2836083275769765,0.3097263808852047,0.14656423589166542,-1.0786250650324045,0.4420869166503195,-0.024382453367002836,0.28258335846050325
,0.8787362099558168,-0.641899748716657,0.06881790342874528,6.848982025915968,0.8272741983781657,-6.127391262597746,-3.195579700937636,1.2395489494537848,0.4991723000762518,0.5916456224853281,-0.9722250755548174,0.5635020740061637,-0.18466640836159973,-0.1688091897650163
,0.9874489617032497,-0.25998434083667754,0.10958878381016236,10.915655958965528,0.8930978354406918,-11.541043446853266,-5.353534125166232,1.015793210492433,0.9655391435769817,0.07607051543442235,-0.5429058491776315,0.08345348689162059,-0.004523221919102901,0.17265915959219938
,0.2221037332350741,0.02910966648253021,0.23401662375767876,15.075421721342966,0.08578701257517407,-14.181922131681763,0.8952077511264069,0.6134775766419855,0.6268817562249938,-0.492459701232871,-0.5545960150784784,-0.13698731529420996,-0.06697447393000557,0.4982180725462433
