event,eeg.af3,eeg.f7,eeg.f3,eeg.fc5,eeg.t7,eeg.p7,eeg.o1,eeg.o2,eeg.p8,eeg.t8,eeg.fc6,eeg.f4,eeg.f8,eeg.af4
,0.7400660835046653,-0.6387611901584722,0.2206090244408137,-2.512698357925885,-0.5548818110115072,0.40280128967678697,0.2767518003004791,-0.1372839817024967,-0.6368086408246522,-0.19954118877540658,0.20709731459105973,0.07800922526600733,0.0484362385918307,0.7330878460269433
,-0.08549063906148534,-0.8646717185047589,0.3940942458938246,-4.339408960273791,0.4606166663475762,1.5095299262848545,0.746636567889718,0.24163642264832186,-0.37669595322833316,-0.9611525744402024,0.0706342566101492,0.19440171327947564,-0.20127080627768648,0.2913538270696945
,0.6636832275646362,-0.8407353028408341,0.4509768606190511,-7.582105981282725,1.3968856236217642,1.9680400740973676,0.23356759524823395,0.33022704168644806,-0.2296072080273698,-0.2483667894677208,-1.8334421161121779,0.2410196784772305,-0.44055078383154544,0.34693826895954977
,0.6097968708050625,-1.1796399581148425,0.5836143502507081,5.100636710533117,1.240862985237793,2.291866943524268,0.46093820845097794,-0.33390955309828624,-0.5879127387864992,0.6754035704483659,-2.438720829416171,-0.07993101108655143,-0.4866546212880985,1.3717142628349948
,0.40591023019235417,-0.91923563722909,0.4815879100835678,2.278629501559903,0.8927808665191176,1.2019134239814449,-0.22621407527179221,0.10132434171674302,0.025798917606764168,0.04231004274148904,-1.6281306665923052,-0.032117621296231184,-0.6965590412367101,0.9286559334146891
,0.6971724923742255,-1.492462843164945,0.18981377630747648,-14.952516359778947,0.14295644642838606,-0.04792066011994996,-0.16082033212724037,0.24553037085439064,-0.21267366794302112,-0.37574632421782816,-0.8740978407315942,-0.09575992978436175,-0.40225446577136875,0.2638115978393364
,0.4256959623574484,-0.6137874884952447,0.3282625116065133,-11.173611800890765,-0.6388146220607861,-0.0871680788467592,-0.3287510749484763,0.36418909160093316,-0.16794666811195322,-0.4542812947699755,0.02278175942171348,-0.27074010326896986,0.017533230329187292,1.0712517115489089
,0.3231997589449219,-0.9057937528465348,0.5663656934368161,-9.357075130150847,-0.1560198224076355,1.965780591911151,0.7149770464684597,0.5528404850991893,-0.09033446136458748,0.2517975069194468,-1.743172126433764,-0.057854203437055156,-0.23581641316276772,1.5170040482551819
,0.36030531518369907,-0.8635241942684041,0.07517206991682127,-1.7065050877587886,-0.6062544812715621,2.473376473528244,0.880212269872249,0.004338852664151372,-0.48447839791923736,0.19022795932322037,-3.2582605084788496,0.5787320001660983,-0.45587274739617706,0.9071190634949217
,0.23117335214994605,-0.5854541632826902,-0.24663556986661786,-6.446466342740616,-0.4501362325271948,1.103482437209404,-0.17871821471376514,0.1445533153049094,-0.44859699956572935,-0.46076858378895363,-1.849598611576493,-0.5013161198912928,-0.4055005661930469,0.8871029002995671
,0.34818234718710694,-0.042796545136745315,-0.15012374802611372,-18.69447488915867,0.17903308537269344,1.7577091947710668,0.01875390813899313,0.5266641395083731,-0.37916959241026366,-0.35231027351123817,-1.5179572684782658,-0.5194341615646126,-0.2851854356007307,0.6793451582955766
,0.4316267785363223,-0.6472991636896507,0.3977135192795045,-15.75437895293704,0.5164440237721605,1.2540514430194731,0.11232062782904989,0.6458350949350201,-0.1808426776090548,0.0400558296356951,0.48494536484948414,0.36605110109461925,-0.30108737987708917,0.5384948941367576
,0.7111447965988783,-0.7295228899520905,0.07779971878721226,-12.82959150649473,0.008471159145403298,0.014517333920507119,0.17416233252167543,-0.06171819270977648,-0.21987201505485648,-0.22643336879729425,-0.0033353062374815185,0.1595295396868443,-0.23741333414596566,-0.0657869632763245
,0.9863564753878346,-0.8637807972568584,-0.250610901738427,-8.205636093077596,0.7862173679628733,2.6751245792595064,0.8101453723272257,-0.4170292213530609,-0.036339216819539034,-1.1562308524913014,-2.054066245040264,0.22867806669658508,-0.8193726833501606,-0.11451132365016645
,0.8074298519720171,-0.6489799831790023,-0.10358766356503249,-11.563267422504476,1.560044786032861,1.084517960718936,0.5560014041834084,-0.1070214213598006,0.019753190696013306,-0.2349058877445643,-0.00484312567115001,0.34023227821520635,-0.7366138768127625,1.2880463477426183
,0.28409298270902994,-0.882532531943591,0.4615145385342886,-13.803622125408893,0.8110854854677155,0.2957611496333945,0.30139470088371634,-0.05090872710601383,-0.29773177468608636,-0.21527733623811085,0.17558719677488308,0.3428387870639212,-0.6238295151520045,1.4034708035670453
,0.5379859408552605,-1.8700934086208485,0.7590478739159586,-9.615547604477282,1.5189231101256673,2.752679273221674,0.5314168855635358,-0.4624407032332208,-0.4694675681367154,-0.5840489490928488,-0.565447059246844,-0.19179732944966668,-0.47801478887266946,1.027301501037187
,0.5560405606307053,-1.148936830965897,0.48027485275949006,-17.40922935473744,1.327377973170127,3.6142104868960314,0.6862339870200967,-0.2701515814259081,-0.011650703547513047,-0.09854188340670217,-0.4931767005196658,0.061191870844231826,-0.5921956302708664,0.42865697244342427
,0.32571732992783514,-0.755937932200855,0.15117438904273728,-24.45255293349577,0.5287771031846379,2.7389663409129903,0.7979456580059339,0.1609327473233101,0.27223504856833547,0.08488795004712198,0.4354155535923458,0.19091284757509414,-0.7219190503802222,0.609443387222265
,0.26041485045882834,-1.1117485630389627,0.6395337793575342,-22.174745778903187,0.922050157328882,2.109761148069285,0.3054210981861248,0.19871388284472172,0.4703833384255531,-0.5213036473901185,-1.06996119497517,0.08263931788614343,-0.8048600196991286,0.5790223893559677
,0.39184130325022454,-1.2311895227141911,0.5024797476681439,-13.719892280600458,1.047441589347743,3.2042829120650422,0.7060075910228175,0.11481978519278428,0.3354379694091132,-0.7459874909345616,-1.2226839170719284,-0.013718039305426854,-0.6755496030585204,0.47559083759369114
,0.9453450133349843,-1.1092623377757977,0.5030548720252196,-12.684367025032902,0.7800167299595709,3.288324733339957,0.9259434954379457,0.2682815496167769,0.5557878275887344,-0.45556956868337667,-2.044305409823746,0.1177283070266211,-0.5466805831953878,1.435408123033565
,-0.0009904854936868242,-1.7541723510927634,0.5234603354149238,-18.00930632854367,1.049775275158072,3.389393747733932,1.0181463270692652,-0.17101770191977378,-0.36635821504991123,0.2132819345148035,-2.5567564786085466,0.6721503324553884,-0.47442768620283016,1.455731122062956
,-0.28656034872003433,-1.908513928984875,0.5344482816913211,-23.616594997362345,1.52936730268352,1.507783016040172,1.0000555448595716,-0.4025810912801837,-0.5807056023295359,0.08075954281204009,-2.7360146475378504,0.24269313670707374,-0.22286488758895096,1.182997529883482
,0.5324736507852508,-1.339610392453651,-0.09523222300362749,-14.246980249546427,0.384663270716843,0.39224044518776324,0.5573056103014442,0.49385860673014986,-0.05584566637818761,0.17949707415061494,-0.9656389276882579,0.1059892215756574,-0.18988561748342087,0.13652087806505442
,0.6016036001963073,-0.9593031934587033,0.01112643186510602,-7.944949731542236,-0.26413707700717554,0.016973710429490238,0.16037382628556407,-0.19066691050522694,-0.7345104622086904,-0.015556464958167126,-0.40423482013804546,0.6038146380700266,-0.4311699343378805,-0.23227287087705517
,0.6169932310560573,-1.1414866906768961,0.42463365536176184,-8.918665933514792,1.1134844034476792,3.1579865369249975,1.3796737070206162,-0.10702405472898742,-0.4442926059371218,-0.5108774249772666,-1.3179921691784346,0.46608970736764876,-0.6616241623907717,0.4231878113712185
,0.8360168760893952,-0.9918671565107047,0.5153060972216682,-6.61212458929886,1.9974731540105144,1.726247408386861,0.9367079095743053,0.5042007212401645,-0.2416104604975145,-0.7703253801602374,-1.4011867924464743,0.025064081915976803,-0.5675892309619228,0.18440835601580666
,0.6230886177939658,-1.034079707168833,0.127705348093483,-4.904524918362436,1.1589320829204521,2.5922102624187686,1.2697438797568468,-0.35187322014832517,-0.2617042450801662,-0.6481674007842131,-1.5767619801148696,-0.012152673023818568,-0.46130253791229164,0.822035199340208
,0.38293535356393016,-1.7426151488976946,0.12093225739734376,-8.725151090236617,0.8783224365147939,3.7878237154576593,1.7631383970822279,-0.7837997118143776,-0.4391184013759867,-0.8291725258065676,-0.7475256349775082,0.16805628960123503,-0.44337400052829773,1.5823583491641493
,0.46900790783448487,-1.218569374299413,0.2792021509334128,-13.80119502437776,1.039425378765373,2.3267967022806566,0.4567829610033115,-0.015828100476636384,0.256846486872198,-0.450855988727646,-0.5276101567225403,0.8919479773455733,-0.7795441287416722,1.6006153307028304
,0.5627671280574137,-1.3160250319189375,0.2518085708764009,-16.52583246211221,1.276915952880996,-0.4581357653214041,-0.46952062957534424,-0.3459364480191475,-0.6386174334196507,-0.0633970722097818,-0.2023798134687917,0.7834513459526314,-0.958711547616418,1.4900148248734075
,1.2308787841614928,-1.2351422019498135,0.20352316995850406,-16.568211367561158,0.6997095553800721,-0.38367687040547965,0.15677702722561399,-0.3730082757766757,-0.6785419264022593,-0.6792047897034503,-0.6984907490397323,0.2859280949199293,-0.8713285522960463,0.7879311400959662
,1.2488115693966706,-0.9908881702074954,0.31500202375088926,-15.685438621707386,0.46784086997108354,1.3316759694048523,0.8666112057862337,0.06794026429116098,0.1473088926188004,-0.9811592455328046,-0.1580722495942499,-0.2870171197914064,-0.6273243587170029,0.48792066672045287
,1.3470505542656253,-1.2929479148604934,0.22370711705198218,-19.784995309771237,1.818554600383618,1.756906113087278,0.8750145413909345,0.09858915614234333,0.09702708880616373,-1.4603841571351353,0.14415580892954744,-0.1281238153529804,-0.700407668866916,1.1604968971717415
,0.39783367686144966,-1.2671823199949444,0.21233474457242246,-20.998226567969443,1.7820419736815134,0.8175558809084769,-0.014977569395104709,-0.10633141554951751,-0.1000013482254038,-0.5130136894144455,-3.14500221641501,0.6332692390074631,-0.5309797304522864,0.9788347397981216
,0.28467307882369797,-1.013772404853087,0.5275358560489465,-15.468280086731328,1.3055384505772287,0.7082031101861728,-0.015181722433207456,0.34503126597775935,0.25377443784365106,-0.38270642274186345,-2.9472640321606725,-0.019452920190459497,-0.4120030771131765,-0.26681478469280606
,0.6840266020765432,-0.9497420063639869,0.40835128675011173,-20.85129980968478,0.5850432761404142,4.403924711114345,1.839143948784751,-0.10752454329115275,0.17164330121997456,-1.0301900633378365,-0.9721559007320716,-0.26771878428236573,-0.26883243630602655,0.49451759695464487
,0.00674638265086829,-1.5174868249797653,0.5629192184028597,-11.68796732213437,0.9156899726276692,4.6511448479982604,1.4554847363813697,-0.06966399793248076,-0.13821615455403524,-0.7503140355735528,-1.8802518499453875,-0.08890482609996114,-0.38673034073233825,1.0492787813062625
,-0.07613642279626626,-0.9803590793351971,0.19676411094815077,-7.495531432041404,0.3696045758142384,0.9618530247598824,0.5639498739709942,0.22661558720542915,-0.41748287596016354,0.05973551997413066,-3.3279980062357266,0.11654629755767962,-0.4181432835279558,0.48733242123823545
,0.242777577349839,-0.400327054016176,-0.08829811290586967,-7.485541525088065,0.34781667942015715,0.2731754401273871,0.12532465531279188,0.650110765525324,0.00926201491130445,0.524005724569025,-3.137645825174005,0.12131932059491267,-0.4351972418671272,0.21933842271123424
,0.1427651571161612,-0.10465888429447119,0.2248809722295069,-8.506075547175096,-0.013973448740658504,0.9070929537858597,0.3575509974229593,0.00634903407824199,0.19988621437525225,-0.4774942642296824,-0.9831666399365991,-0.22498610502752364,-0.531943005584252,0.8115690552476258
,-0.378102790441645,-0.0048888509409964215,0.3446007691184749,-12.462534124344915,-0.019969471631394488,-0.5904885184824336,-0.37962984562415464,0.5062664061255239,0.13266115016164454,-0.7109403036743139,-0.6808041090143385,0.18418643628958767,-0.19395260951937512,0.7400265029089544
,0.3677145744804854,-0.9197567614483829,0.31681544879380524,-16.665002387025392,0.5979270590741103,1.32707202878043,0.9464240948652716,1.6255875217357019,0.16077307353211595,-0.14266652131609914,-1.6689091202006068,0.18759160699717195,-0.3145183799394468,1.0544089471281084
,0.7157192998633152,-1.0661452332280688,0.04689320698633578,-13.426015882770841,0.6600742107364347,1.9002966693637295,1.4403272540402738,1.2199744856198698,0.1301369073753755,0.09395742880105322,-1.8741084703295878,0.09758505881865125,-0.5809636783273238,0.7957354810867565
,0.8100371713765587,-1.2951970762011085,0.4532468295936429,-14.02946125672266,0.7371740465068696,1.6144696420883167,1.5895212834111128,0.5422974146650374,0.06170650947325351,0.7866438672221575,-2.8518843023829388,0.545242708508884,-0.1840293311794394,0.32907993767428706
,1.1379929295774884,-1.0671708417079082,0.49095314368949367,-22.4755503473254,1.3062631779492546,0.38603379291025747,1.9378275046082218,0.13043140706479903,0.7879326371668536,0.09114243571249109,-2.192878307625551,-0.123350635884672,-0.4902113723479151,0.24288101579516827
,0.21499285750366814,-0.8499907614301877,0.478983049730343,-11.326742944438786,1.526171715066735,1.9314430017569841,0.8257355092415464,0.10838293446204039,0.48399279184365335,-0.32432991321908733,-1.088360587161293,-0.4346576851038812,-0.31021064508054075,1.150403934376219
,0.6179487893442712,-1.3437326971463024,0.6467054558253484,-8.282198891448076,0.1550593993481472,0.6696624569650554,0.2967755466491433,0.37195982448136905,0.6089253352082173,-0.15308789347392787,3.2955098958116698,-0.10336753960613107,-0.3821517054759542,1.772910414726603
,1.1864777845724148,-1.5858440172291728,0.589890837685487,-11.821154551224504,-0.011982676694347936,0.9265045333008807,1.3788113569481788,0.3926852958260877,0.12193452060054456,-0.44409658377992606,5.000590304888624,0.33429970791654656,-0.273001543516573,0.7624049176748162
,0.6828896901760623,-1.1509813476222155,0.4329919690663609,-11.753715942069284,1.2739524855489057,0.22014831880268163,0.3741356903048549,-0.09637236062369305,0.008026766812974359,-1.1776341751585087,3.788826975912821,0.41421360842705923,-0.223539444922718,-0.959312645483273
,0.1387527122166754,-1.4292605664905864,0.6874779978649149,-15.288821714139882,1.0777497770902742,0.5993467246516185,0.05902265831221725,-0.1129916586909388,-0.13475740644798936,-0.42816583769546196,-0.030146855306296357,0.37088885457297655,-0.22734142299828453,-2.5006513354263076
,0.6426836851534145,-1.370682392667599,0.8302471280685955,-18.944983580657375,0.7076173484781181,1.322422141409571,0.32962295292251104,0.37666053986460557,-0.08738284672303984,-0.7216955147300017,-2.4638308641032998,-0.07863952673297196,-0.7638972543135432,-1.4251586498250315
,1.1863938879186453,-0.8180841647128428,0.04775806342633791,-19.792534525345463,0.16264993008755327,0.6719254633260848,0.15840760880848523,0.5284357748937276,-0.11337842233532242,-0.16264791321658917,0.8112811651999232,0.1923628837318247,-0.9406202008106156,0.4318191080128441
,0.44562368165314103,-0.4730164257378096,0.03706948101329309,-13.781748793528916,0.4369038789387468,0.37289742865597064,-0.14941132226411324,0.7582869900169831,0.011160390613416728,-0.15718581907843812,0.8084966611876443,0.04364833348651714,-0.43044086871889337,0.34108395691739846
,0.5121721633357363,-0.7447428944885534,1.1115894952379854,-15.714923530953373,0.49799367013367335,1.3312428673267016,1.1908331536736407,0.2594900420754863,-0.23837432200888145,-0.5719972522239241,-0.9277745547674102,0.2018982579061729,-0.2083843703493709,1.3899223042119275
,0.4971974374723054,-0.9399529940061799,0.9596127474231968,-14.753000135837175,0.45804187414782294,2.5734616777165233,1.913288784143268,0.39004250581096966,0.08599619762017795,-0.3839756621967865,-0.797785707185993,-0.2169815012273001,-0.2930476674122505,1.179636825125158
,0.3610319675512286,-1.2986406027887283,0.1982071301343403,-22.45679601129106,0.4670615387926239,1.398587593589886,1.3229440430252701,0.8116933153464427,0.3077816777209807,0.05792545990340502,-1.842226476487921,-0.24908624509871288,-0.5583043130991205,0.9528499187245427
,0.06339422748885201,-1.24748171842105,-0.13910537827167138,-18.146163077410346,1.440837477365298,1.4155809928670477,1.2442452167843572,0.6707595120236595,0.18527154548320515,-0.42652189476778873,-1.1695997065719677,0.25657494226602473,-0.1538955377162983,0.5048813791282237
,0.2771846724076706,-1.0242541927027875,0.08004926162270903,-7.986832315229293,1.6683576531236388,0.00732664801906861,0.368413661505001,0.3429194082097974,-0.0026304933794996615,-0.9952107722963667,0.6446905146472407,0.7103624295327925,-0.11896085206772396,0.6536585362440857
,0.3352863239734675,-0.8101297274790247,0.33038683744938885,-11.570657325544751,0.6459313394630378,0.623463430252131,0.4195793550784844,0.444461010549458,0.215503508480288,-0.08137650234239771,1.7976346123878904,0.22870232668230145,-0.26939476356442177,1.036259762464908
,-0.3024998194928119,-1.3375583142891985,0.04081301056651333,-12.34290787310427,-0.09695214155891065,0.5375161008243083,-0.071708023389796,0.6338570308921504,0.3207422148278012,0.23742271560902012,0.492556033849342,-0.14977429216078827,-0.2799382245308445,0.5211206521773782
,-0.10455123566888302,-1.4853502939771301,0.24901046805624083,-7.4629720470180745,-0.5328332008692108,1.0161343655312882,0.19609811657865775,0.388362592099296,-0.09883723562395524,-0.3484492440707737,0.20613498877208072,-0.15929265507243617,-0.5021599369477348,1.1402780733958713
,0.3473496603986627,-1.2817819358006768,0.05535258844744348,-10.539557005236603,0.4275350454030142,1.6154932111802616,0.7400574468764367,-0.04193492376191291,-0.026125047460620388,0.17121704175654573,-0.27783460430916607,0.3178153288465532,-0.44049344830442266,1.0519282945903263
,0.5078519891268284,-2.2248086455730327,-0.007890482782857517,-6.606463571354977,0.5483200852527149,1.2398626455590815,1.1326529703299186,0.17229390395074562,0.2851806041447872,0.4663503884329813,-1.5680145192361525,0.36866436723958745,-0.6513918966357775,0.24033928574943106
,0.6858958240587221,-1.6906434456414803,0.07114237445484393,-5.971394877256376,0.18027671496811348,3.150006022749043,1.1494251827241555,0.6655963891258954,0.5961807633772234,0.5599239185740402,-1.3118929727860706,0.41466087649797667,-0.521667093478511,0.41654836714042015
,0.3358458345296513,-1.1653063026086552,0.6879539321822911,-12.148155389305433,0.13619911721050268,1.142376281752138,0.46875240225267234,0.46362091896834007,0.41041800886962704,0.3856634633613785,-1.4983252881503546,0.3095452325661766,-0.22841020246484647,0.7509492351003922
,0.36406101996896956,-0.5815232262512442,0.4605577958375554,-16.245924183979394,-0.22030931826419742,0.3080873504662111,0.48425982801685696,-0.19766756342835856,0.3137412072280303,0.17474719647299636,-0.5073195932800814,0.052203844925487956,-0.29345736903723363,0.7845943958170263
,0.6275374239289108,-0.6471898950721552,0.48840165937569757,-21.407593555129033,0.0716179653256971,0.4755879384943749,1.1159032375977223,0.16914796809121035,0.3056162582156826,-0.26139898410556833,-0.08482563616579535,0.1790364718011848,-0.642376886378046,0.8680186743341923
,0.8163987100608744,-0.9879114940536374,0.29455157879191723,-37.412583052764916,0.16127471488271497,0.48268405166819983,0.6982425625349719,0.27539508281506686,-0.16523270716921368,-0.15697043763858265,0.7784967019617771,-0.07161963731330646,-0.41839726277637246,0.7530427289776163
,0.4997689539121396,-0.6800482976784122,0.22492331080727102,-22.991766209310498,0.3080188274465193,0.10486309079364704,-0.043078936595334,0.15393337864215587,-0.12544844157361842,0.2919657329413818,-0.1507728359196438,-0.013355811676236666,-0.5842524707262253,1.3372518851458175
,0.8187352994229871,-1.0285904089803384,0.5060924588630764,-7.631500917421518,0.6482109792658455,0.10764587887747873,-0.05413889789454699,0.013012382333147818,0.44666731718055785,0.4921767164877051,-1.736366992235066,0.39477107117069166,-0.45992817422477467,0.7658457066446396
,1.048620870994042,-1.6232548376607707,0.3247038633734484,-7.625231502908985,0.8893133226576196,0.23434472768044742,-0.29987034911024624,0.0863938172259579,0.38548069138325564,-0.08731755910682898,-0.883661780881466,0.09534179641082126,-0.29582845719892914,0.4095090885960895
,1.7361433301902305,-1.2916289268527192,0.011368570167157,-16.79849224444256,0.23482516472979859,0.16356528118928046,-0.14148702882559067,0.7086519920962532,0.04091960693535168,-1.0243486195201656,-0.3313595410045153,-0.4573536320359854,-0.23453431432746058,-0.05994212371152236
,1.483493307532247,-0.8994062332604013,0.3357662469880582,-11.614059408633082,-0.4658804308822825,0.5753253702785925,0.41363877011184397,0.2678952657623827,-0.1482775918879597,-1.3513442968970353,-0.190790638610441,-0.30846528191418193,-0.10620675099153827,0.15070584489840233
,0.20967621179122797,-1.4693937167193503,0.30713435545748946,-5.115518853743439,0.11937058352466288,-0.5794203530956672,-0.35884277397041664,0.48285633575991793,0.09950250252430934,-0.5225129378889563,-0.12223617249453828,-0.1997041660616642,-0.43021328387090485,1.2883496851074419
,0.02317647691485391,-1.0307718805774844,0.27891034308136864,-11.425206566607512,0.38429745317599895,-0.840761997855041,-0.20053287865110062,0.3867150404158481,0.05446117296057241,0.002990401765073424,-0.3130836362001991,-0.076990016196608,-0.3436923094792537,0.8997699002200724
,-0.03227124239788892,-1.0695219870735186,0.6263536036199934,-18.92252691753432,1.0265638085918132,0.6443263447578355,0.7341751621539293,0.5960010938732075,0.20344499954178544,-0.2061453518457629,-0.44815781563103724,0.37686716366685147,-0.2006716907195433,1.210567171714136
,-0.36427408802113226,-1.0727006358796647,0.6904566885525327,-1.4750287193423042,0.6426001395817756,0.1711238280438801,0.2292153648127174,0.5661570796542699,-0.002291559514900977,-0.88691222405609,1.5375462662262216,0.565780801051494,-0.3937829375472438,0.9693317725340966
,-0.006880209235275695,-1.2313519928894472,0.5618314382058041,2.0056073501326495,0.574613709487532,0.6999075749474034,0.31835938543899117,0.6303135644811589,0.11692895586351257,-0.4110552928401225,1.8082896235512227,0.17184220262450564,-0.6303411144184429,1.2491239400215604
,-0.3000591961563439,-1.0840935570894399,0.14565996897261568,-10.448160150616832,-0.0729943141630645,1.123219103653093,0.48895911048779783,0.6575900606556748,0.6585022329754296,-0.09055279946755156,0.5316378081934494,0.016808487156643803,-0.9740264443222395,0.9703552941707622
,0.14467638014755474,-1.1846319028458947,-0.04687326553318134,-5.195664486767978,0.42807754137829307,0.7566658869487858,-0.2658730617950634,0.33987539892588847,0.22561207505144623,-0.0569267287781382,-0.5332570472599119,0.03228678821351826,-0.7790013289038386,-2.960151621306461
,0.30401290446859697,-0.7174541261290691,-0.03338462780915734,-1.4963300509912651,0.10585494226080108,0.8221389450070905,-0.3298541864486735,0.3001921737270263,-0.8689098878933575,-0.30517750441818664,0.4797834268578496,-0.1460821157282981,-0.6367654989840168,-3.459348499231323
,0.4620009237978051,-0.6335838508749483,0.3453910582569711,-7.641235776465461,0.18454143566209266,-0.18514721007568188,-0.258419194460907,0.4489463116164482,-2.197832030803407,-0.02530221506717536,0.5598788135208681,-0.19901945210806501,-0.158999306016669,-1.2652859403510266
,1.5399532957040734,-0.9560649760844797,0.3806479507942854,-15.309343376726776,0.20554630960641387,0.3257236643120025,-0.051071362564301864,0.9321543427231148,-1.6466336525540253,0.054749571079730074,1.134403475656227,0.1761554490144033,-0.2505178625028695,1.0064723395580002
,0.6203026760643414,-1.2315932244353474,0.45033868858157905,-16.99765114022099,0.5702015942622652,2.3972637450506507,1.6519120661386806,0.3885168502839609,0.42290481131883745,0.38695029412633364,0.45298494840897235,0.2640960520170031,-0.7654449075187281,1.053860075075768
,0.3598128778320973,-1.411303500294544,0.4193912196815852,-13.510850982078065,1.130949907383802,2.586201748836801,1.208763832722355,0.5907195141286088,0.3863075506158772,0.03329961571571208,0.33514392322675757,0.10352386763920804,-0.5735768932504762,1.2744209420830848
,0.7658170514439843,-0.8068337321476505,0.8274116788030006,-8.375337151910577,0.6710715399536699,2.898992187985426,1.195176172045913,0.18131374721132648,0.2396804307863786,-0.19256995101011704,-0.5389950982604828,0.24854535959505739,-0.2985729309261866,1.527049149731861
,0.8175813348729654,-0.8348122413034449,0.9116596633671907,-16.673559586315342,0.812114377726705,4.281574235560861,1.5800879187133563,-0.1799226008982082,-0.2888871185616098,-0.784830019433333,-1.061844658839921,0.49571949263914594,-0.16608876113222623,1.8852758584187426
,0.6837895192348136,-1.2544491071831734,0.36303811843407496,-21.82695338806061,0.7105444239730463,2.8197100427380155,2.6786487628892024,0.29318412797804855,0.3023596032909342,0.6055403938253479,-0.5009819078833885,0.6755489673942432,-0.14293884660915973,1.9403311668086143
,1.1150500293126302,-1.0485197660974934,0.5510932479339719,-28.241688670130287,0.44547427113002624,2.0386929534414095,2.2263994671764795,0.43769974209846174,0.5819786804192116,0.5745372420641888,-0.21652422417122744,0.5020042450178162,-0.41347032411345097,0.9900664818668815
,1.5008209418544283,-1.2874460759480926,0.4468624071088263,-13.75763775461511,0.6061344312765261,2.866932043286362,1.6120769910653103,0.8865095729668538,0.21602969242644604,-0.31129236507235525,-0.5543514002125451,0.04638954333535357,-0.23128798608512852,0.299268221135508
,0.48094231000109733,-1.0816538091696029,0.5575106530839584,-2.7329346248097135,-0.1603088408607888,3.6207005439087556,1.3022070925913345,1.2152048384886773,0.1429209533618466,0.0655670106179139,-1.8859801245196015,-0.16027662795044856,-0.06605877778279039,0.9804094436162187
,0.7545748514496966,-1.3339545462509594,0.683199409174399,-13.86024378503777,0.022838691688266168,3.1278718897822397,1.314468291365397,0.6966457679231435,-0.00626429957439814,-0.9136641124175492,-0.6008355108642721,0.4942696612250653,-0.19164209100568813,0.8329973570150786
,0.4051411392709507,-1.5584653103596795,0.4103552288398348,-23.435335279199453,0.8185112012936925,4.409999400574308,1.4349694473000494,0.9795155369249511,0.3326839375764075,-1.981916816892871,0.41204859001489924,-0.14052405383945663,-0.08799486027243947,0.8363825298418738
,0.09186890635962347,-1.7565851197255302,0.6211494265966909,-17.969087059800856,0.9914412305504323,2.591342676738474,0.4296543495193989,0.6677725846074053,-0.0553999632674236,-1.5248297856436879,0.33078931861232436,-0.042125087177725715,-0.2773379109636282,1.15500921449368
,0.20524048617090063,-0.9467693691982235,0.2757064247818123,-12.53796874244256,1.0463623918706741,2.1147820733677314,0.015407823466261824,-0.1926667710310802,0.0892880105274521,-1.4192225059672137,-0.0892206028927,0.4841981835468204,-0.371152394782132,1.0578474897187704
,0.255937141243576,-0.7915892617997834,0.10349356710472116,-19.197663582591236,0.6575536733279156,2.3823416531364043,0.41327372163964865,-0.0769908430983039,0.22667781841406429,-0.2914187738022216,-0.6695792014246371,0.23277222113555304,-0.18574283045274567,0.6706278291410336
,0.050823921776405157,-1.2463439365207187,0.04485988726689473,-23.109786419766458,0.26323649185772685,1.1493429790044938,0.3408855689325864,0.4442272253810109,0.2263274564547147,-0.0222124034415371,0.7492638750836496,0.24811241138977383,-0.312229719407657,0.6342867365346578
,0.3261602239025295,-1.2160220097400125,0.2337641422416944,-18.627298212020673,0.006756463326493714,1.2659298447509264,0.6195576424525597,0.7563952807094882,0.4473616158197567,-0.09329667805613946,0.696471353618597,-0.20322406836777263,-0.3562678877637645,1.0449592466078008
,0.7209473327367849,-0.8909158765575468,0.3898098673145609,-14.301288384524616,-0.4808341197136808,1.2138944719326248,1.2359301541560135,0.5714634263057274,0.5453057423452418,0.7737912414121642,-1.640994269048205,-0.07311123027413731,-0.3436486631336184,1.3195700590779165
,0.7879706603609132,-0.7330864399831607,0.4856495786226037,-19.807795403954277,-0.3175179262010473,-0.2869662881162558,0.6349390266856613,0.23754656287440423,0.4216733749408695,0.19607639013060116,-3.60224132693362,-0.12906610098993812,-0.2405209477318033,0.9599362721782173
,0.4004090418130587,-0.9203328801927936,0.30750197243817134,-17.514807480802673,0.17345214594034683,0.6217206144628247,0.9456192055830879,0.4390131857689483,0.49055509783749013,-0.06220424522445368,-0.2965229405505937,-0.4109649517274279,-0.5226298364345567,0.48108035854097675
,0.8098399069869721,-0.5175794000180387,0.14293305426736988,-15.433771812878668,0.05068777360689929,2.3434244787684597,1.7207849754409885,0.01629720880458232,0.18121569052884925,0.04061484071663363,1.6227840564780869,-0.13437006380138755,-0.6775392756326741,0.4311761929078008
,0.7735880567763552,-0.8296804460687948,-0.013837822122789757,-14.571684645780541,0.743073185448022,3.5060591833553834,1.8838056699945454,-0.0811211376259495,0.044048818142380125,-0.4006255870437172,0.767686414509567,-0.36377685300991597,-0.34237887957294055,0.9609622249588106
,0.9037693569636185,-1.098369651215122,0.378166913893316,-25.32915115303423,0.8348034127471746,1.8142941159598305,1.9805122810433045,0.07468655078125885,0.4563712074758545,0.03679670205010248,0.5792265458635834,-0.33899774411592143,0.014877373237808428,0.8395486455070471
,0.8126580413347669,-0.5555227898493602,0.7658305091680216,-22.91043848280425,-0.014411790451566278,1.483399292998624,1.0823392151382862,-0.007034851980437201,0.2849741325783665,-0.08606567835571209,-0.04476482332573926,-0.4731592340577954,-0.47306957359619833,0.8874878439759966
,1.2734006611659163,-0.8935585873869778,0.43139981077944844,-23.706798641159782,0.3903954701718706,-0.21188062451615164,0.951408118024205,0.7752013975313796,0.3246212341443142,0.365956778229159,-0.9617034414314277,-0.4358704616182323,-0.5268732047921559,0.7475402522487654
,1.8256867355801327,-1.5912056572701396,0.6941243928272045,-19.14629337832063,0.28225379438751275,-3.320366352496944,0.7929569149725052,0.9765175750497306,0.162873507523602,-0.31843262137869754,-1.2484737873420113,0.3651572808923246,-0.367763025264294,0.6754679891753734
,1.0554793307831678,-1.1589528766100021,0.2051008822559035,-10.657998209719205,0.9976333820533009,-1.5273909675948023,1.0147168577961427,0.04737052316602959,-0.6311577663276304,-0.46964769999551653,-0.4747412671505573,0.23736306364651028,-0.34617969704572416,0.7398516440415427
,0.6858187118878689,-0.9511343854827081,-0.19869543340670476,-13.334498830243449,1.7785844778811002,0.5214942828207956,0.4445972256821596,0.511412503647151,-0.4828729906360825,-0.15811576564844707,-0.33349343418261856,-0.13279638067696312,-0.45577192384815546,0.29094884087115197
,0.6624046462017944,-0.31137949691260675,0.2950132813770345,-11.630150770009209,0.7671549197592779,0.7177773588246149,0.41558602739078027,0.45762956291980555,-0.2614453933225391,0.4412795519993483,-0.6533082425466428,-0.0705144537749509,-0.7173790992617948,0.9371519099945658
,0.6375114375451032,-0.40985964153579646,-0.08822364490782787,-4.988336737668922,0.22332205819282636,0.9127713210681545,0.0234965953187622,0.32977975505853596,-0.3610522627531924,-0.07736068775467163,0.004519422300170474,-0.35641589738035734,-0.8876101743407377,1.0033466449785378
,0.07882509308957061,-0.41094856155578885,-0.34533057187431127,-12.488819242017268,1.0213555446317473,2.4887659816637284,0.8836644307583761,-0.12329722516587492,-0.11233523996175698,0.2292058438712979,1.2547063558376876,-0.6583174896820725,-0.04733673268661531,-0.2812362537867587
,-0.054329141028665366,-0.21668513129662662,-0.22719130179461908,-12.80222659267199,2.09343623170343,2.0065321615802962,1.2106857462643033,0.016700339871983785,-0.01976373963906895,-0.15689328464741345,0.6512124007680461,-0.11156677988908496,0.035546756541468626,-0.30591651522990354
,0.25607222763519055,-0.680370504719365,0.3444025110591781,-11.371642725469075,1.0730008266292694,0.4214141557161869,0.6839641247847557,0.275101292577262,-0.23057882444672453,0.5022129320333804,-2.4955892516067877,0.261620535533555,-0.5242905293500729,0.12536689581274027
,0.3534197195845779,-0.6327557731154697,-0.052435563103373564,-7.602423040475098,0.9526585257656164,1.3053131472792208,-2.1644617508196977,-0.01398633943654757,-0.7203946708284628,0.5261453609231971,-0.7742852755777048,-0.3481015117432322,-0.06600639412380142,-0.2620702402530395
,0.203260727002118,-0.541003018616426,0.09460028061308655,-5.586758580325904,0.8225574126882608,0.9266085653322246,-2.7690216371795997,-0.10201493106033423,-0.25231883936228605,-0.16524648920612528,0.4117717601779267,-0.36105564086215247,-0.07131288235273585,-0.34873760629591677
,0.4966852618682827,-0.7009938298513502,0.1820088029747239,-14.41168027876531,0.32294239362320293,0.06694012644301103,-0.5861268396798155,0.06868056534504416,-0.33884655870419206,-0.1933404118906954,-0.8246404147167166,0.18142302187055903,-0.41147157876376145,-0.1554324541989402
,0.6525450386690267,-0.5813982205012237,0.28887837265915256,-8.674121431143245,0.7347412643862276,0.43088625014085474,0.5660763904476885,0.35073260399550577,-0.0674519793430737,-0.2641579328789504,-1.655178977377774,0.09722025045885194,-0.5306052835130635,0.5845196663387945
,0.41136381761367613,-0.41925944575933793,0.17828337701253527,-7.562685048156924,-0.24431550857326004,1.0817345970309373,0.5402376832002943,0.12460109398357949,0.37621426000275665,-0.25559826803337343,-1.7937978444027798,-0.007682079857853713,-0.444908477185016,0.8889625477367127
,0.5277260476462714,-0.42685862915639067,0.4918153584614569,-11.524470589455504,-0.2933589321795678,-0.13312408974955645,0.2942479616884887,-0.2392266636975936,-0.08165091042933248,-0.5056723266451113,-0.8618070295630412,0.6385856731477639,-0.2601683691496693,0.827964711659613
,0.3319723536551854,-1.2105583093881527,0.37710804357420274,-16.86845448767325,-0.003370319234603621,0.9341061590335927,0.5302865076551806,-0.12992290935239184,-0.176841088786664,-0.76227246728044,-0.22249985479221607,0.7360490297122132,-0.14124138563330194,1.3220206411108046
,-0.324508298733469,-1.4164861259596975,0.1664478224001729,-22.64259933477911,0.7760659155380971,1.2946652681948372,0.30092161093213815,-0.24495363007032342,0.2524128280774121,-0.52909513581042,0.07357655090187241,-0.00828776029959219,-0.19338908223609885,0.8439239091948001
,-0.46639191435294935,-0.8297397276137115,-0.153364038957295,-6.987561440540792,0.5232507869736995,-0.6421402838335706,-0.5213296724639768,-0.9404121003095377,-0.47836546294177634,-0.2861504570866378,0.5222775965827542,-0.5519618373117117,-0.2962319848934349,0.18705769104980358
,0.6314290241352134,-0.8087034004458649,0.30329430747825986,-9.905667658353034,-0.2179477963369199,-0.19123815201051428,-0.035894212498917034,-0.18849554707121266,-0.07282590765333866,0.4258811709752358,-0.5880378479604297,0.21564654297578265,-0.5651573744911558,0.6217742682365486
,0.05367149604001758,-0.9119684354035208,0.2754856643401836,-16.405392173198862,-0.4106488515859973,0.13428722595311374,-0.3348372008723854,-0.193760485673079,0.11764238081138471,0.4512830253698453,1.1290330758059945,0.14649422308103582,-0.6530333442257299,1.4896616905730076
,0.2206593445326033,-0.7336330918341516,0.07455976774630425,-10.241857897701538,-0.7566690110114546,-1.241998640040173,-0.8981927279870209,-0.011131343797002086,0.24510779855495152,0.6534065878751915,-0.11518433404221427,0.1033222334580552,-0.3005801768601109,1.1015113587432874
,0.5290539191106461,-1.1826011744982448,0.2029758174989266,-11.639401165852886,0.23301654411378805,0.07456371800076682,-0.07070879272132882,0.0018122947579095178,0.7226233561610232,0.6928770087235208,-0.4717681877631903,0.37519306801679597,-0.24965986168947205,1.052770942725323
,0.6425209283857718,-1.2885698307198223,-0.23669229259469982,-22.531901647311162,0.6936339928551862,-0.0510189999802307,0.16287755594196493,0.3160018079413017,0.007890163776470432,0.9559415103683705,0.4962352036479638,-0.07982463495011068,-0.15769083508194937,0.5529504459909639
,0.47031997794548275,-1.092533426109183,-0.2673308348792477,-24.06515577205545,1.531087935232926,0.9276642019763285,0.4157954872871801,0.5850861127645799,-0.32424548637997375,-0.3653402567237119,-0.4727942250842518,-0.00520352570737339,-0.07484109464761164,0.2921693202676505
,0.08852847124788107,-0.11807314656226592,-0.1816186343344922,-17.188642020750017,1.7135656784993114,0.23025827513938457,0.2808797424874789,0.2329964234426196,0.004396589443918677,-0.5410413717889279,0.4230938230639524,-0.10354579033320392,-0.3113280207921609,1.149682878061185
,0.16887679432295621,0.04877251427925196,-0.37482917269972066,-2.162602536959347,1.576726151280982,-0.20999086294967234,-0.06786482919677113,0.2803198195089349,-0.011723383190930685,-0.1237211894721024,0.4633755991335217,0.10551733827854115,-0.2128546111543043,0.7019455484156695
,0.3492975219402107,-0.4001947821970186,0.12830568090179256,1.9871694437735137,0.6580078341707545,-0.7234440780342312,-0.18080554504967708,0.7397626766146029,-0.08958922909190936,0.3411118818901788,0.3993973340044935,0.16916308792543835,-0.17103466636244596,0.747903884535921
,-0.21739457030997328,-0.488485145090668,0.20714752819917384,-1.8092831718288838,-0.0700542009059699,-0.6168609910768144,0.1592925807681858,0.47712989555955876,0.18494995426281569,-0.5884616441459244,0.6930616304501308,0.429767076887094,-0.09098689847169908,0.3144347310108961
,-0.04964398971839866,-0.6629515096879759,-0.31183535870197643,-13.869325882216097,0.2252373342692433,-0.49632773988290985,0.507025649969718,-0.24790538692088115,-0.19342354779260876,-1.1762716867362795,0.7825419022253695,0.43619669807216654,-0.05960379601177562,-0.11893893180768944
,-0.09687192908375623,-0.7136002057336193,-0.1762145125728227,-6.57152672630237,1.2065206447748695,1.4087802406123728,1.4081175596668916,-0.017340256046059373,0.07822043471986259,-0.03558034514954344,-0.442981694497107,-0.13280332318349963,0.13900003210902948,0.3204239388570399
,-0.15188512153736963,-0.7483245713498955,0.11396832273071836,0.1959475039289439,1.0831223844706557,0.9806687092122327,0.6424931793346209,-0.008853561746223221,-0.026220244366771388,0.19425041317864156,-2.2712324733556994,-0.45584905062598857,0.15358090252120016,0.10989299199264524
,0.6092773925738817,-1.3204901203322532,0.5459189086422948,-4.8352884176938415,0.47874906226319386,1.3055653003290428,1.0219668615771476,0.4567957250562779,-0.09113142291652815,0.1724608896044295,-1.4929269864153392,0.1201917058586437,0.015055997437166731,0.043863420630789796
,1.2062574551311507,-0.9095985118164214,0.3624356371171156,-12.025956235441637,0.09399703090589868,1.4493342346472848,0.6317163481090381,-0.021237186797504685,-0.32357617688341617,0.04991882466442207,0.7626949920527242,0.3151781132298995,-0.2105292424255734,0.8985220765918829
,0.6333705469880122,-0.676866679053506,-0.31368886746666647,-10.904014745642192,0.27379474305255047,1.575622077112457,0.3882773871665545,0.09002956478814446,-0.17989653559102098,0.1277221754911299,0.46148805150504824,-0.7579016119680645,0.040144270458683455,0.911801425183212
,0.8997331644556555,-0.2292187320960288,-0.2900258782024987,-6.624185432900577,1.094825339395,2.6022930468218575,0.9069786821358139,0.22027754350081277,0.07723940350172803,-0.9125314771640205,-0.15431959271919157,-0.7651408455870186,0.12478990297012935,0.9508823944901079
,0.9044438177327244,0.2670992648812885,-0.05487847042940375,-5.071462812552498,1.7315289235517497,1.4692003915249774,0.2645839345669829,-0.28498147644853783,-0.15581837249012276,-0.33105516048941874,0.46219159094860757,-0.4142051268968068,-0.11608708837056386,0.7104464019980682
,1.4314420473887237,-0.32162085749654723,0.7434773248464767,-12.79131610819445,0.8965344401710864,0.6849050095488319,0.1777123315449247,0.3203946467707788,0.3005096054388232,0.15299862037967435,-0.3685876671565088,0.13608979470665603,-0.5193992165583845,0.949215152304921
,1.6201112998560085,-0.7841849485594691,0.8410213409012262,-17.952093519439657,0.20364453720037473,1.3293395476069798,0.28883701220341707,0.2424178972560915,0.21379073917479252,0.2660462830077861,-0.5201935720256642,-0.28090350966411487,-0.9257900126798873,1.5206836452954378
,0.2442298719988936,-0.8132434178567136,0.4062727538542956,-24.892104850846554,0.20187103021356256,-0.0590769124485595,-0.3879154621697556,0.5446887946626618,0.4211182253197621,-0.761599489155933,-0.326045501152634,-0.3295236326134109,-0.5869474877151736,0.46257966889331537
,-0.5426338653615899,-0.33797129717172597,-0.290793362053855,-18.466884752717018,-0.7518529539416301,-1.046323721962681,-0.36806269797425106,1.034605992971608,0.4188084982242285,-0.42484252662842936,-0.40271084677344104,-0.15649698466445616,-0.3794093256864892,-0.5272890182639097
,0.676988866475539,-0.7914009092042902,-0.21496232416384156,-16.181747922708077,-0.12339470401949568,-0.23323460232033483,0.23356508043756033,0.4199787883804397,0.3492145241749357,-0.111667617700612,0.02335164874062824,-0.4480571366563206,-0.4868932435024897,-0.0635450699750136
,0.9044490345262964,-0.5918641871230576,-0.4739141331084628,-4.9813296109002145,-0.3625915067032206,0.7433718562849698,0.41563218791897216,0.4020162199733334,0.11312977442547885,-0.018470792279104264,0.7729395209344798,-0.18471604166711786,-0.051914050124195525,0.61109649096324
,-0.10502822608420838,-0.5012478289200847,-0.17434643098206531,3.442603553599106,-0.5747856153197421,0.6435000681938301,0.3095957132132245,0.6274510141350037,-0.7569639430659226,-0.6848943462554364,0.39705841060218267,-0.0927828754395764,-0.0030920439571912152,0.3146865857402254
,0.007559327494962071,-0.74945874560114,-0.03987938138315142,-0.34497162951438615,-0.33599052159520526,0.27804534948961246,-0.33648976740756303,0.08472783209999254,-0.43948505168204216,0.06588119525414537,0.7011672541133835,0.3711685862025843,-0.35168774403896697,0.1927189567227803
,0.47086303298904575,-0.8784932141901134,-0.21480322070386398,-3.1708861454822443,-0.35925875764618,-0.17453975792937854,-0.3227507609423549,-0.1985399179831545,-0.21077784705856434,0.15769927372224796,0.16069734327496854,0.013872154705608803,-0.6158854168031194,-0.18031733448784834
,0.15528430082109324,-0.35350356982863085,-0.36514246377127585,-6.479166158698352,0.4896230485663548,-0.10956116794936996,-0.125524610240062,-0.25951719608846296,-0.6293565328714458,0.41908008496735316,0.46142568582461313,-0.37643013392674585,-0.6415822153383388,-0.45141201838165324
,-0.30048976918674863,-0.25924850240000097,0.04295845101161375,-1.7092178540756413,-0.011154011021960328,-1.2274356575956331,-0.349166764372004,0.3909376519424408,-0.3799086454195219,0.7497616643487112,1.4894937753839,-0.2914304527443448,-0.2671523154812263,0.3257385805759279
,-0.5770832591127065,-0.24916684563208152,0.20133213102725078,3.926812080583214,-0.014463890254761223,0.09104196967126868,0.3487750359835216,0.28931535952494153,0.21410343915278476,0.3433222216947934,0.9585979726646522,-0.22683757001598734,-0.15284912150848812,1.3552711926101872
,-0.48392290427634865,-0.2815615430969407,0.1170396421328975,-2.364357540250545,0.5696133484671748,0.1237624101484078,-0.27677083788059487,-0.43983342587867086,-0.40788663415566573,0.3146303912055114,0.9377866014891764,-0.4925927707730024,0.04261635189583929,1.2093743967729071
,0.5188236012226618,-0.2808017074911956,0.038069823767445894,-5.332969489012487,0.34883306499624495,-0.23386675012596808,-0.35188582191719014,-0.3930915890609249,-0.34078305655463226,0.7492638820653625,1.5967610835032502,-0.2081948223277897,0.05321562889118737,0.5386162732417674
,0.3517460643728365,-0.8962383736755319,0.16297242815629423,-10.964456407347283,0.09551616786954342,-0.39046594506596266,-1.156748179780629,-0.23953985994349652,-0.2707990488311044,0.3392206548107892,1.0440555484406204,0.07344641986097603,-0.27727813314623745,-0.04531573761080655
,0.4868043203315274,-0.24757047252610248,-0.1437934793282263,-10.172923221588972,-0.016463773524692398,1.4726913267623294,-0.730348604173549,0.06649171015161481,-0.019938748125899533,0.18461976802670435,-0.21208790856585868,-0.3157499736285505,-0.7079632340885242,0.1333956659312186
,0.410489497318304,-0.6697333967662386,0.07109475419111969,-15.050153571495148,-0.3559529079212829,1.1154769316579543,0.2967817492173715,-0.13587901423189658,-0.09050118439158017,0.5342072553743392,0.1310382902312214,-0.33351464071092496,-0.678470923844781,0.15829955086267755
,-0.032120072634183795,-0.33993459234818846,0.5285990137560632,-7.151414177638461,-0.309746987439785,-0.09868062218905617,0.14960222501406895,0.16191234066674912,-0.1856690587749224,0.3484870668912453,0.11533673964877679,0.047657470910272844,-0.17657088728419384,0.8910102812387054
,0.5147504511971818,-0.700918824303715,0.11954890538092541,0.9066432299909115,-0.5243867365088172,-0.4399791832033941,0.16149793867587509,0.6915092510037636,0.45926632637736076,0.06459425403258785,0.4573288809552243,0.3047667850447303,-0.06456197330122802,0.48346181740821714
,0.36426529152813525,-0.11147024021370261,-0.046380788797234174,-4.398209432884638,-0.2741206105387583,-0.6097647335418934,0.44847712545321344,0.11272077979796266,0.023116199373081372,0.07593229277705973,1.1328951556985596,-0.14327004640945412,-0.4586854164157462,0.52737430679568
,0.30323087052519554,0.10863825043215959,-0.31636024554395714,-10.011663176596612,0.15349814125233333,1.6332546013507059,2.271484879901938,-0.49425372623409763,-0.20816003313874837,-0.41310854612919407,0.06060629090315561,-0.22124652665663821,-0.1024585935642588,-0.17880657969171607
,0.7545824909019063,-0.6070257103391303,0.009733692716170441,0.06180445705561643,-0.057499560747650474,0.11614461943969806,0.4702112501682842,-0.15564680675849416,-0.17142449501592863,-0.4178598997745796,0.0007048340485350477,0.031147310826532187,-0.02666920658554988,-0.8731651614510478
,0.543435492838023,-0.18633197490762526,0.06191040627798673,7.36038289540689,0.5799517058374146,-1.1788801669345588,-0.31278187022685194,1.1486824929770532,-0.24637756711433118,-0.14444890821305567,-0.2684798332637834,-0.27514293681506996,-0.021205491666197257,-2.7842418502641
,0.7304707233040768,-0.10393871035066853,0.2859968492621935,0.634833103949439,1.002902362140111,0.3539623087915092,0.5555287184726438,0.3858895616794054,-0.0462955734972479,-0.5317006185334985,-0.15964872093597787,-0.22730808521942783,-0.12212992437490998,-2.4297997702670093
,-0.002358695144629637,-0.3319164162915105,0.05457855937728459,-4.710991439455748,0.11099245189038502,0.5541373805588236,0.7366034878319825,0.021280903804311545,-0.12312000000754213,-0.42779446522861964,0.07278832061846835,0.09821930174975094,-0.019080926409385583,0.9634978123887388
,-0.31390349085792185,-0.910538401385585,0.3887056235016442,-3.9092765347994685,-0.12438351429069042,0.2520114374998366,0.47851192666656417,-0.16576376686103608,-0.24387876462769625,-0.555578545709789,0.4564159879360875,0.17378997428461376,-0.0015638398403054635,1.7254683094949075
,0.04222277219544937,-1.512927104036999,0.17103092291932878,2.036243378084911,0.707465234639818,1.7329772590936983,0.123382067288079,0.23221046517796537,0.1975153344338539,-0.35466434575797445,-0.19499635654116396,0.06123621670173222,-0.054867213753952565,1.7846573510979589
,-0.5146608362154738,-0.7016651638023342,0.12268455556103411,2.35045331501952,0.8609499441832196,0.06857641858836586,-0.17944865447845254,-0.12760906503437122,-0.08714818188346263,-0.5096152532209742,-0.7046175276345319,-0.14439711243055658,-0.13503764324405712,0.9521272850551782
,0.3462009862670833,-0.5744662442232263,0.4335901171197113,4.727042053819102,-0.4215771561203335,-1.2007306024238396,-0.35093448903071706,0.1785801063617086,0.31403675356951927,-0.554754550808646,-0.9254748630350592,-0.3262314929108806,-0.3310315215333537,1.074553605096191
,0.5225328288248372,-0.22490507336653365,-0.06615327487587153,4.173631699544465,0.18878457839537888,-0.4326581758227063,-0.006763688988890253,0.5584622925039514,0.1054870745646922,0.08114107943101834,-0.577088838881369,-0.04134746144143069,-0.44420184785385747,0.459165677616312
,0.0561781080313233,0.3043378159577045,-0.4180892589662994,-5.977421440033259,-0.07536416874283516,-0.31115209308604613,-0.30094205073926866,0.10259331339835345,0.3066974931092622,0.7835898202116469,-1.1597870616772994,-0.32806584302421155,-0.5136508800570265,-0.4520495676296629
,0.4338374120426422,-0.10613053246268933,-0.2827433490774363,-11.616448547529918,-0.467905982017852,-2.132650151375128,-0.6395362823229764,-0.08349554098250106,0.10988106226508433,0.18656154767589264,0.8498080558459425,-0.5260782976249849,-0.5420186245825743,0.012474389596210155
,0.6021905824556845,-0.4273330227683171,-0.06528377834581213,-9.194373617143286,-0.6086806886872617,0.24676527173773885,0.6283746775672026,-0.23141776686410628,-0.3418857928435454,-0.674058275107773,0.6433761422103655,-0.1687003364219496,-0.3799572705335411,0.67072413144197
,0.3390177891839935,-0.4471530830942687,-0.0028138769073900653,-15.763324274682205,-0.5127523554884825,2.4698635238021933,1.6171682326476629,-0.17988145961258278,-0.372139476244304,-1.1566044027827804,0.40497140941236126,-0.26782704960508125,-0.24427538357307665,0.2688067072167603
,-0.030885168941371076,0.26532330870229387,0.017918886087371542,-9.48337771440979,-0.0729603350812929,-0.887837531695253,-0.5024842749860776,0.3008827911383111,-2.1737276599931286,-0.7358409155348944,-0.2545664844224511,-0.16114808963033986,-0.21505934226962214,-0.42796556821418597
,-0.34923038773839565,0.3061024497111583,0.39480095112270863,-0.9962809884591352,0.0031986219905433878,-2.0919640560188526,-1.3298557048456532,0.011553200959700843,-2.2913901025215218,-0.23457482777876376,-0.026174643990212763,-0.09100710750809667,-0.13721845770685495,0.011599761750026793
,-0.22389189878017107,-0.2691915560461045,0.1854190807500737,-1.8280937859309352,0.47387502811293875,-0.3012219438197791,-0.3640252184863807,-0.2888470322210848,-0.6224383824230445,-0.4853091138352797,-0.5738778674280841,-0.15029395050426583,0.10022381430092472,0.5114705967265124
,0.5758629347124371,-0.7635886529746666,0.23596766214765283,-2.2729204536758005,0.019446916936795754,1.853245684162117,1.4183624967027206,-0.19718089123285926,-0.08728812059711422,0.16461169794871244,-0.6149954824579318,-0.3869547517037514,-0.0996887514558965,0.4960799703769347
,0.6235645724197635,-0.3580916821814851,0.1665611766450601,-3.52427893360182,-0.5163917594126813,1.0687688286253523,0.9935994414926184,0.04690870166826739,0.45823525377401847,0.5652843618340464,0.015728032602577942,-0.22539298450481648,-0.5303623629069115,-0.33348071965079046
,0.4175024417299844,0.1466240348149638,-0.038218701257321214,-8.082374212118163,-0.46675291374844635,-0.0900732644603487,0.23007102654671777,0.6098854037031318,0.9028290729345226,0.15208498026397324,1.3062885378754787,-0.1553112595248372,-0.4970328387672208,-0.4362372885534901
,-0.17614781579250546,-0.2576780400439327,-0.28563943975229833,-13.674480059793197,-0.19635083250351495,-0.31519197744626193,0.18620109866019682,0.07110842820388581,0.7794499222100543,-0.006610745275352597,1.3361908688968571,-0.3657781593115051,-0.023320523405470247,-1.3946412817837253
,-0.23053593580055998,-0.12998763772284727,-0.28476409270820724,-10.169118992061662,0.6810623946055826,-0.08705015447515764,0.14873075573621794,-0.5566912106898391,0.08981821538717412,0.3601616954398916,1.0383625213583019,-0.48735264309610316,0.30382201669762465,-0.33734219883934663
,-0.1735908081274389,0.10375937247402311,0.11247184843066282,-5.973839053873208,1.0479273324349254,-0.4068870148038999,0.09405400863352578,-0.3818810204559757,-0.03994344473981639,0.3805951772198494,0.8088416671799084,-0.017172304820286186,0.04976366352399248,0.6976802948066843
,0.024283394845116435,-0.055056546000733834,0.07695288669326307,1.1424856910725745,0.12860514678254045,0.20930283132807337,-0.021687648082303543,0.24818268283537112,0.09973656067612535,0.3469023491478557,0.5152674730393717,0.0482324082276467,-0.47560221173614076,1.1518771033209576
,0.13712902110545935,0.1661614821336844,-0.14733510016296147,3.7523318598021222,-0.8076882174940543,1.3015994085514604,0.4371243270597483,0.31772486301798913,-0.06472668621265493,0.5608325409348467,-1.2712175129055632,-0.184582019064979,-0.5370303205266515,1.0840121055236405
,0.1889027460183183,-0.4066388416241984,0.24953696923456073,4.8346068235693105,0.07910684392347393,-0.5213220245800563,-0.06273053178312901,0.02965883067887821,0.033146531539518395,-0.2626304824584095,-1.4501390064888662,0.48644065176431805,-0.34537660782717955,1.3449751247998614
,0.4130407449475606,-0.39745434273665065,0.7055583257458403,2.676343945860097,-0.6011294890065293,-1.2718825185539315,-0.6619879687378526,-0.18654693283361565,-0.12346970340728097,-0.09699243359950686,0.5901383780958811,0.5544732019166925,-0.44598206578606747,1.5049531842717294
,0.5761331606557963,-0.06452857460726465,0.5729683837489375,-0.8254682276311619,-0.7615062515266864,-0.6656191361790923,-0.1995517227195074,-0.016938915466319284,-0.03838512409613601,0.4698798555240757,1.12873758755188,0.12436834362646922,-0.6248138967135961,0.6989254238875786
,0.28046698201259523,-0.45263784522864564,-0.15431798000437108,-0.22109069148357804,-0.07717158765898584,-0.3657430430853421,0.29779468918215407,0.1838925438573375,-0.13537490804587465,0.36709279411624496,-0.6194630272380863,-0.43991503861248166,-0.2980646203953783,0.32971148039502757
,-0.5346827567724612,-0.7670750289730369,0.0018917127418671058,-5.077839198316572,0.6744179762929539,0.3957945847516269,1.009553258155163,0.026293132495117222,-0.10799281096201212,0.17393021391835803,0.44216301333304325,-0.21973117143472426,-0.10020304915409575,0.4837935606834685
,0.07444844884185875,-0.23909533584206394,0.15720702891155203,-6.799470380869181,1.2268811724943631,0.3490283942929519,0.5596950091187425,0.4760352832239784,0.33033447123012866,-0.30188535486362544,0.6942464879726925,0.07358431269866245,-0.4908440393666083,0.3502679326369837
,0.3588776334225024,0.49972855227357443,0.08428291000976826,-1.898899214973705,0.5028287536669821,0.4424611877260764,0.1421980756731903,0.5380319712343328,-0.21911168552638566,-0.2649893947222106,1.6015611523270759,-0.19017202745417064,-0.4137421595526725,1.1708740632487324
,0.4905526294662211,0.5322699077846172,-0.018881633942965072,-2.5727122908230466,0.07330805086584255,0.09273026561078257,-0.01105047550488808,0.11135076116877395,-0.2508141389318363,-0.7891304853654586,0.9537506437268258,0.03519466560472689,-0.3944573896591008,1.4013679512771038
,0.5210674693061675,-0.2794689067441934,0.5926148441842077,-1.394193634477646,0.410043625159568,1.2193424127376007,0.39754624553886625,-0.05112384422057975,-0.06740301928475224,-0.2077099117889937,-0.8679088906840368,0.49987401476830695,-0.5363197323639447,1.2790201881476657
,0.5765979771522448,-0.5082922789346925,0.5815863072835347,8.18650393160764,0.09038904749966073,0.20471082040431451,0.8148714032272679,0.21610137292855727,0.10986343079612529,0.3413305809895649,-2.3867257527041477,0.006041853695247606,-0.23088732983433352,0.7327457443457107
,0.2972793396607032,-0.39681843159285934,0.1373464870030121,8.424847727861348,-0.05048971195085427,-0.051290586885304794,0.7418596894430812,0.6518033085099796,0.12023608046344499,-0.13861012747984042,-0.4465325091283888,0.06826365962543354,-0.159426052889241,0.44042012256544916
,0.5055412443587415,-0.024675928516741524,-0.2785381856230796,7.040962949404133,-0.4643998607884302,0.5531605978591335,0.6426450334526755,0.06070189146864329,-0.11455028779971217,0.3385568907494501,-0.3584762434981121,0.15827425302827594,-0.33486392198228426,0.180128343068793
,0.41457390533786453,0.29786935133382264,-0.29161259922742494,0.7771638446556418,-0.9461154387438729,-0.15933287487801612,-0.020218498092002227,-0.4377448461081341,-0.2982137656043814,-0.06987283690810643,-0.03363880228859411,-0.19955367687759248,0.014738592106964035,0.034523782446294365
,0.24570547187315828,0.12797947295239975,-0.24445624144815428,9.631679473744652,-0.037848349857641746,-0.3481811438489645,-0.6110292711324247,0.05865391671610271,0.02606882429612426,-0.28080436183151697,1.3597098287391867,0.016806353160580153,-0.14972381951114577,-0.18781323977311012
,0.2672920319015845,-0.3289423198152755,0.13896418892947351,6.383614192956188,0.24698794684084255,0.7832539748187233,-0.3573036723922087,0.511165732841735,0.043319624615314446,-0.3018638496023795,2.372490505716555,0.12468111480467196,-0.6484311198612716,-0.13625165806065784
,0.055439731875947564,-0.036733028424738016,-0.03206724061580821,1.3220252956989582,0.7131614023948678,-0.6308549409843985,-0.33490251273009425,-0.1253734753195807,0.147331589232325,-1.3286745802919837,0.7385198054983692,-0.012808246541617146,-0.2552885101272434,0.68854809769137
,-0.07469574021722936,1.0107868543831833,-0.29342077466048866,0.5958443684503656,0.7530398373652052,-1.4295231981578693,-0.61586392935626,-0.024658113243650616,0.09487015692275898,-0.8974022006523523,-0.04587208078293635,-0.058704082777068525,-0.22297105149245605,1.220173477022958
,0.6023568898392944,1.1320378842345853,-0.3674220143676377,-3.3742540567634074,-0.1693122497255345,-1.1934958709913983,-0.31525644148934395,0.3663737026494283,0.11222051874926835,0.3043000670692269,-0.2179936871770007,0.19112399485981008,-0.42048556319816444,0.5920365062765093
,0.511090684767588,0.7625057623929967,-0.1911790239094045,-8.8892982541995,-0.20633951568871148,-0.717867113951207,-0.3850704843872211,0.8200458231350388,0.02954188888178183,0.672454162246889,0.7238996707471819,0.5205828573055828,-0.21741947270359446,0.012312421652951959
,0.07472588093324264,0.19791633389377894,-0.10294585570802334,-11.123338798644735,0.1675038915952843,-0.44926703813703955,-0.2226628039743512,0.25704376957696007,0.18971072198124825,0.5268166448187135,0.26561717843570287,0.131227636731545,0.18026487064040145,0.9577279596564707
,-0.2315455508334161,0.36088827341284674,-0.23174496946693252,-14.117337713036116,0.1185424748192776,-0.5874946921333868,-0.27884792872422115,-0.024472166897594762,0.3361541632329907,0.3291831254110174,-0.6866185953889243,-0.17227583276968936,0.46015975793883934,0.7750198730989232
,-0.5094031844380098,0.455796763446023,-0.30047817897266427,-10.02684667186535,-0.5157294355417125,-0.8218752174366629,-0.010590979866886419,0.24603543500788638,0.01449045221587623,0.0692041178600144,-2.3748882769628556,0.01162696315310935,0.17871788896179264,0.038935401693746284
,0.349247039204076,0.22243680827135698,-0.5060753553698787,4.545105332869826,-0.825968409811436,0.5484357819887663,1.079141640535526,-0.2390377660913404,-0.19009174019099961,-0.5623124746559619,-0.008417184034056118,-0.3994456096366156,-0.055011130919018374,-1.1508831041575116
,0.23688977764849878,0.08601293061619357,-0.42623841633008624,8.64682940034843,-0.16946268351795452,2.0324303059906135,1.1377148442249108,-0.47038721827560953,-0.3755935958373744,-0.17481274059249813,1.8340526257663576,-0.6957307472627176,0.08956897497942339,-2.153111580229738
,0.18010516791424322,0.4624094420445339,0.10645768691260286,-9.49345067379699,0.1428417378838348,0.770988973367764,-0.03651901785618021,0.08608861151410892,-0.16072321674290815,0.04756421567485596,0.6851445034999788,-0.365625619579647,-0.0654134221910408,-0.8010540799271869
,0.028939032249049486,0.12139270650119936,-0.16562510503887096,-3.171433307108869,0.6069946687511079,-0.2529681807636911,-0.17355938343152824,0.042886361035863164,-0.05751922048691047,0.07611095365210711,0.65377962103463,-0.13478803080754503,0.20532016656788574,-0.3759861604354916
,-0.3151783653425437,-0.0932575166515588,-0.18343428778446816,2.3524467523580945,0.19990341553945762,-0.19259843894315365,-0.5879587748623244,-0.38058331488304925,-0.2579979575340789,-0.5657176549373982,1.035974321541166,0.14052028405370823,0.03676721695928763,-2.6372875521018146
,0.16210273453316537,-0.5726434872850525,0.30579905607149743,-4.860361560629636,0.08641689017736244,0.36722079833751403,-0.2188220972968172,-0.10466362811863379,0.19197683112928643,0.2660492036080324,0.7194145060928397,0.363572376595249,-0.07423152691538434,-2.7916016286382135
,0.05395254490923037,-0.5620492171133489,0.26826841104818505,-6.5822821767312165,0.42754519478263775,1.531039298409285,0.7309414872037973,0.0070877873512586766,0.03600512814568975,0.3930908097829291,0.22300366271947322,0.29302941961630397,-0.06635525763755676,-0.30759077094356324
,0.07030022035377032,-1.2562562555509673,-0.012329388854910972,20.911078326508168,-0.053064068424817895,1.2546070996887937,1.0046257297215035,-0.008012507389408527,-0.22302442640824954,0.29116593519972,-0.5907227735174057,-0.02730817654773656,-0.03631192385830319,0.9057287576202517
,0.45151853237767176,-0.5082769739670844,0.02899721885921826,25.828553375146644,-0.6131623120838103,1.0217035658391689,-0.05598309653858313,0.07746520187284449,0.43785018239074125,-0.07001011305581999,-1.6803330990261194,-0.20021040886115082,-0.020888056950905287,0.9013544106514672
,-0.348228432501248,-0.3281552762862174,0.10304148113375328,3.9065966602383964,0.16115419903835668,0.31620649278186547,-0.028523557296674797,0.08452958256321819,0.3865490109097613,-0.2060371624007884,-0.4039897624543348,0.19780753829269235,-0.0925449124257732,0.6979621569494764
,-0.21642932877639948,-0.297031696595557,0.33925754199921015,-12.766929356168358,0.043296888054800295,-0.15822314272395535,0.24190877350985385,0.01374573794658459,0.07091742420966066,0.01785155487334817,0.14362906954410387,0.659095166101817,-0.20179587263452714,0.829341061296685
,-0.022152818341906206,-0.42361041658844834,0.4829737086410501,-4.981915721692125,0.2558190428886883,-0.12517675844082748,-0.2786447769423146,-0.2581718063637336,-0.37726653061049725,-0.4785149079984302,-1.0025317889010485,-0.3767424155469687,0.038356947817660546,0.7807034585758634
,-0.5903518920496293,-0.24757012710558188,0.5211382145690362,0.2762553309374548,-0.0038530276066240064,-0.2888845165124401,-0.3006873985885027,-0.5255369446689346,-0.36415577965141793,-0.3647757905870513,0.7576288200217706,-0.6766150866508894,-0.00716203346737948,1.2059715389238448
,-0.39513369416804606,0.4025256157707159,0.14975434775220642,6.453704660299942,-0.07590918735533257,-1.2972580465720793,-0.5628972091858783,-0.05638692876757758,0.11417151988890889,-0.07594091280163107,0.4644785731966182,0.18474644469340123,-0.13064676991524596,1.4567514960861665
,-0.09280523827863098,0.08492844655958239,0.18178492881612007,16.466878451929347,0.42278248622512526,-1.7575232997979315,-0.7383085247547649,0.06595026880268913,0.0867846257272225,-0.49566903316727606,-0.5411273851380812,0.355409246259742,0.19911011895159966,1.063669833951162
R,-0.13283074028610445,-0.007579906314150228,0.4185651726088225,8.153962118112078,-0.16611606416857055,-0.9691343203806418,-0.18986148993412078,-0.25013867207587404,-0.12771842215528278,-1.467572611568198,0.5697471322476818,-0.09878260647870996,-0.09307508027235228,0.5499876415839047
,0.009440003183103412,-0.15266878171672865,0.057779835767161454,-11.932693840766131,-0.33225983342352483,0.712972455680944,0.4015014056012372,-0.22873869176158554,-0.2949256152267087,-0.5167523988261981,-0.45988962777073794,-0.20514949767063054,-0.6937378197193753,-0.024728523308900727
,0.24820902598527217,-0.5875543451762725,-0.3377572349312924,-13.245904862432198,0.2987635961459104,0.3474818713994612,0.29519245248670783,0.3302933997918487,-0.006010157327927544,0.14011984655740445,-1.787112158153964,0.057979271869051344,-1.0492464915752566,0.5492009517074437
,-0.031561396694227334,-0.07277604315034805,-0.40571862291542254,-9.381817815076932,-0.18628286521565382,0.370845696621988,0.4280098796123556,0.2538986296533161,0.29788988189777005,0.12149863033135902,0.12518177006514367,0.6028752068095541,-0.3715048138236584,0.5198664781301593
,-0.1799845735236903,0.2258328510904327,-0.40456642655102126,-1.6626419945573592,-0.20494559456432948,-0.41005094922250723,-0.42474588437061817,0.28604449386259145,0.3298880769660386,-0.20737904953688194,-1.0719138891436257,0.0821878515602845,-0.14231690619081017,-0.07439901971676519
,0.12762810488309115,0.34770164085983624,-0.3833975169213867,-1.6465932368574556,-0.10449135827036132,-0.3359001700610377,-0.4858698708290857,-0.47596199030873343,0.044755051231847136,-0.4301854073828928,-0.41793390714872114,0.13852837993639397,-0.12384505259536449,0.3217703453362174
,0.40750171534891694,-0.22691694429099885,0.04546151309567517,-1.3999125855759609,-0.24413396061505976,1.5157889037078562,-1.953330725125226,-0.5408605567862581,-0.46438680594893494,-0.17365058716733867,-0.5759191716060069,0.0884252363722817,0.06747856784313287,0.7970762495724936
,1.3351581530196586,-0.29356912516514544,0.5367495463012174,-15.755284173374775,0.08732181702243262,1.7462685475617956,-2.686154353884783,-0.20150287407445314,-0.4728849159012221,-0.18840078481995776,-0.030640131290625466,0.4278550026953623,0.022834580665779636,0.8907392347935671
,0.5643808541096126,-0.5545821055776861,-0.03550497293085019,-12.974845886523267,0.10337114504255494,1.849042317611487,-0.6832945886866081,-0.008586197477376628,-0.26363227917392207,0.5767145489760641,1.0756101597072456,0.9126768809967928,-0.2634974396677411,0.44258505321541963
,-0.24843628324077527,-0.21046651744943431,-0.2406949769978992,-5.955611268521112,-0.0002978146690904298,0.3491307309406065,-0.5148726285969407,-0.3924399399841406,-0.30232732564273557,0.661480151486153,0.2104217742085783,0.44861794144863354,-0.13247136132069443,0.10061139215875727
,-0.6474147754311481,0.3585241197623514,0.2677709568800365,-10.982646232775611,0.09611508350158593,-0.48456553115931794,-2.06978176200865,-0.22152650823753653,-0.21545730905523028,0.3206162099997274,-1.2161601173837615,-0.10658675590381587,-0.08674353889836772,0.22489046269088436
,-0.20076662411076604,-0.051020482930823584,0.155919234378472,-28.508862841093666,-0.5570831190486347,-0.2874895213783594,-1.648924113633721,-0.23559234071478594,-0.3974182157910612,-0.05232331382395184,-0.7104896825456593,-0.40011901486181006,0.15647760549694603,0.26194463207468227
,0.5534444147547133,0.23065634725741913,-0.40062500112709065,-7.810425903593542,-0.8711931005921345,0.09676824259534618,0.6263192075595104,-0.013038584235142677,-0.36187844401095237,-0.3876112095849966,2.2052893961674385,-0.3556887023732618,0.1057721081776499,-0.36204122679165573
,1.0437280655072738,-0.211017312495002,-0.38953576380696014,2.357881293385677,0.057313124103841144,0.9384553677365591,1.0661401344518175,0.5400650715000339,-0.16319792315060205,-0.14763894261933744,1.2221213838113503,0.12157972779323412,-0.1422003796074776,0.3915905814301698
,0.16114832147450744,-0.8231981377127933,-0.15671565626331085,-0.16313503556697298,0.9647699168875085,0.4432325428213381,0.3742167708476992,0.24515197368272895,-0.12192565551863296,0.8588875425932896,-0.4155523626700008,-0.3531229140257931,-0.40145298354247716,1.059190118253267
,-0.31746611514512,-0.5935506627390728,0.492740069004153,-14.871099530369376,1.3802724181853447,0.05985550507358825,-0.1717167406110688,0.21462770938097833,-0.14111583533825361,0.5502984173724559,0.3337246546411544,-0.3997129173200031,-0.5270493913527242,0.9608044668418237
,0.04798215072715873,-0.3493788591127464,0.33306019292966366,-19.908928867739135,0.4033967482768967,0.9928766495221568,0.7891705230164644,0.8488216862739991,0.2701500325967427,-0.5285119210258661,-0.2043668832133,-0.0854033119582915,-0.10359314633384657,1.394042921837837
,1.0880887539980981,-1.0829473750639076,0.0721819153974256,-19.20369825145388,0.06582392919183254,2.1378939835571042,1.39622817696156,-0.14814666172702898,-0.09748052319498726,-0.5706413217294978,0.8946994049885768,-0.47338707828104015,0.10340138804276845,1.682951792324374
,0.6241437856935421,-1.3178518987498202,0.318786175071917,-14.10294235195023,0.5176579758994426,1.5495081375901707,1.105515049270861,-0.1389606837293244,0.18569946260292805,-0.7317604163961593,1.3674016098161688,0.03133888170136141,-0.04076246605844273,1.0468469373572962
,0.20112489627281752,-0.649191247389182,0.2679424077634458,-12.453029830665601,1.1725559064201558,1.3425830132059604,0.8452888004238256,0.03085476479130437,0.21702965134341543,-0.6411654676023276,2.1239867011923286,0.5839039877088738,-0.09326728079119771,0.7821595720572408
,-0.41359440040756806,-0.4848950722275716,0.4656725865601567,-14.327141843636655,1.404809358291998,0.31413822208578,-0.1327406383457933,-0.3225919422494236,-0.3496757221330024,0.14555662911671663,1.0369430246679228,0.6759515858037244,0.08018246451120195,0.3923127129902705
,0.039207324876454036,-1.134759998449271,0.6318912108020842,-16.028983257673488,1.4894463646848861,0.7053074088392507,0.8618734761523537,-0.19685294852939456,-0.5249454743651556,0.6331079077689065,-0.43839336885394586,0.31831860062533157,0.08063409895695939,0.44700349172896797
,0.10450351694103724,-1.4153842835511221,0.6355140428727365,-8.169014936774953,1.9770689354081319,2.172427078999071,1.3921751568223566,-0.22760098120899808,-0.17900483705563414,0.6333237699478809,-0.33473434842041,0.06858022984336251,0.06443354365002811,0.9352615506883701
,0.4947219794549229,-0.9214946011552346,-0.08853661419612667,-6.561603381689034,1.7947899795428255,1.610669284499628,0.5414384425739511,0.14757773236291796,0.031368692251931424,0.4334108839280236,1.7951574163462758,0.693410067814878,-0.08499320162530365,0.5377521418992943
,-0.15248665569470782,-0.5623599868358972,0.10076401853839882,-8.103883625026064,0.8498158727383003,0.7148029443207614,0.037829886628500724,-0.0015294578035214184,0.058507711391831425,-0.23430704878982245,2.106561955526999,0.23682817410910587,-0.10019326340626954,0.6646814355418743
,-0.10092416472929107,-0.384178320398811,0.4443219268608834,-6.504584255094039,0.8680101144953485,1.2490985942955495,1.4445828613442446,-0.24152565516634927,-0.07949000516723143,-0.142758594854113,0.1890443284088432,0.09101198652155111,0.060890779002825066,1.0364400378545298
,0.7995666788616275,-0.6781886036889377,0.5240779125909628,-11.054641633899708,1.3853979664203404,2.3469285101728996,2.096664247850178,-0.13424899605880994,-0.16133390494691857,-0.02737007064486992,0.37483560686662176,0.07051162085372907,0.02461845759390496,0.6460027205291988
,0.3049931147273193,-0.8349747925397129,0.17542435745354262,-8.345588420506967,0.16488065911458746,1.5351528303084967,0.8227279209385241,-0.0846520130043458,0.21097862797801514,-0.45578161735656575,0.5262258940521903,-0.19641071407467459,-0.17274675668585807,-0.011154593411856662
,0.1272086827556519,-1.0808059468711495,-0.06668015887432109,-8.767254124852656,-0.274124100902676,2.0566606900382634,1.2486096925287002,0.1330317379839743,0.2247234878441992,-0.6645193163528038,-0.23930903586886917,-0.08026619095861263,-0.10571015748507262,0.1125711371619968
,0.19300700150900468,-1.3627864107888885,0.19440901327517335,-14.647150555988821,0.2668480742078084,3.199416085698514,1.0363695522949588,-0.27788495394484763,-0.19441391979814243,0.15156678423978884,-0.7568448799316477,0.1838251541355048,-0.04039919988246492,0.4000360988987913
,-0.045953547525969245,-0.9787958193739873,0.30499498816167847,-7.8794171310769405,0.9095517034109123,1.6047584445117982,0.5121190219960495,0.10948942859739091,0.032568689242669334,0.5007933028553067,-0.06319223234505077,0.36365785993146366,-0.02837876538707139,0.5576947801213763
,0.0019102356087846012,-0.4174255057501831,0.03428624076561671,-8.556121588140291,1.0740598234558805,1.942184344934315,0.9642691049739903,0.4070540166581754,0.4064623696392708,0.17093141466194894,0.48242698632324044,-0.08879824064579425,-0.1778273481711476,0.225644546424939
,0.11524645158176379,-0.7085832676021165,0.4957721043107894,-14.06664437066448,1.1142292124356175,2.3415180731214615,0.9260495006201631,0.335969160731692,0.5290787640259739,0.8576411850930066,-0.4604975741172008,0.08857262988278115,-0.22167115351706512,0.6191476218920635
,0.04464533838999526,-1.0461296475962107,0.5069551806368781,-11.543969536507756,1.3957284664558565,1.3252083942261776,0.24826281403528638,0.636704384212687,0.4002209471753232,0.8814560625893707,-0.8850251483795715,0.01867159201070149,-0.05205607539852942,0.5031660972265588
,-0.042316690527675234,-0.6938526158027195,0.08275114759707605,-15.300267309480935,0.9479061568185352,2.1501433248576296,0.5752457440150986,0.1323427377608879,0.1294530760563177,0.5566366985582563,1.010981760143542,-0.27597364088941356,0.27204215878967686,0.601224255547011
,0.20518445499154114,-1.1188587182100964,-0.45255357157144815,-12.378742464735964,0.35765225728427974,3.9229066113103093,1.914262954459078,0.33252095511449287,0.7654670273196629,-0.13373153828456216,1.6804974429453017,-0.25043839972709026,0.20445627078655995,0.4509426540000609
,0.6952841862265146,-1.5485617512422032,-0.5215292376355831,-10.308812250732013,0.7357407634397778,5.433271148806301,1.2136063343504682,0.10708278005904681,-0.21243466082146048,-0.6987636296707647,-0.7824998240806217,-0.18860909178702842,0.10960078057155476,0.5427336279427167
,0.25122963302157075,-1.3614048425047656,0.07636686460984944,-14.86693398646086,0.7534836546158843,3.116899873950475,-0.15826000771765855,-0.4703421066363192,-0.36525741689921987,-0.3849364893738903,-0.5445039037486896,0.26104031051200816,0.04156144859469228,0.02687760163266321
,0.311385759947198,-0.873695733752047,0.3381534116610573,-5.926537997665649,1.1273783862012343,2.2383091820864887,-4.5312337783201215,-0.4678898023472556,0.0015708907091753386,-0.07913330270513277,0.6078383899127691,0.22011658108046153,-0.0958175021951205,-0.12961856073228734
,0.3484648517045184,-0.4012738387599289,0.14455019209550654,-6.257148420266719,1.3479486445562592,1.3101521960357467,-4.923327546533744,0.4987906424842945,0.37362478373937313,0.7123943761795865,0.26386453289697515,0.2511675235109586,-0.09245052622028492,-0.0013623636030712083
,0.3307505845792435,-0.39121400918896954,0.044805662395957124,-14.947018557417078,0.31097828261356963,-0.07189562315096597,-1.9495158071210459,0.7792247592034892,0.045573740284987764,0.3258538147787811,-0.726989030137469,0.493675215327665,-0.11082888603299375,0.5826634562336769
,0.40151541933531515,-0.4422549071141481,0.11268532444423161,-7.729361164646239,-0.25168165257394837,0.5208367125422966,0.43221374390185907,-0.3977267086715296,-0.3539167499329226,-0.018614472024309544,-0.6219700721695395,0.060680451417756694,-0.3096131214137619,0.2900810315054714
,0.46922610814516147,-0.19482371759779848,-0.6242479553585384,-6.262314905300306,0.295866856029712,0.3975322856101183,0.707771316813682,-0.251319919584775,-0.19399482101591556,0.34384889432367105,0.7046536219343855,-0.2807785192181222,-0.013903386545802296,-0.4484876550039201
,0.36720856560864823,-0.5979184190336365,-0.391202942669565,-13.12682804509249,0.808658054600334,-0.6044458597793461,0.8391650745849876,0.5555704188491946,-0.3252042563198213,0.4712778777281083,-0.45262830045499725,0.010387316160988532,-0.16978447253672438,0.054779985039298235
,0.044840591689239005,-0.2806092479451693,0.5818404604921894,-24.305938777077937,0.8941271084698186,-1.074183584782955,0.1546244148080033,0.49265958427560697,0.3974689034060052,0.504018338782453,-1.1142943162683776,0.5351344373206881,-0.12191195794771686,1.2492755647261622
,0.03830426203099176,0.03516492345983709,0.39431839013910436,-15.478254970662535,0.27182602352796803,-1.546195502852816,-0.3422442820839395,0.2015861182320709,-0.13814082249585294,-0.07879967754791196,1.217085011062034,0.2956953790642573,-0.043098870877945845,0.6983310586415982
,0.7156663948280316,-0.25138212996871095,0.506025284435701,-4.785616144203965,0.1738461970269922,-0.08044051785425138,0.7529275468180681,0.6551596583441605,-0.17845685504471284,-0.30040785355035515,2.3542860738331695,0.48844526537199473,0.010190542751186202,0.18029199303653437
,0.4516858989415346,-0.4653242577838143,0.21889675210839862,-5.365760547831839,0.43650481052757323,0.47617480482886615,0.9648051733493848,0.2703101957571196,0.0971847617521401,-0.8238148302004309,2.296114019575556,-0.10506309514368663,0.2837510441943673,0.8890299708347412
,0.060645273509131445,-0.33889482719822045,0.06972988155158452,-11.021312004383342,0.25391919937697116,-0.21789625300383345,0.17799745283947574,-0.48246381796711385,-0.4233128864727244,-1.0465286375094471,3.1333919203328877,-0.18552362604251607,0.11620244547251544,0.8146978164543203
,0.41392151323878434,-0.07584770996958341,-0.2470323235896145,-0.8624216837063112,1.217973275508404,-0.8088678500361894,-0.5124626411516182,-0.726642473727036,-0.5752756709567828,-0.46472526150249455,2.1167140153554542,-0.2740405970785122,-0.17880161148448986,0.36875218543232957
,1.048138997160771,-0.408751154553449,-0.4660758904890389,3.015303213435569,0.5471697720985154,0.7009476924157725,-0.09559311874804811,-0.14354732639813728,-0.0578768126993191,-0.012367792418849987,0.6951713956789712,-0.4906494759897826,-0.1656909372892577,0.1765170998642831
,1.267337445162045,0.10499531619800016,-0.37192536656252534,6.2016283623298945,0.37502679777875975,1.1802440664785638,-0.1349467825237458,0.14413441119066941,0.08230774126538033,0.5939637108596925,0.12089627173434064,-0.36753293813903487,-0.11898688602596946,0.011549487335570369
,0.5999561933892222,0.0732937360550392,-0.09290593398930964,2.155246122024275,0.8628332320725982,-0.024548286740226313,0.08150457457897031,0.16306886881083896,0.5776576460448921,0.2431663770985956,0.9754115515239796,0.019662074700136856,0.11721704152417432,0.27213326659179693
,0.005323605642183344,-0.13662410820906465,0.10425024939252646,2.0237524535009572,0.2751483952828414,-1.3017395328875472,-0.4860241512563568,-0.29327222235221156,0.17110934311921155,-0.1801129079178349,2.677222518847205,-0.13464481212094914,0.1680076588140537,0.21210223618268964
,0.04002282093794555,-0.48787659210235823,0.15376334755674007,-0.03651011270277081,-0.20521043164067598,-1.0548609690463588,-0.15063261552384102,-0.4263759279087336,0.11302998593385533,-0.06627281958803151,1.890058385782827,-0.1650415365678261,0.05738083157127161,-0.20804869393380948
,0.06517357688607957,0.05834222068873467,0.6633828504203928,-10.794371427150276,0.0009672983842567808,-1.0925798815471714,-0.045427328989108486,-0.05057279821349139,-0.1535055796508498,-0.4669369454372243,2.6665032306894285,0.41678408761645735,-0.08244193989739866,0.23276263816603077
,0.40019438842292504,0.049114282577144654,0.4666474820707219,-13.405631825939816,0.055516289367913904,0.49625038722515846,0.9114884102217808,0.05248961733285208,-0.5359294770056284,-0.6128626603134997,1.5229990077940136,-0.2719566218429002,-0.011682266085819596,1.171682554384495
,-0.02661868719239595,-0.22385704620727584,0.007289783293917446,-7.8101285107553196,0.3825607415844366,0.9458307209481761,0.9189398210918683,0.31484884834512966,-0.08980905667687153,0.23483564864086007,-1.2788690033145864,-0.4936283390411428,-0.11866631562005134,0.7814513852480647
,0.32470006587480504,-1.1594184613916876,0.4436978523974887,-10.077095929784415,0.010342242184227237,0.9563407470090644,0.6832644202812278,0.2605123111317023,0.023077033397199007,0.3534904329130264,-0.23015183290465244,-0.3872738451151493,-0.1772637706603893,0.3069713690185992
,0.2577245550639912,-1.153379180871517,0.45369258766463316,-9.472679869715478,-0.41301509112223644,0.3895111945751839,-0.1531850140722261,0.5868020071506594,0.33742951313475233,-0.13507310985349086,0.7590966905389566,-0.05315059313346327,-0.2721123205702437,0.4484817828241988
,0.3828977387657029,-0.4396386624676685,-0.051093984158549044,-3.8182016527500786,-0.11635183378824641,1.2788809941179649,0.3452587800536885,0.35933705947077893,0.4398326279489072,0.8559501607848049,-0.9483260848543732,0.12527043596340887,-0.4422293154850819,0.5977408037327373
,0.3499190305924866,-0.4611849547641445,0.20611062266685418,-9.604794534017545,-0.12658080846448422,1.5854141259516898,0.3887457188815736,0.06485906845590272,-0.009246166140846886,0.23708159658902567,-0.07060044076757761,-0.3027770712978985,-0.35445783564010924,0.8572691257543509
,-0.11238079762671424,-0.2553974957891854,0.3852584610696817,-13.103468000649762,-0.5306799271281052,1.5972710757177409,0.6029020225439049,0.2118491003421874,-0.23651428835701974,-0.1430737273051138,1.4419235346279007,-0.011790833533876024,-0.1793219011406455,0.5775601684883637
,-0.032444645979928695,0.09663189485679842,0.37109956028197244,-11.199613108874411,-0.25116829088748027,0.3820409543790599,0.0005092306392446628,-0.039773029566326695,-0.41624615929021785,0.20604166409450003,0.22283626512715987,0.28273602334243936,0.06681659670207517,0.1503516355483215
,0.35101656510094864,-0.5725713266271956,0.011608808970182904,-6.08282464657029,0.653170693692825,0.22740719123149328,0.02869484953794567,0.20794731389754534,0.018532741686379476,-0.15727729334741497,-0.6570944453250002,-0.11699064818537783,-0.005766945937130899,0.7158450217467931
,0.0032870664680638216,-0.40860688773854836,0.1543767705934647,-3.9986712011766445,1.662776550508692,1.6885449259910696,1.1172647106450646,-0.30873721288613143,0.08541269219727948,-1.4447964964325044,0.380979969671388,-0.1649131104784208,-0.11621906515224473,0.7931621061711065
,-0.27559422703104847,0.03627633475656674,0.5567881016121566,5.455287795314713,0.5676359594198512,-0.19372083669820572,-0.12060981017478288,0.10865732384394707,-0.07729909910449571,-0.8050993054559584,1.368227798283861,-0.0804710277836701,-0.0931585523575712,0.7121133427195552
,0.22865148730537388,-0.21467097284734196,0.4911434330458665,7.313544001575103,-0.038379925893597726,-0.916751277143907,-0.18902517023434479,1.205744497295369,-0.024719485301022526,-0.548262570595124,1.2086657037238342,-0.02355303269023141,-0.3116640253787355,1.1072293147306576
,0.8105530781311525,-0.14804925171556574,0.4935938478029061,1.1260248467916085,-0.09624561006963266,0.7021294344164503,0.6479759235360313,0.5407917181813403,-0.19956615920538348,0.30467684991553323,0.278952791265372,-0.19036720295229423,-0.599478306879648,1.2341881195855455
,0.9435083970197184,-0.8913478919177449,0.13051171502846107,-7.518717992031632,0.18827497822648967,0.23100237689065228,0.013805693341169451,0.062080265433837156,-0.690642028802886,0.6273883168567914,0.904059658616621,-0.11789544011927991,-0.18780995322151567,1.246270691983594
,0.6852293539765895,-0.34047394859399027,-0.13641563914135624,-2.306211415914832,1.1067429959616644,1.6386038877276368,0.23546881216752252,-0.052640385623328324,-0.22488580182784046,0.3547018789348475,0.5974082917044599,0.4924168037649743,-0.32892365749630686,1.2004567786759417
,0.7072873546837396,0.08097864815855077,0.3611618401934651,1.046986359110917,0.6175947668559446,1.9349078321824456,0.3498546810973699,0.007983241037408335,0.021858824591442998,0.32329736058587005,2.297299914281491,0.24016965645414698,-0.49647509442639587,0.3829532616647617
,-0.3907379736842675,0.13394411969941653,0.23520335405829038,2.8771630764904494,0.17487264288293358,-0.4740369155743296,-0.3741420930573458,0.5094083467907209,0.14346611175036778,-0.4868325623334224,2.2334556828765226,0.07711151519868459,-0.36467139520543473,0.6704128682634852
,-0.6953223194438105,-0.7327904580568427,0.3617483238457325,6.207730173527755,-0.765879370822771,-0.23384854892215487,-0.27904231161620713,0.25893197281700936,0.13675757344971534,-0.27737465588438254,1.0515267161122122,0.45499937544172153,-0.19451246105066733,1.1366890740898654
,-0.13467752182586828,-0.36917283892000946,-0.1320743832026384,3.110085262962415,-0.2985326729330053,-0.7694013651402343,-0.40296108438105677,-0.3345807320803704,-0.30174089221709693,0.10251080037400101,-0.9792214730964591,0.07926598986532886,-0.042874722990206976,1.1662369885358934
,-0.4277660425333029,-0.22485067353367746,-0.4589364736536904,-9.453684440264222,1.1560850220856858,-0.006927750823359341,-0.24835175247431304,0.04903872307264112,0.05786577080367763,0.23920994169952975,-1.927957306080945,-0.2199809362205547,0.12672764827307698,1.0427665636616221
,0.030674417203379337,-0.16300169714336699,-0.38734880542158273,-13.371012929927321,1.5252701950730265,1.6049046247290137,-0.14142921454007984,-0.5177190271824961,-0.0924669348103835,0.40129766365440384,0.39810391529197664,-0.34023662111816316,-0.10076068902019293,1.0490853827728106
,0.24742226127923744,-0.34631563193180653,-0.1285804102032779,-11.04718308460714,0.18108256372334502,0.5232784515138983,-0.05996646864355747,-0.4245685182959917,-0.3206621485203193,0.11516348149468833,2.1349351715644205,-0.2433526942376612,-0.3077119019477145,0.5768523084123212
,0.09023307221762718,-0.4640574857378576,0.13175970929859757,-7.245932911657483,0.4571123286120253,1.2050009044367285,0.8845187428829019,-0.1537507549353635,-0.4687420051394712,0.4282151243851415,1.8653077941766711,0.09262699358843891,-0.2239043374475393,1.485839499750187
,0.6517015560899576,0.1802897988724831,-0.27334299165182463,-11.686595305497496,0.40221441637498373,1.0816994379958185,0.6500756770259127,0.17312855860392448,-0.321505029685359,0.8435641879914582,1.0122445292614675,0.04598782677592115,-0.040061810750617426,0.20370718072843969
,0.6835964902955072,-0.04523810166329805,-0.32787842258349187,-6.184088285927659,0.15557255233089745,1.1188348376286652,0.6436029283235739,0.10735755042644758,-0.018886721248199425,0.004218741693011136,1.718908563354702,-0.032338250398828663,-0.1411420046326547,-0.29311641790384324
,0.1584544452927836,-0.13171673003629186,0.26116593668333515,-5.261087017086364,0.013091424879928001,0.449751595253171,0.6796844351812524,-1.018106103494502,-0.8387648758724214,0.3287154823915952,0.9863170623763838,-0.2772445274278662,-0.20760814637288927,0.8610906999059654
,0.3257598015317117,-0.11932988780704519,-0.15151456094212745,21.74400835164605,-0.15692608916760864,0.5562879141536834,1.2255042209204015,-1.008621366156235,-0.7980403244900741,0.4447951656449095,-1.1144120097663832,-0.38115628651337535,0.09861589868977254,0.6802057720959224
,0.13450199354646838,-0.47396442108880715,-0.07265065506150872,25.386979509337856,0.7837707893348935,0.47150755290546326,0.501739787590046,-0.5967558594433651,-0.33759671583473233,0.5018401199609853,-0.9738661591322557,-0.12936056323407583,0.026131035456402177,0.21820554336448067
,0.3572936202199133,-0.8895267050667389,0.20840290969804307,6.069926887229676,1.2023722304509616,0.1779791787631964,0.011594061007108953,-0.43956465839065795,-0.009837407349059989,0.27268164960618674,-0.5386656259071421,0.2975928979850735,-0.4553719181037676,1.4781279622469705
,0.3320226826535094,-0.5102532828407094,0.08392539199232123,-6.582066374390234,0.4223536941349941,2.123444309233328,0.9634393064140859,0.25989568341339303,0.11587419778287719,0.4716153548573928,0.5377224730393011,0.11912221295985692,-0.44342787853938576,0.6083397058574249
,0.30663906520918516,-0.8665499281471053,0.27371596408634985,-7.060266770844088,0.18151086959332963,0.6726414019364554,0.6641148776554526,-0.22971268507935946,-0.12636721431722828,1.3318565077711941,3.560290563476281,0.008356618041774039,-0.44541125313079655,0.6480818068783286
,-0.020766925054755095,-0.18814735225932339,-0.21816875832118085,-3.792293418598958,-0.10101328189010526,-0.3308740716062375,0.33901949041643836,-0.37160468704103,-0.3546253783271196,0.8597596845454879,2.9062709325577036,-0.07296125185851192,-0.05961960278683644,0.8506676595415621
,-0.54249848284815,0.14298501225481947,-0.278235293971081,3.8607859624081224,-0.15391189122761542,-0.37814093984039887,-0.0833977997929698,-0.24360299431974042,-0.40106993559006,0.3462251920180236,0.5389715656423947,-0.2901735007181881,0.0811684074529653,0.5846254526198098
,-0.2779056859110265,-0.25633809748274894,0.28403143347561416,-10.59732349411316,0.4526448442454621,-0.7413378384000563,-0.15910036107154357,0.22174479615976994,-0.04027456960433198,0.06435036445133759,0.4863666823518124,-0.03203963155322263,-0.2256805613608067,0.6049888007400184
,0.192407355158976,-0.22637176367088604,0.12737987698271502,-4.0817529857426,-0.009781535602728424,-0.16333820583517597,-0.04316786476528711,0.053430217874439315,-0.15323471449164577,0.08292933843819696,0.23036437684347325,-0.30131835453928874,-0.43425224314318706,0.7963181796273263
,0.3985822117945387,-0.31479162207440625,0.01586679279460485,2.707166516208859,-0.6990223969250372,-0.9706641941248941,-0.1360650876602335,0.4605327505780843,-0.087773590489003,0.4207899737175866,-0.5098571846359071,-0.3531617074154745,-0.26648751774582835,1.2922477677181659
,-0.4066192276866709,-0.42593675507017775,0.24348107144641493,1.1889387145745052,-0.9531363563985468,-0.9736356710580564,0.11042351070148737,0.910215335681333,0.18177329112065727,0.9151244330397282,0.17003851323641817,-0.004041101795258939,-0.13191672142985414,1.487733968486831
,-0.7045070373086386,-0.7346047248529779,0.011642102847620597,11.575909304373194,-0.7848716807178354,-1.0040440526239462,-0.05997838237286035,0.311874082275941,-0.018995119477069774,0.5954396324553517,0.07302095358983128,-0.36516443946669436,-0.2574133144222156,0.7128783251831544
,0.12494711572835707,-0.4243128661438999,-0.09670502307673784,2.5354277449259657,0.3046978692925971,-0.050035073281829795,0.5093099626741198,-0.41653637168226737,-0.2259647573619007,-0.2519415784086053,-1.0147951226112162,-0.44052305329347796,-0.4276293137373698,0.4080662126303111
,0.5381763083840625,-0.8230974597289705,0.13478201305240373,-4.877203418117436,0.6825776869850763,-0.38078082296472804,0.4008367849730477,0.24959252869280305,0.003397483951000481,0.3480928259740737,1.5298006311114987,0.12669670854075143,-0.270699886895956,0.8215439625948513
,0.9315998535563715,-0.7731921595686847,0.6104434505289059,2.1245349737968273,0.4832292340448562,-1.123202493171642,0.1930058417025424,0.4008978913906604,0.3061444179721153,0.28577569948154996,2.085195598658531,0.28215926100151584,-0.6116250778062451,0.5762584928445028
,1.0697019670381778,-0.611795460288493,0.48821442816184063,-0.23414090602073523,1.3841452149091822,-0.5584554130792696,0.15873082531147875,-0.2859984142174727,-0.16845861979252427,-0.3252250525703086,0.7414054499594058,0.04046527862689838,-0.5345414124951201,0.46441376864037176
,1.58658324680943,-0.9239637515086531,0.3893575892341095,-4.596020227244202,0.4850019645883023,0.7699757794839425,0.3937910926979205,-0.2602843784156225,-0.20449105075967422,-0.585131656279876,-0.8697359070518557,-0.013777250079119355,-0.3674749542556936,0.5619972907123798
,0.5742934236251799,-0.7747361107740625,0.4618470237666228,-12.946163854755145,0.26978464028224114,1.075713444210171,0.6453814446229621,0.5372585954153388,0.2036823648811599,0.1748351343766243,-1.006780698729994,-0.007835719833729583,-0.33893768987257406,0.3905426322713828
,-0.02521335858621463,-0.14207466121974097,-0.07651375586513089,-3.076337181738667,0.2090484946733138,1.4053936371031854,1.1124562878748812,0.46001590321636815,0.35792577117941066,0.5408954289305218,1.0528534219930654,-0.3828225208469916,-0.10290613991646312,0.6642181516762599
,0.448138049565362,0.0933890980622828,-0.3218361657014225,1.0477891302544862,0.0964283336178925,0.6365353735990237,0.9489200510668648,0.12371722226196152,0.34976828908315843,-0.24415258256629563,0.9801847441097747,-0.41611460189465843,-0.198299134960645,0.4212029348474893
,0.8477102900744079,0.3104112466327822,-0.12622394183287317,5.7114662919085335,-0.5266365119790527,-0.8427364923102558,-0.2752372322964324,0.398920898070195,-0.18505388561405417,-0.17975297221553638,-0.1474510492334063,-0.356226025749306,-0.26869827355087156,0.06825848381909
,0.41084676165651673,-0.1901936835943058,-0.40116106707265425,7.0289886382077045,0.01841743194987543,-0.755191140238601,-0.2792041088064301,0.20154431972431497,0.03432866705991956,0.8014809077787588,0.12107790954420941,-0.4593843734593851,0.08922055066657349,-0.1919836397556218
,-0.27417554603678546,-0.6932844581720231,-0.3646336893385058,7.688707686804149,-0.219757974248745,0.5543975296741792,0.4015189462446158,0.1389475726219023,0.7266699123001799,0.5577182081428476,0.9212148733723833,-0.40765092521623675,-0.01138007707058909,-0.1707071102450247
,-0.4109963626363457,-0.7324033895267016,-0.41207651416160407,-1.3786589318169151,-0.749023026310407,1.4402394396651645,0.4846495861779799,0.04196965949169471,0.2542670341928395,0.2134071702299492,-0.959963595581959,-0.6206857301366321,0.1158786189791064,-0.404821702881828
,-0.3039625388530688,-0.5312518376442171,-0.2959439872216685,2.97699906003918,-0.2528639867535088,0.14800332370878838,0.5592025550282181,0.10690386403235752,-0.1347337743682807,0.3468857625897911,-0.0007353951935448037,-0.44219741955005837,-0.11801067099896799,0.11894317068863434
,0.24501385918100935,-0.40230858283720466,-0.21119669909329464,3.8215574886500003,0.7469897306755477,-0.721811880200765,0.5597712303968424,0.14370212239465352,0.20469823595263992,-0.21484590597979317,-0.2376732240445619,-0.09599941573690356,-0.10529083332174176,0.6627477935119142
,1.2588832110523756,-0.7146341715229358,0.040220013596171965,-0.12616171972814857,0.8148131485976424,0.4915846978849165,1.0787062121591264,0.7451733106313997,-0.07857225103189867,-0.3020327776470809,0.19324687976877808,0.04024462954400287,-0.04236135904982205,0.4968793634889638
,0.49807188356518717,-0.3703047077021813,-0.27713000599255855,-4.045719496318476,-0.1542819710881621,1.0272883831004116,0.663465844428529,0.36113119194199844,-0.16338159196276816,0.7705464366890156,0.19897372467029983,-0.0042677051887733365,-0.05108886838813107,0.5432966735530808
,0.5733960693370409,-0.49131492887562755,-0.2299574215145926,-17.05198845821932,0.04262764321974735,-1.0117344226217615,-0.48352565391573726,0.1645595608390799,-0.28274115689209495,0.37393477268777164,0.08105897625545852,0.43067156334341666,-0.3581201514683793,0.17960629908547937
,0.980445766031735,-0.842643007778453,0.3689585224543338,-12.472584632577275,0.0668687351361937,-0.8923083724552257,-0.32085655663358464,0.09674996908696647,-0.23520180356606127,-1.170201588868326,1.1552479963538256,0.41732881648975356,-0.548263358512004,0.6223731406679376
,-0.19239765248793195,-1.1727299864219338,0.8420900232714634,-3.0246629229642497,-0.19052857126173903,-0.4283496674870097,-0.4173490973702774,0.826053316807238,0.7729589656779509,0.031204446034563516,0.9181884033436415,0.29858747555943554,-0.16302544992673182,-0.016727963973384132
,-0.43303362363368353,-0.7698172138119502,0.6213166496530004,-0.760984765490443,-0.9467198530889819,-0.006374140769883506,-0.2455372601829826,1.1722172656929255,0.9150899889472123,-0.09928264778713565,1.5529817808514126,-0.09820519375242864,-0.0537456917461564,0.44782808277469466
,0.08941394000187797,-0.22153796395617606,0.06438619470511503,5.546713523992608,-1.0225259892369356,-1.3889322685364582,-0.8149184869493591,0.16804668241142054,0.18119268042953607,-0.3983904549697682,0.41928793539620035,-0.7518952506293121,-0.08621206385841217,1.174497455470676
,0.16952140848193897,-0.05820738049833903,0.38972276744107737,1.839505998502145,-1.105242567637614,-0.12763248006279576,-0.3729340007121576,0.40858154227913257,-0.09894898879900012,-0.16004144180898366,-0.09443845421637694,-0.5752417626472925,-0.2524589861327706,1.0765977629014132
,0.23593839647605044,0.46837621954794045,0.3413684457292067,1.4749405880486088,-0.742771739059782,-0.7798493731139664,-0.40607968971348746,0.5034959671504536,-0.44882151760567546,0.2591878600413862,-0.6148380711171517,0.34728320038999894,-0.33777482626435545,0.2943879520100558
,0.2424605728526887,0.3644102885715796,0.2547085732603142,4.2636060374663005,-0.6053117106161411,-1.7433474255136785,-0.7660826691910969,-0.07807159467564663,-0.5188121539165905,0.42011074897241274,0.10173623333032006,-0.06655040861280118,-0.0457294937298578,0.0722856604748535
,0.46656651453056136,0.06001167315414757,0.17265064307074607,-7.522475072975222,-0.5747965486880641,-0.495207180139787,-0.41386011714130455,-0.10567359354350171,0.0434124262692942,-0.3654191223517207,1.6420675140994383,-0.27122814057395295,-0.06213369205843013,-0.12683458513859938
,-0.4550987938964521,-0.5083031578154551,-0.05612636649337901,-6.028910737151324,-0.3936484514800152,1.2246205861287953,-1.067739060096808,0.012772484366455554,0.6033564559218534,-0.5091778459769113,0.8053758549508162,-0.17483317490715392,-0.374627274899949,0.6835958923206382
,-0.23985198132994037,0.0764975443130691,-0.18357688330178562,-9.867193273131262,-0.18822537132418588,0.8182086370773678,-0.12540276776415812,0.7458854160143193,0.6128044340591534,0.2934172450786803,1.0355676081123426,-0.1448925036506017,0.010036659801721706,0.4492211646639769
,-0.18186073315586868,-0.04443597763837764,-0.23414869084857992,-8.877433867967518,0.8747896870133575,-0.19120726199971694,-0.2064246527117158,-0.050354204467531166,-0.3408288756939953,0.19275208653153236,1.1666146896423344,0.1213163347032588,-0.024453943635538437,0.15819640369804003
,0.032320160780933055,-0.11887765212975392,-0.1284696145112631,0.7866155527650384,0.7023853542318321,0.3514079072629292,0.06510239644650284,-0.009419353992460217,-0.21230970094247223,0.9357657582594935,2.107664004833192,0.10791602845088728,-0.10845683221898299,0.3247742304555377
,0.6714924915671122,0.29634992648989,-0.11383257873629775,0.5591426594241158,0.28379037887128145,1.1800131631649764,0.36562327119912064,0.48114045131666267,0.17272718813721963,0.5429199961521485,1.9768183867827935,0.5426694782016425,-0.5446877504666727,1.2585527039181612
,1.622059500629538,0.36970909952555997,0.2376636619664437,-0.9469567062614211,0.37639567289896875,2.355105578755176,0.7084392201645351,0.539988312769563,0.12340382969821828,0.47535909463566867,0.46045688713367766,0.34458709374025037,-0.18345088679020494,1.335735321222531
,0.6558666931766242,0.05315966026637366,0.9003145882758152,-1.3612321125102629,0.17825971159299953,1.5980580810743983,0.46142889050805785,0.16164470272935552,-0.10001845051817312,0.32545830763001576,0.7139817316210494,-0.07841329935924107,0.0490765754111946,0.9404093304483414
,-0.0064638995500191756,-0.5284057311754874,0.22233143231269448,-4.119343156854117,0.37880285619964893,0.3974358195444974,0.4539869466571004,-0.03368730950130721,0.03822630320593207,-0.22593089759757473,0.9731964573259497,0.14993319414762077,0.03771462404283104,0.4042112500369713
,-0.3090729726630085,-0.08003196415080523,0.5332189728925875,-10.019570937480118,0.8117983968612246,-0.6699945812457363,-0.4266797889903738,-0.057939283180150646,0.24139043203439198,0.274182067799816,0.17279772091816062,0.1561688317921403,0.02823778588602118,0.12435041300564684
,-0.5845350683678059,0.012895521206279712,0.8422405483814586,-5.466464919398992,1.4298214221606278,-0.6104612562504993,-0.2937678997673483,0.04960890102253378,0.18748015035040858,0.2019167619821136,-0.41998836128229605,0.39077389213289115,-0.09226284187047681,0.5437275500575591
,-0.27833489534753303,0.0520600736388402,-0.008939003958600988,-5.198906273484007,0.6753258471365836,-0.07540282684048645,0.1711030082857299,0.08707020585191565,-0.174868513990979,0.8207665133510624,0.5072932329697596,-0.09443210584682767,0.1052789305658639,0.14511667837236117
,-0.323306069899876,0.24445398277584607,-0.11251438128806673,-4.741385240744111,0.08003563501629271,0.07756251802231723,-0.16701628017650008,-0.38185102487225575,-0.4667870186616273,1.253402307076654,1.2057239034665395,-0.14407190333021508,0.2530090554598844,0.9606151515684674
,-0.4013895153673521,0.34514681639539124,-0.22405362200162626,-6.2218474196935505,-0.32462616601857486,-0.007852081131599818,-0.21232702755249336,-0.6928160210371025,-0.36745057971658984,0.23363098576702052,-0.030521370186880135,-0.06462805880060848,0.21145900302230475,1.4863926246591692
,0.8618767481162527,0.051335269630148665,-0.11462527067927633,-7.52469183738845,0.31065220333125904,1.4086137179579326,0.8979291048224393,0.017058363313574017,0.4969690218393142,-0.08678417733593707,0.7170437909067163,0.38234133527740677,0.039048832799618904,1.4709068176531002
,0.5073454362780577,0.2409929795868404,0.30255641710727255,-1.962449686056757,-0.10665094862048201,2.1018856600432874,0.8919355980655423,-0.47883866305708866,0.5643424203060244,0.3375607438478619,1.521531973964241,-0.013467255205234247,-0.12522155467781929,0.8622785540255566
,-0.08684665819796213,0.2736473920274342,0.30798312879111617,-8.54234297567765,-0.17953061064863007,0.9614518037109688,0.23233928456722786,-1.9853193374002969,0.0804765955825728,0.3125890487394933,0.9182262194199858,-0.8208416550172722,0.05756071038287272,0.34835618086089
,0.5710430962285935,-0.32671963694252243,-0.19630602475319753,-13.306481504605856,0.42198572533137685,1.3529127449069078,1.1165194214314353,-1.559568875709762,0.17354133927664644,0.06432894067515181,2.12936290184812,-0.4986597216348053,0.040968633603212845,0.5589431501803737
,0.8715001906625705,-0.4526529266722165,-0.01652954379292315,-20.343781842163423,0.9697711082634564,2.093795832523493,1.8485823561831836,-0.016605653799575435,0.320374537067865,0.08292483292754033,1.677186168022766,-0.14301052369438993,-0.1313802747642508,0.4232131969764231
,0.8976435073046599,-0.6392008236224654,0.40048774927795816,-8.741271616150124,-0.05849899035783154,-2.2222742761788865,1.3277149145936347,-0.4126520177768677,-0.14978787024938095,-0.6782898076934891,2.208576319359743,-0.14575275486638087,-0.08991240383518533,0.3051817030846822
,0.7245548915678842,-0.26613845609669373,0.376704845300543,-1.498022170160428,0.29870469586183046,-2.5060698008265825,0.899921813248732,-0.3012359393808694,-0.36678343773271727,-0.4433447479978491,0.6776705572876633,-0.1710659081879169,-0.1552136909605475,1.4890601458225052
,0.21793725700621683,-0.2486244059292332,0.1549645184023464,2.4241828630837805,0.8470309340142188,-0.33211926609054115,0.052914841861495046,-0.15261867567162926,-0.047694609611491405,0.46460559750017,0.7548382441926015,-0.5034813715342015,0.1835485714051469,0.37616699516685453
,-0.497510978370721,-0.23700885931690915,-0.12441926269107342,1.42420046811968,0.8223080930855777,-1.4663180189626919,-0.6201807970205957,-0.27287018495543086,0.6448705126160673,0.3310291172109402,0.8750607909346804,-0.5866085130833613,0.3565202843315573,-0.07425363702772353
,-0.37849392043437025,-0.5036862803318348,0.21085048205630408,-8.059015369140756,0.5898808064602493,-0.555392787758852,-0.4131249278988728,-0.35541249899953364,0.13772340577629055,0.0404077709882426,2.5415037624266237,-0.11055872817783188,0.06986557944213138,0.06997106124553622
,0.27821290580673536,-0.48241131227009815,0.10222871075781627,-17.223039553958348,-0.7790910019344148,0.729459705189672,0.5428298679847028,-0.29483157018627704,-0.5682894088460818,0.16840505649069593,1.3872956815223467,0.09949626420575418,0.0017907516766608304,0.6512938248610297
,0.08583405437977794,-0.1778749296176938,0.12823569319968112,-13.087960164704945,-0.9450009911569464,-1.9889500244058111,0.28241555729637546,0.2621678616419452,-0.5988131547765823,0.155488931252714,0.14933821527114927,0.9985277334777765,-0.16608057098001436,0.9965111585152232
,-0.9399777732593133,-0.29396753975689516,0.36356367658694905,-4.874113141353986,-0.29668254224650487,-3.008956989060107,-0.5516359293874151,0.6826522775118558,-0.10855702101672983,0.4238023104526955,-0.7789616794378276,0.30816348278128525,-0.11737789579047726,0.4249301338112261
,-0.513027464486374,-0.09926456515103506,1.0131021254454957,-1.6225945005637754,0.12401772150717678,-0.6774065352414743,-0.1691870827920656,0.290644170135347,-0.08072469296424399,-0.4596289974755299,0.42661751401201364,0.405011863846868,-0.03787297514137947,0.23812583005507648
,-0.27571316726520434,0.2826420679497201,1.5218223148365524,-0.8872036834206775,0.6856045857075677,-0.34740181691007754,-0.23371551407538482,-0.05423969325623929,0.28137836653404535,0.06490994906294978,2.3340352437548026,0.37884567396173224,-0.0542768654277222,1.2209862655179398
,-0.4582427022018522,0.2993692058534557,1.2059934708354654,1.5463610696188483,1.0781200017512782,-1.4519910412290862,-0.6465805222574305,0.07411358354494757,0.22410516891034116,1.0772838512787954,0.9206405355495577,0.21819402867227092,-0.21731608946455253,1.1107605298777075
,-0.553080433734726,-0.213327682508599,0.5370514864004894,-5.720412765449626,0.0627479600804955,-1.4915225396875709,-0.42521024544668806,-0.014349297311093615,-0.6750285944482699,0.9247684169258372,-0.6850540794117619,0.16361782631924204,-0.2166766340824656,0.2051688741550681
,0.2909676291512087,-0.16120448283900066,0.31535757096496897,-19.20653435235633,0.17539534488385045,0.897956705572273,0.08764573120514632,-1.296412990801332,-0.5750692300774183,-0.07190025806576092,0.5463845550060182,-0.2853631565950487,-0.25414755134473505,-0.13173391813794227
,1.1761565511849863,-0.08142798569265991,0.6633229391478495,-29.70037312394587,0.9347860855052236,1.2115190659231567,0.0881451547112609,-1.8326323578005557,0.2111992374921133,-0.06482125049453537,1.5239699321025795,-0.3543285207523806,-0.47925825265320376,-0.35506755064915596
,0.2974552690697091,-0.11168846259504589,-0.2907078779382049,-18.17096944344552,0.4097724981586785,-0.1660156758087367,-0.4218111782609413,-0.8297164386142929,0.12608720283419378,-0.2943547341615049,0.5563122825595244,0.05336248833172844,-0.2231833365306334,0.2580230725078927
,0.16912886027135612,0.10713016992785272,-0.0952716988832755,-4.479320530482643,-0.036804261368406505,0.2720508211716662,0.09495645661442295,-0.41887454939150504,-0.17582001335400416,-0.4487084648056258,0.12867150971462915,-0.46144586120009723,0.0720797981819762,0.4973867307564031
,0.3664870995574613,-0.31882882038424726,-0.08271721749810793,-4.341060323975501,-0.1355137915508285,0.7909711371026198,0.314633229094925,0.309175868271609,0.1532341364389867,-1.003209697497075,-1.001083169745627,-0.30856282793010376,-0.16160265870809626,1.1008217043461361
,0.4025035182462949,-0.5857216133543972,-0.4975705996487886,-4.364497407510578,-0.06331346078594673,-0.8862677657079221,-0.25008857970338055,-0.20310958229782128,-0.21907643052555406,-1.0691794767787668,-0.6010640519936008,-0.6002835704041964,-0.2539556642492952,1.3499204445251038
,0.877110730198357,-0.21001798609930727,-0.2591159952588297,3.3704458455498845,-0.5488406408132558,0.02955581978326514,-0.021532630259606486,-0.5966769614132628,-0.3549172853725947,-0.21278753788659396,0.4553648404566096,-0.1954985135165325,-0.4566849611109601,0.34548749176292787
,0.5772148116533042,-0.6039508963993518,0.12298979727895112,6.8331107581772965,-0.8249215873566521,-1.3293801718596523,-0.8543240033303711,-0.0018507115554531972,-0.23495597174441413,0.21883888354328482,1.1520583972954817,0.1012138525521743,-0.3476259117169381,0.19969205264940956
,-0.41068383535490494,-0.528827773161072,0.10164139140312092,1.1704226665380073,-0.0757046152732132,-1.1140799031799362,-0.7017125461983278,0.5977686348483815,0.43433055941903354,-0.9274673006963581,-0.45994347748554926,-0.08617854659871862,-0.3663382603331187,0.4127041910029565
,-0.5214791488492684,-0.3924746110777473,-0.11755759613849381,-6.860592551858034,-0.19970119294437144,-0.4899044375259926,-0.41610691277222905,0.49076013960268966,0.9222183752880463,-0.8433309076762874,0.3617302962612168,-0.2420285454946465,-0.48278733663109363,0.8349373102388901
,-0.12441215911999504,-0.16972888343341822,-0.06408810283887559,-13.772075721260602,-0.5397607213512712,-0.9114874243602069,-0.5283588551309618,0.8587493717153263,0.34853873478211217,-0.5748934929305707,-0.5418208494279382,0.14596619239213598,0.0568310012169306,0.7222110986261425
,-0.19477348957499316,-0.9364680567908834,-0.08553112180151556,-13.080856283296546,-0.39707092253960513,0.33578416380224296,0.6058731776886526,0.30006536068288037,0.1108887948890396,0.21531656506162689,-0.5288145475942158,0.17936168621028498,-0.09070693161740362,0.5457290735619578
,-0.5055440505246248,-0.9016210395312365,-0.09478393102013209,-4.335250761938839,0.6481591575156467,1.6213613813203103,0.8273034604049329,-0.1752795634569802,-0.13987168350360674,0.47201957266209843,1.0736757575538967,-0.21024128610040654,-0.13734245350721447,0.6253198575040186
,0.1436691669653993,-0.022749408357630115,-0.3082871094546311,10.874000893895024,0.49655285330962073,0.7173270886861607,0.2792299676066406,-0.15125939388498857,-0.20169050901430052,0.3347596711002581,1.479636035190433,-0.13631199801861119,-0.1134504571365351,0.2946900654825122
,0.6792378591295276,0.27503380362322977,-0.12994578876560192,12.301678874124644,0.38250414889751966,-1.3811170975625884,-0.4446158492331414,-0.26943016845856615,-0.1420611840221501,-0.004265255540561029,1.386911911164186,-0.28162619821435364,-0.42704431914683844,0.22537610979550038
,0.38044075822363665,0.5047734869588993,0.1209493599465035,-0.41895767545756435,-0.05044001530949486,-0.5575058500994953,-0.232883939427827,-0.11604367234579775,-0.04879974575645415,-0.6494254900346491,1.5606737422739567,-0.07766408677469866,-0.31416289978954853,0.14702180260995665
,0.24054846937177854,-0.04663993504924262,-0.07809205535324595,-11.412137856831013,0.6122420744091853,0.38658582292953747,-0.5215026541366025,0.07365439744033486,-0.3374359024820737,-0.5062810570679789,0.42578764083996445,0.0815657099275423,-0.056123696398567444,0.3261159736731603
,0.438816629374092,-0.17796034264399185,0.0795341076214011,-16.968437880394433,0.928200543495755,0.8369117167162672,-0.2811004074421418,-0.47446935074411445,-0.44709026161320264,-0.014865795769183733,-0.7709879267014664,0.15161378306901468,0.012519017747274087,0.7572062849761567
,-0.41314129492937207,0.14220166336088608,0.3128130057344776,-13.42620208692958,1.7276161357510693,0.23887516393827535,0.02020703083549489,-0.30191399477173053,-0.24164300320504636,0.24668505630448465,-0.5581501294100861,0.09550917836488657,-0.060733992633181855,1.5378125643048537
,-0.4279737205747937,0.11046611050077118,0.3319430030294877,-16.725158621681626,1.1379934238361105,-0.06023985769214746,0.2703528345166496,0.20947908692428283,-0.04974500566447632,0.20631312213481845,-1.3572808952143474,-0.06623951647137905,-0.07212768296700707,-0.14545519430026702
,0.03549908782925678,-0.6608202255637433,-0.04149169560090716,-16.106863194037796,0.216980620435031,-0.3644169178205109,0.15097241647932289,0.17578930043411234,-0.1452559732874645,0.1743367681483232,-0.47591130794498515,0.02390739145458833,-0.32824710731092205,-1.3698390528868634
,-0.22714428970982303,-0.3506867126177267,-0.1997161159238713,-5.604471018075623,0.4844186774106608,0.31504193692549615,-0.006143635630502223,0.5814517231030703,0.3631283019866304,0.6730468847808952,-0.1736584299642378,0.07008191321180017,-0.5132285778677579,-0.8278888765321352
,0.037376515048733405,-0.19461487687370485,0.5121159772301466,-2.0846689844442423,0.38808833290345135,1.4422972979146285,0.9694044668074239,0.23798795748215593,0.5888844225678146,0.5849697420988031,0.17003820199999636,0.2647454366676923,-0.22989117776135726,-0.397467120267327
,0.2974496523111474,-0.66269116413198,0.08647736030001357,-3.2179228066377976,-0.2807932108535399,0.43984943784214586,0.4315894027245394,-0.2919839947411612,0.3771871762377412,0.6624408395176435,-1.0215947862001389,-0.27656916951147714,-0.11217818513042715,-1.8640762510440292
,0.32366944754461213,-0.19653921321047949,-0.040749949691346085,-3.345468808763405,-0.7390351988595308,-0.914490417265163,-0.5046023309775014,-0.4200098614983263,-0.15077117276206323,0.16456308193966035,1.0862259675417703,0.03388828859868609,-0.2491627835905139,-1.324569152228252
,0.5553418618571422,-0.28311453954719706,0.18636712040209183,-5.518814628822144,-0.7847602396165339,0.6538613577672444,0.1587599495972629,0.6262711022823978,0.1255747995149972,0.5685142837986019,0.3317783771975933,-0.26104691524824564,-0.3866048772719872,0.3399765354769038
,0.5353578624837865,-0.2815389754263241,-0.033509617141285,-5.742207394924592,-0.18724542239047004,1.252251628097098,-0.30716021012210776,-0.3569676455768612,-0.15600663641488335,0.2652393487641964,0.7896817761073917,-0.24686072493790887,-0.2456959801774828,1.00420688766464
,0.4597793694856249,0.05827700267792922,-0.10215782825926929,-1.973844350595367,-0.15378916224669428,3.206001578987472,0.5174677483330854,-0.670559541583479,-0.49740646279943773,0.37817338292169167,0.9926044039325805,-0.5098824249980904,-0.3564570720000803,0.9300803171526623
,0.00028060849590697825,-0.4756082936357861,0.4267675373041741,-4.402232800515825,0.42154186663067195,2.399092485520038,1.4057662257040444,-0.10238485883667127,-0.31939625478096445,0.10341756655101372,1.0970940274518481,-0.26839075780711297,-0.513015232563601,1.4619467243795694
,-0.215308470023755,-0.904205363021786,0.5853840006591856,-2.260065650784651,0.35509478680538276,0.33974719582149054,0.8226181517991311,0.20584707109834888,-0.5262288998359427,-0.3648114809885206,-0.2901610062577675,-0.14615043204525902,-0.5338158520479107,1.5547458611593779
,0.22588630116684474,-1.2093970515617716,0.626165486194056,-0.7706445018636842,-0.2830408479303571,-0.32790368971608125,0.04411989388151871,0.08799189817569511,-0.4173150061872304,0.10895641526774208,-2.8717385592568423,-0.1597866885369637,-0.39783475030769283,0.6696408282243046
,0.3459142855271466,-0.9693639234195982,0.15653200137236273,-0.9486416208642844,-0.5811747662905387,0.17843920151696016,-0.3330268913450621,0.09195534964046341,-0.06941945244808528,0.046398819548991665,-0.41614788413252785,-0.31955885233701364,-0.07012598335277877,1.267048364414771
,-0.16723591161153822,-0.4522082353072588,-0.30811363329521346,-2.2681576980871228,-0.3001930164962648,1.6569659582245806,0.1324013336212696,0.2524168586526732,-0.06286212015027066,0.5936180815587935,0.8302218497698978,-0.23227383535996443,-0.006642381448365172,0.8466202329172895
,0.7878903231285266,-0.10348676907377075,-0.2882960653871904,-8.73083541494219,0.01926247353559459,1.9149783008437418,1.7378367182628098,-0.6528819309441674,-0.7165327360058126,1.131525317785002,1.1435043340318247,-0.35460055053718953,0.1356760583847307,-1.3832347245555692
,0.5765575830098565,-0.6394372722822712,0.09679018110763943,-8.170453813951507,-0.7406764980078515,0.21807419851638266,-0.00010342433789800395,-0.6205153567031159,-0.560428757523191,0.8374223053282206,-0.0899835438895587,-0.6558383798327636,-0.0909342837563667,-2.5912278765617303
,1.0611784754980151,-1.0647441377336735,0.40464117329167415,-5.50070096271336,-0.740464670263754,0.5015458526927881,-0.19309603658877536,-0.22719175409350575,-0.6105748245082157,0.21399653827122225,0.8152484119447613,-0.35396408117869255,-0.17882144043778775,-1.327483140445699
,1.1318362255227314,-0.5060131104432879,0.4478869499463154,-3.391675057527241,0.15340184868686368,0.8089417845784469,-0.3683553384068313,-0.589882864329483,-0.7766078635304712,0.04395866052069487,0.5636658975803237,0.10032220911586416,-0.3341581291142501,0.5293257762397373
,-0.033007748940297815,0.004591980160607187,0.6802385809512168,-6.543411353216435,0.7612857966957538,0.5465331707032433,0.07153115344363561,-0.39518653808503934,-0.20411772320162705,0.06857700074446829,1.005495672401044,0.5441481358304915,-0.16945211463092882,0.6431758278070283
,0.031705490202369804,-0.3841724149383615,0.8206306105377432,-8.337386352206394,0.15182083699969035,1.2274648087920532,0.29482835814156744,0.023450085859118088,0.012775565024179269,0.36032465487450827,0.20068670162304428,0.4206562699688985,0.06775244119880895,1.1903412537251545
,0.6217533775906469,-0.5508990242318339,0.1610971968770533,-7.076257570964464,0.1773269959439723,1.8136147547080474,0.8825767823267051,-0.030739173126651604,-0.04702000349372621,-0.032016963460404994,0.33170337792255494,0.5865422641396334,-0.13818936726787068,0.6902384979981125
,0.37326975481065555,-0.6074454786744838,-0.14094012724020338,-12.035437745567231,1.0737806078798549,1.5724298071148604,1.1472532561421105,-0.18073307605783823,-0.23488643553327965,-0.13760308349236164,0.05996573185939239,0.41712061752939483,-0.362877711776002,0.2066145277954566
,0.3716840635953703,-0.9286535451437425,-0.003221016215891647,-19.401894783403424,0.8174324545750853,1.7165659308031485,0.9548028114137731,0.09414425317569615,0.2377646602335855,-0.4605283817875504,-1.17760800611093,0.06780391646924454,-0.2208488625797107,0.3836575876195641
,0.2908420528929672,-0.5641792569556752,0.19690496402698188,-14.581836230408728,0.7528204945155037,2.1946501609198212,0.4160470075149528,-0.20920961529095117,0.3240987514681347,-0.1610124582777653,0.11901325199045133,-0.4512638462723851,-0.5301875124205542,0.3948734000606304
,0.24634494221822406,-1.0757218176687935,0.2873449813384039,-24.518562783776662,0.503931521449099,1.117199456223576,0.6254624283259745,-0.326927060872192,0.030332868926353087,0.25967821286344095,-0.4843749362617011,-0.3792522623431798,-0.5092337533383559,0.8360119301037766
,0.5819432936876784,-1.0853340921893808,-0.002481747313680787,-21.730702344580504,0.21076884316564395,0.33195592388487916,0.4591382679449232,0.08321325135315272,-0.3160220682813481,-0.06823535623345282,-0.24419610363098876,-0.019557346909064376,-0.00033603538235341417,1.1818419136759615
,0.12127851726591715,-0.4503193110108189,-0.3579905044078596,-9.223667102838801,-0.36649390417359773,-0.8962155717999399,-0.15788182892012503,0.4731042186535436,-0.19502088573842283,-0.41652681850183,2.0945241068431844,-0.018270159180133694,-0.030545635162375056,0.4090070180065381
,-0.10183026836043056,-0.6565722178224078,-0.37532847405038516,-3.475509966401092,-0.5225700798530682,-1.477691128579024,-0.8024644060581225,0.4139199839654049,0.04681414468082241,-0.1958201986037234,1.7207654831134278,-0.20779778587667935,-0.149472332409221,0.7447491868873956
,0.31600025304763407,-0.5678103703803307,0.044785476352614026,-15.489219526940085,0.4049122429329363,-1.113780174463381,-1.1534429268145892,0.3294436915829296,0.6707708876175961,0.2612079070022303,0.06755126692844278,-0.3504703949435956,-0.37275790169160755,0.9221028653776111
,0.16678129451439802,-0.5250234245412815,0.619439641072006,-9.470061225503086,0.5710324221734597,0.536615513356464,-0.09570836627270439,0.284211106880496,0.5119075707375392,0.18214466060104603,0.2129712589651572,-0.15518106338578114,-0.271702123126667,0.7882456544401153
,0.7711986036641636,-0.86745773896371,0.3826622706154458,-13.142103096560193,0.7567837367746892,-0.5034183944944539,0.5114249219699586,0.329609445300763,0.5992486578411229,1.0129805323851595,-0.956475149345552,-0.4257907790975164,-0.3299911349888049,1.0399858393945205
,0.8179528982468837,-0.12298228835036075,0.042176539659332955,-12.997006813094607,0.5941636384284997,-0.3271277019732397,0.2439799995082802,0.3823209054912549,0.25702719199243845,1.0194167190616892,-0.6666495389626667,-0.4430098443322147,-0.20298555511379385,1.4587629629423706
,0.7186883034109262,-0.2233718151974918,0.31749517864819365,-10.31151508360916,0.5053849731859998,0.7779329766276797,0.48901747335924195,0.38549131030164524,-0.011172323851474195,0.369992981843552,-0.7243983455146741,0.7821843111650694,-0.6000110690325262,0.6258440595710378
,-0.44240470795734543,-0.45552227925325645,0.25483759448874754,-9.308607114964907,0.12028884988496914,-0.16846589324356132,-0.18997958848113294,-0.7063796498326047,-0.3448766239052259,0.2004866557605888,0.8800089172142902,0.1683845611461015,-0.06770476293985422,0.094210215495978
,-0.7064408938212453,-0.4508637709017713,0.07518140040042176,-4.322323696987851,-0.13519354931850533,2.1032645622898176,0.4468793578343176,-0.8891823235013218,-0.3660035008049433,0.018807860585582023,1.2070604489532002,-0.2748005237507996,0.17917015333936448,0.2030002520106974
,0.17249803763096178,-0.0612034825146632,-0.010076882245372152,-4.539780694730761,0.22580512260469934,4.219248193829011,1.0719763290017297,-0.7196588517160637,-0.35164407026862665,-0.04264857154489336,0.3595322347749626,-0.2054976731010731,-0.014054071427949526,-0.12104053661125695
,0.21943739434241075,-0.1833206574529061,-0.42206689268164793,-7.81532953998615,0.9932424959644282,0.8666870863658064,0.3750912967164736,-0.2562219496930131,-0.4174536717730455,0.2241060001663196,1.5674897912971635,-0.13069178082097893,0.0027099229722394097,0.200903091658587
,0.6789573311552549,-0.483797843249171,-0.29799730736994506,-7.682840969789447,1.3762048775107556,-0.9613290365961191,-0.499914523446091,-0.1835991108344051,-0.19507806460520544,0.48917410635965836,2.7606017659423796,0.19750683183285672,-0.31219703842409424,0.1632817751594978
