event,eeg.af3,eeg.f7,eeg.f3,eeg.fc5,eeg.t7,eeg.p7,eeg.o1,eeg.o2,eeg.p8,eeg.t8,eeg.fc6,eeg.f4,eeg.f8,eeg.af4
,0.2587268576040298,3.0982370868025586,0.13815212338903865,0.6552738113728882,0.027245809660757417,-0.16998367954960142,-0.06873561362735092,0.40396733870486273,-0.0247124636802641,0.02350053816222452,0.028947969968052326,0.34151819060905836,-16.736124355382454,-0.020715728913370694
,0.3146440890064418,3.982849099721708,0.28923062509323,0.7104184751614314,-0.12670412289411478,-0.09088291679384204,-0.10547256821883491,0.3883154815229277,-0.06427652270230629,-0.10723553410296353,-0.04755839290357331,0.3612186438374911,-16.754366817223897,0.1543770266872531
,0.19840853722045104,7.608008885233966,0.11650881348615129,0.5749395025129884,0.13502574265695158,0.16494604808235874,0.4014589671364426,0.49272885721832704,-0.08792347068770767,-0.10870606026984142,0.22645483647878692,0.3118372062909354,-25.39618234237086,0.1533753804264167
,0.1441480042960526,7.1012641012415925,0.1722459444337392,0.5109033238085222,0.20911690581727824,0.08575128988845211,0.45551097678055724,0.398853144641053,-0.06301536836324721,0.06578115772697309,0.05619087187433281,0.02040128970797175,-28.90201736723693,0.17408944660847603
,-0.06184854655873281,6.055573121966642,0.11185942404312252,0.6535771239202053,0.17742837644752985,0.45524070912232323,0.3662891182221886,0.3089576804503113,-0.04291688881975206,0.2522493913250966,-0.012247694271661738,-0.048405259276546486,-27.866252514583174,-0.023895658044284493
,0.018638872000799087,6.9359513487624325,0.07513328841758143,0.31953268016183545,0.16735400458933475,0.35236836275834993,0.2746138248675841,0.13946738851592427,0.04399821034624758,0.0911365187045066,0.07874366759523418,0.24780936327827102,-15.87228729526377,0.01937493466172758
,0.38199998018571757,6.77581904052807,0.11764805499482962,0.3819615406118948,-0.0871208367325096,-0.0007838155495477077,0.21218314570953206,0.1753756728190799,0.03288004289173491,-0.2586580996094002,0.8126372294463894,0.17574632362428666,-12.710321864610432,-0.04022058341083623
,0.13382674310980053,6.761377392303574,0.08278993113089901,0.2633537901528056,-0.19235213854019942,0.0025507735473707122,0.015807478477877817,-0.05245221390937957,0.03578442017632433,-0.35843305117615143,-0.046361405342349386,0.11103919345676115,-3.9001382644402325,-0.025535600543692933
,0.16941573276583297,4.537812266322347,0.12585039741458512,0.6880829118155308,-0.018708982046757753,0.24727152110889195,0.23497429274054613,-0.06740424182920864,-0.057678445433382054,-0.16765417267798052,-0.5599980738307793,0.1216372896071771,1.0887273972012956,-0.06895481256322947
,0.10609791797936959,6.050594554917143,0.10932172045463992,0.43272444574814134,0.3844939389531288,0.42359215564614644,0.35034534816075885,-0.14051280646989292,-0.31431819013647583,-0.11802370169912378,-0.2541443265825673,0.32728675518423084,-3.5369062246199867,0.010381432117458156
,0.12812686701261397,7.655865065093563,0.023018037104047578,0.49578883250142514,0.26103952658067564,0.1714606490762611,0.08415414909299986,0.026847279876857644,-0.3879201934960408,-0.12193942693229946,0.15589186076896305,0.3126583856307251,-1.8991550014464313,0.010939661160829107
,0.04754139448104715,7.6638399952818945,0.04472813742438112,0.42752092595142566,-0.056345327998664735,0.1700174753679306,0.11774267774814713,0.06586977784975127,-0.261338984835489,0.2023040441009227,0.25364855578702494,0.3868382294052572,0.9896716877693907,-0.18906324485316708
,0.2605669606457367,6.586881561517562,0.09508688255897062,0.14434857758613331,-0.432175792685973,0.25554267245844886,-0.036408605595200434,0.04744319689946596,-0.1541104206873064,0.07577034733719461,0.4599305494765618,0.2186575649712745,-6.836495763458501,-0.11926222979036212
,0.48215904142056215,5.25171098605239,0.0780702739548416,0.140063339710298,-0.09689493168420384,0.10411448691777804,0.1068466068520766,0.3303465021894397,-0.1832496287340382,-0.13810214977185067,0.31806606979522567,0.08040990495300163,-10.64180509731172,0.2815791106826976
,0.25172836511754304,6.0855262403065264,0.16835796896765476,0.1926360620959689,0.42330892748093135,0.2542397518450841,0.4888252369477822,0.2154408869542684,-0.14070244318897943,-0.12559052752039276,0.2802495197745544,0.045642331856710384,-15.702340751020131,0.18864625223438924
,0.16991873146740477,5.512682176681377,0.3123785680797214,0.10200847479615739,0.21974760866373955,0.11263153389405202,0.1023221411015027,0.1512252534560117,-0.4490288094782707,-0.2054831154501281,0.34794462811960314,0.1232158341355573,-13.346733929493247,0.17955075647819252
,0.28090267908639155,7.554900615706449,0.3302745894547492,0.23685427640093645,0.13267926892333423,-0.004374148014714857,0.015386985281607911,0.19606567521277748,-0.3337185282233167,-0.28172107145979863,0.1884995007807461,0.2026750820665793,-18.088756291158024,0.11744879264215632
,0.3297522219878251,6.6566529507173,0.284901869852614,0.20141467039832872,0.10403457127714924,0.49016619923859234,0.2441575922043112,-0.041601418235357596,-0.0018792982790604964,-0.25627829482518394,-0.15818115797088872,0.15193057996920106,-17.133178541466265,0.02921488331944828
,-0.0009784884760846494,3.9653131855605186,0.14428217327941195,0.33084096024589243,-0.024484021581612368,0.2724662146112775,0.24808358301931474,-0.23427933674751059,-0.07657560784178985,-0.28745198105767533,0.10846316591928519,0.08743099155737732,-18.40934156910392,-0.19953408441132822
,0.010399005866590639,3.2831991408498626,0.2666929076264757,0.5895890746061003,-0.08396057218786723,0.15442196528142527,0.33077435392230853,-0.0693591270839333,-0.22542049550114454,-0.13915960618921208,0.045340512455062744,0.17740804356261414,-12.779063389802701,-0.013046449124134447
,0.1520941987651655,3.731033470504547,0.27041343081808283,0.6303895648706197,0.20285309675923158,0.18250745830697276,0.2668133677654159,0.23810204396113263,-0.051154773452596995,0.033317368795487516,-0.23682331953539265,0.06353692382394889,0.405969189720206,0.14132130669097398
,0.13158991403888243,5.147433520000486,0.1971615708179937,0.3225620712679289,0.21955534507574181,0.024935144210699152,0.04595682042768167,0.3579576164017112,0.006805818292410857,-0.3209288022067523,-0.3117855257515876,0.03384136038545358,0.10114733748380964,0.2280189303868376
,0.250376895628512,5.3281733947895855,0.21093850396416827,0.3700069091276718,-0.10493294292192926,-0.12495445996562868,-0.12526924727160296,0.28550684841999907,0.026210320551638373,-0.32669899713611167,-0.049233645969192566,0.358116300921097,-4.186187795706081,0.24597774202699588
,0.23177116606881648,7.284942521253272,0.06274036308499702,0.1603933194234284,-0.08908706906922546,0.11819959535678681,0.2212653486024604,-0.03952654332904669,-0.07004893553736408,0.0795543817918986,0.4272145692103507,0.24866423748565558,-7.784943752919212,0.25358116705959466
,0.057119776272904925,7.772290645374657,-0.09497730759120532,0.3428580821207563,0.011839839482728659,0.17128864262683538,0.19914979417690315,-0.1766298401696919,0.027626905240972655,0.009487761057161773,-0.09872223863077687,0.12853243945639914,-1.0371134227320562,0.1535283308647052
,0.1948652764345136,6.8258475499799856,0.050069141419975434,0.19792264688134031,-0.023067151018948323,0.06424647711716151,0.27921851232814465,-0.1405093702743246,0.007226799361657008,-0.000672807306739014,-0.30590091997205293,0.22218552491696564,-12.888525136298087,0.17658789743999048
,0.24999069379475625,4.595611809857801,0.09646038141366224,0.16473166276045834,-0.19716891082806925,-0.04547184651518365,0.13363860503101288,-0.1270990277504158,-0.15932364862404874,-0.04041299316109328,-0.04669080734297738,0.2597818441958623,-7.528211481265431,0.05449732482925579
,0.21215781949168303,3.2679586948493675,0.10259807513939376,0.4540988125784694,-0.1058626417422273,0.24944651864640235,0.3020802117744017,-0.028027968848799562,-0.11822710310116377,-0.11699870004742899,-0.13352072360918657,0.1776554508892774,-13.631198030575677,0.10728601774540325
,0.3411527180859675,4.656355976861834,0.24102274572130314,0.6094320830591121,-0.015577205029161946,0.6621936779309648,0.6351760140959903,0.09176091146879467,-0.039408030124850786,-0.16585522741208883,0.0043875579704732446,0.2868899939466973,-28.497742227631683,0.32437105257076465
,0.43155534852641864,3.792292699804307,0.16324630700708326,0.47811265506660816,-0.15598165609266185,0.24655150445729013,0.6145245388771193,0.20612716313237153,0.18935042344005784,-0.10757694108802514,0.10016834790861938,0.07705832199917906,-15.911477854445614,0.21625659557804888
,0.20687555296353455,2.2882483666872147,-0.010894080030881785,-0.0579156060130585,0.05857150165413884,-0.01923851223540353,0.07721732371449862,0.09669186495673072,-0.12640995927659182,-0.12325936824256886,0.05980389813359805,0.01606681713006401,-17.201119907858196,0.22421455313521216
,0.1938842673951604,1.6799320866361525,0.0955518233842239,0.10865433588040255,0.19692444951792554,-0.0481856823948032,-0.01863976585962314,-0.056266186743036344,-0.20520779407821255,0.2027637152176867,-0.15772572464402265,0.21474749548410113,-13.503439940685471,0.17967271294171125
,0.36280975383685526,2.7296503601844186,0.22043656060979827,-0.0618948377633642,-0.22509097673046588,0.06699694803963109,0.08183794509491066,0.08849228732687271,-0.11568899191709739,0.1796512409336344,0.18752306390407622,0.3433680576386597,-8.888103629744403,0.1694641961664074
,0.17045029538569578,2.7365832272664696,0.27291814393695935,0.03246636711422167,-0.44262923018759553,0.42913722918241953,0.3742216458245238,0.1689722317234526,-0.0732670498150839,-0.052749350790551985,0.25430926840059814,0.251980616953919,1.5698771444929793,0.20728572326590453
,0.0856628912685106,3.6350407480707774,0.2670336601426461,0.3680331497897284,-0.2221073807294869,0.270762174379417,0.43602785856979864,0.22387061159194466,0.23152331536391732,-0.18844799132904708,0.19179614122775535,0.3331199618879798,-2.7191510471462266,0.110952082494492
,0.0671711119246907,6.417626403306015,0.15918894822831392,0.5363479120742691,0.10214511296511375,-0.01826967784141339,0.24628902564656988,0.24946896999789364,0.36345761620266104,-0.08459690448813496,-0.005970458324725944,0.3091426921133226,0.7918275442227101,0.07345779757735992
,-0.054868314154725796,7.54688881922188,0.18270825392207268,0.6168644568358802,0.16912326188604887,0.04104839602241407,0.4128383178744208,0.13855584728179401,0.2727481957547995,-0.0307275417746268,0.09977236428653107,0.179979530621888,-3.6180203879334916,0.16389033076918746
,-0.26682709802986077,6.259168199049488,0.09589150259501004,0.395623493966698,-0.15048989476945807,0.27677891282873707,0.5551749104826215,0.10244495891302384,0.2078076085575301,0.16496705129816075,-0.2184988088829344,0.4312989931463164,2.2337014037156164,0.27654467938489585
,0.07347919177329677,7.948453921479211,0.09324482240679434,0.6952274436506053,-0.22281621405954488,0.36090521593988273,0.3451028098902256,0.3052269606711862,-0.2194570057451424,0.22260002373925403,-0.4242398128151814,0.28881936667315306,4.578756176631004,0.11142871661359055
,0.26162089753651696,6.468652665920186,0.07961166770353748,0.654213254109016,-0.04698847542307945,0.12401949896694239,0.4763204049263508,0.03360019988360123,-0.1674540100784855,0.0989538168848662,-0.08031691170628319,0.13929671854637826,-10.10236793995247,0.18269753739448422
,0.06789006204414215,3.163856664890484,0.16036604012140157,0.13288556956921613,-0.0726715611963035,0.2881013840476553,0.4963241250054884,-0.14306899305776494,-0.0004315479867260196,0.036143549387372714,0.533802613625811,0.20453913465044138,-22.854786593744137,0.24031793206105265
,-0.12072674699739862,1.9515788922355117,0.1745718607802591,-0.2911545944918057,-0.13505801459655226,0.09083088602327724,0.17721661064039676,0.20682626011760438,0.11530661336085177,0.224498845235114,0.33085659583244736,0.23569866090396432,-22.783529891276295,0.34523974881720604
,-0.1384477938377267,1.3056388915543207,0.23639515504866046,-0.12494221970424396,-0.024164051421097923,-0.26966324292549765,-0.08919690452795177,0.24456305460745664,-0.05646493884291601,0.08167205474091238,0.46597658498377925,0.223703108512594,-14.582598472526872,0.20603216883632053
,0.021567696664252366,1.6057136635182385,0.21513407458532738,0.012916336805466581,0.14299447215897132,-0.13559499164224073,-0.11244201055379853,0.23065064296545146,0.17333879117959317,-0.2910994765013038,1.0129843883771994,0.2661364465905734,-17.280800183753968,0.09463400804215406
,0.3357725422347857,2.0417055894944753,0.2399297742160428,0.03798542929433841,0.16489815762445303,0.21333035499075342,0.16647082101346522,0.2838031336443648,0.13330426154374478,-0.21341026788894507,1.2679877591249409,0.18359795033442836,-15.94327031565817,0.19754699901624106
,0.38905328930421645,2.3538381201084,0.35773659863438984,-0.015867114841016352,0.2046288776038597,0.26092442175294367,0.4372709788687537,0.4260307860476052,0.06594918221068256,-0.1642106255432573,0.822959916141591,0.3088656198282405,-6.7235275001134065,0.2571257632659871
,0.1795777747067289,2.8997761773061352,0.1850225560995224,-0.06494964927431468,0.12421118855037143,0.3424152716893479,0.3347599594306011,0.05395180147070875,-0.10868240849631057,-0.06793255997189776,0.19894483126701704,0.3891319890575118,-5.795468744669871,-0.03456038646671713
,0.22766518100345176,3.6845602521645735,0.1901570192240038,0.3790181982571154,0.06707903009321671,0.17084906177623754,0.1133872046274057,-0.05769821729768894,-0.09047981830256104,-0.18634881262352454,0.5438555029140338,0.24156046709448883,-13.539622997796474,-0.02433122940328369
,0.29954088333842477,3.139404465074265,0.0648896770439943,0.31422009419153674,0.14519555556933375,0.09194620844058622,0.13756865734509888,-0.05544738120529133,0.07696700435356191,-0.06368957399052141,0.8033916053637357,0.04657184653610452,-8.396388524655253,0.002222395530392254
,0.18806735913202552,1.9565125229493963,0.08769338037950397,0.2812803921731708,-0.03215500740315502,0.07695859447054179,0.267501476730149,-0.08317717062201821,0.14222892134025147,-0.12287790923724831,0.40069662200106626,0.2531259014219319,4.493916382136864,0.07227783914944626
,0.03369147640077657,1.905631290838581,0.15043116697454093,0.3366128601889759,0.009445863061447207,0.24388079847385244,0.3483449171824051,-0.03274679902865878,0.14355551344063752,-0.0019561085119706896,-0.13182321783439538,0.3380569449684888,3.9075518401338902,0.29858388085151855
,-0.012505150827092705,1.7928046612815909,0.24953929743224598,0.40483880950697343,0.031438431468240643,0.27969327606845396,0.22996227455555576,0.153751917688361,0.013972695120608298,-0.25263023084605163,0.12385754226738166,0.3073617426972448,-13.781815492028569,0.1824084001228008
,0.0711708494965508,0.8558243375412098,0.23838246352096776,0.21647037441426661,-0.15524902087889558,0.48739169326836934,0.28472035664004564,0.08926884376776116,-0.07140930502900004,-0.3397763182701427,0.05558552032314537,0.19863801854771657,-17.397631691780486,-0.04759508394327503
,0.16430951158291932,0.8348863609365379,0.06859657935817991,0.12992841798223884,-0.2667266913264237,0.5476757121015098,0.3131771027675065,0.126438001711108,0.1387978590313978,-0.2627463656771814,0.3928634275203437,-0.013290633489301703,-1.9262647516198081,0.03118617325002637
,0.29684736286764224,0.38345791510239513,0.10445276037589478,0.015074927402006319,-0.156324296513083,0.32026511071760694,0.2504380042412161,0.20832771498875785,0.3370565984413335,-0.33149348878603935,0.5990172596943889,0.24448335407286637,-3.7291016246410025,0.24595863193435966
,0.21865021163991166,0.0401265047988124,-0.07722543171943204,-0.19393592604519055,-0.06707404312008931,0.18999102136207394,0.07222198257071445,-0.09016032060195141,0.1054098257244856,-0.16132666231090098,0.6922030683471535,0.3756620052978331,-5.457790589531568,0.04622008080502327
,0.19972644247640933,0.3728607455997733,0.009119871185004664,-0.10646080801745503,-0.2478845753575102,0.31613436631721475,0.17572016736600088,-0.20624832849332628,0.161141551515405,-0.02538361192419579,0.3829024381192171,0.266050127531844,-3.4412091965107923,-0.0008856963374126176
,0.2643543515699968,2.4078376450979335,0.029070344346287195,-0.09501141399841273,-0.052889288671649784,0.5146670366410862,0.5325132153438296,0.028970524787739992,0.01855459075794954,0.12208397242993997,0.26733602037580045,-0.01759736464826159,-10.252037860363624,0.18652849254074447
,0.09541062066317114,-0.46853302819839215,-0.10960310244284542,-0.2179547526532666,-0.07294928241793776,0.27979684836735436,0.4251576971697121,-0.08415118614788314,-0.050258878692719444,0.07946026903325334,0.08292554939801544,-0.041381038462984736,-8.98562261070432,0.08017872123619345
,0.023020119520744235,-1.09623080700051,-0.07006139997608085,0.06265245405316011,-0.18857786349816244,0.3303761845146368,0.3284214825462991,-0.25546979512805673,-0.05849596269588482,0.025543473710910633,0.010967174772643902,-0.060904955697287204,-5.727767826494947,0.0008915516471422373
,0.11837536599441295,0.47502030763726016,0.22916268897110034,0.23026937843160245,0.10860319068969548,0.1110036463787108,0.4096675196023313,-0.12704527123530615,-0.023489291875553646,-0.05431662307364746,0.41834514917502896,0.056688224300629954,-5.563320206357027,0.13014706271496618
,0.3417879791853831,0.08557771116179742,0.10510373054777548,0.009194007621157789,0.0006947786347436694,0.0798910525730148,0.32161325125113255,0.035405429467585924,0.027028437169559313,-0.5149228430087217,0.07126549681230146,0.1158863207610459,-11.93390665398463,0.20143024092860784
,0.29583132341681007,0.20347561965622885,-0.06924592932613002,-0.40523023611105974,0.02895986147153578,0.28271414485764496,0.3954667036487681,-0.01458247589284049,-0.13630358215810584,-0.4677725570200591,0.10656575898098872,0.010735230266322674,-10.462697113125557,-0.08545391770756079
,0.4473564138427768,2.2140024740216804,0.10502263036438324,-0.12621864444212252,0.016512973910060267,0.2362514609427118,0.3242529052752336,0.10891148265407559,0.1006650919478354,0.007197169346326461,0.2940297225761025,0.30168421327226147,-8.949826439220063,0.015406147384227726
,0.34450175300554636,3.012598161768009,0.20097307158094976,0.27337899452803993,-0.046982471166009246,0.07774370756751191,0.3051552697128672,-0.019095042191159876,0.004662999680668853,0.03181781741633015,0.10606542521420753,0.313663048847159,-7.913645854904313,0.1060899592916332
,0.20598937931126998,4.098265968223732,0.1978459134971265,0.5898985543424866,0.1501075585023883,0.1069885081798254,0.3117603066794889,-0.023372217028119223,-0.060594132106716124,-0.28986303829670007,-0.1767274017732261,0.27022282441212064,-14.468352818948837,-0.04974528810206421
,0.329210744906298,2.5635806202512246,0.13479386792778594,0.27084864668390835,0.18253966510114497,0.3201702239545013,0.3183614978912067,0.15834251507426517,-0.053403884664157054,-0.348119592471572,-0.13169761624573162,0.37092724505446256,-17.347612927890005,0.1000106322383322
,0.20630095973300316,2.1046122528283417,0.016227164320478167,-0.01354426418981833,0.3551660757109568,0.3325807956295245,0.17703646635776563,0.2727436021115044,-0.12620764801365594,0.00604989770165805,-0.12420233554175628,0.1972373954035692,-2.2715090376367852,-0.06774078450736827
,0.0640304985333266,4.136026113435049,0.15200489581340934,0.2199184252669989,0.3962741402727095,0.45720103103076565,0.21814375729224822,0.08743500253537197,-0.11137152862470669,-0.08402937615625666,-0.14606530565480744,0.17397132268986565,0.13591076050544282,0.02291446040481048
,-0.029974984996852264,4.488407587631668,0.24775223277154743,0.10218321663617175,0.007228006740800845,0.4866702857339888,0.11901658775270758,-0.03175042161498112,-0.010704391826969318,-0.3122839400718317,0.17630267767128713,0.4382110010845533,-16.071801848428347,0.31257585647517633
,0.18360884211464706,5.885100404956775,0.15138356617988974,0.23345755486683978,-0.013096663147570565,0.40118496275041443,0.08182710526920907,-0.12292986118435656,-0.04172266597525089,-0.24259499051670427,0.342510941742613,0.12990713187839567,-4.673140775910171,0.0012013237281935988
,0.18645883600301313,5.473280281592789,-0.015567106619538225,-0.0671186061818249,0.11977787922169224,0.3877895238737383,0.16646702396001825,-0.12049030435843301,-0.30240594109836616,-0.2417985177229866,-0.08187885755228129,-0.041671705707356815,-1.3572418615904949,-0.12479442034829014
,0.15346189958486,3.6990669942772367,0.04171888495158851,-0.22881370014835,-0.18300678449400723,-0.13133139211111092,-0.20522732621329787,-0.2870909579579694,-0.812101572480191,-0.6679291068142371,-0.053433998067662414,-0.09988654135249384,1.0176461660918288,-0.14055324366478003
,0.09424909366188526,1.3812417445048826,0.08545575383803129,-0.00010332306186197834,-0.3049024494527608,-0.2421119060821324,-0.21081052212285198,-0.4534753694410253,-0.736578494599471,-0.9384092238609479,-0.24022965754281012,-0.27541865299357454,1.3691142369131866,-0.03820761331061519
,-0.027902835408226554,1.2586013247345376,0.08143197047649738,0.33072384992881715,-0.05910310113455112,-0.05081819997098617,0.03407585407742602,-0.45645050248999547,-0.7360275541470988,-0.7410286739791985,-0.002072371935289045,-0.10123772507686081,-14.603724740755439,0.03736940011919254
,-0.06119457531533931,1.70697336936757,-0.19534371145767013,-0.1341287320262457,-0.2975462446611963,-0.09888640632657415,0.19510350857317885,-0.8319012009186738,-0.8707782315449721,-0.6259954748617478,-0.04348005197544354,-0.30564741917729776,-3.2288221609792784,-0.23383092368096434
,0.00011644661265057649,3.5469681452081487,-0.4082350967791761,-0.17649973111807352,-0.4157470705880688,-0.1367532618119343,-0.0469577594131218,-0.9446858519050145,-0.8636379306573568,-0.8448111263913869,-0.23810890660862363,-0.49077761814157256,-7.789417713798271,-0.42087928395313934
,0.07320511585984153,2.0875476962002377,-0.11279571721345381,0.0800440519676733,-0.010513033362484202,-0.10713778368113687,-0.014370105378401913,-0.49816700615127424,-0.5226604605317847,-0.5271451925548148,-0.5268344443127063,-0.30735541745260003,-22.66373692111953,-0.26412511748310563
,0.126851239293274,1.03070279364473,0.20248547872436296,0.10529266097632808,0.31387146565806695,0.03509237553931812,0.27629970610740096,-0.085711094960563,-0.09242577081115241,-0.1586023664933985,-0.004515109943067097,0.06720837355406475,-7.649706527964539,0.1104043634031707
,-0.1798495322975289,1.1614257894400588,0.3235061095699155,-0.09501211644105145,0.046576601275079385,-0.0846612829137771,-0.014370744555208226,0.047182473070493135,0.1388925894586235,-0.030797924595450922,-0.06334643676303096,0.1679197575186773,-2.777853094011407,0.14322395086532605
,0.043409806058228764,2.832106738025583,0.1829136331233053,0.04287152939767562,0.004182891499852504,-0.050919992844222474,0.013552224504775083,-0.05959239142266622,-0.05531953689839478,0.09347079692688479,-0.2997443899291679,0.1707229134286956,-8.872543132117219,0.23955956118457308
,0.385842916176515,4.135702913030606,0.13255970714667953,0.18415303359712998,0.07370071179821762,0.15251102918674792,0.3928425330484585,-0.1742375819407461,-0.2380445830134651,0.3616406399552249,-0.046889513206227924,0.3441629020954707,-10.651243748057526,0.22600321675651652
,0.24645073884421576,1.8498596445083109,0.27222762510052806,-0.042398551751029336,0.17626659449443294,0.0653504540009065,0.27420274877265266,0.06783195105996168,-0.2168013626524809,0.0359405952353467,-0.4220232869374867,0.33674635975078,0.9916570246635296,0.033758145091469315
,0.28977446500525783,1.4056002279912772,0.10294981208226517,0.0646890794521546,0.2600295435863996,0.04605629136160091,0.16293889765136868,0.19170661162769334,-0.1765310541364962,-0.12071446173141036,-0.3509718506471189,0.08855625521251073,-1.885304192640351,0.050902875008152756
,0.16510028220864204,4.765046102494135,0.0426444976960642,0.24991378067691508,0.6130111194297672,0.3136039572628235,0.2653210544450645,0.15973565246245866,-0.039273080524748136,0.15104236475317787,-0.4295163228921444,0.11832765390666306,-5.476901361974681,0.08367941934128881
,-0.01991027009376108,2.951164551368464,0.08204226827321774,0.30969766537802385,0.3498492459205765,0.1974560686592503,0.061256391885497724,0.09859268268331793,0.08981535241709306,-0.05989339783745625,-0.17741650028513303,0.14132411422757649,-8.409670523620532,-0.0005284781313735969
,0.010800731592909694,2.7659304574915082,0.09728509666023837,0.10565059735280317,0.09656685293598558,0.29944147793698755,0.12706767414482242,0.20422788656781768,0.2125942525953875,-0.12479433554356727,-0.002960823540791186,0.012072362482264795,-18.02289664250641,0.06112324416879622
,0.07974210156314877,3.952666523266387,0.14064515682961617,0.09160896786797673,0.10780251752373562,0.4983460304570564,0.10847617665636111,0.2021558375892971,0.23558749200684606,-0.1738620638670203,0.17549508173514644,0.089697869070173,-7.848773390316539,0.10442401076107281
,0.09996118394083836,3.4954853436094657,0.003915070717681491,0.4801910063852347,0.4190625802724029,0.5639773307739285,0.10318760254563927,0.16271323638670662,0.21035317790349456,-0.03496518006080681,0.04082664999029719,0.13781493295021238,0.9133448920402257,0.048630419557893656
,0.050861604062525045,2.188173898939812,0.17974593862949279,0.39786268486780973,0.40882629430088646,0.5337412686375704,0.2621820244230376,0.20999593745962158,0.38250003786312614,-0.004580665564856763,0.2959352737100903,0.3370671805395282,-3.8838177838534604,0.21261895273333806
,-0.07734241788535766,2.999494604056632,0.2432654736185332,0.3314676760798468,0.10570107223035329,0.32397572867935515,0.2611172128699613,0.1953552777748539,0.14195093107112322,-0.09091070419742686,-0.06119315057402483,0.15518462289406557,-6.917995532522299,0.38932738488183233
,0.25829605165768194,3.1216785336818624,0.2308254274209445,0.22193599927256286,0.3591608963208905,0.17868773989802283,0.2239716293914964,0.08061868467355565,0.03341103785106835,-0.15297919860948858,-0.12671720788052432,0.11056097381837494,-12.077740062848521,0.2665364805513516
,0.5458607909310058,5.710621057916949,0.3605483283880468,0.3017479892537325,0.35245283585837994,0.14100606297125154,0.233069810453766,0.0072234105251315905,0.12310956686838674,-0.032081233262263184,0.1623070178442919,0.2687442462270921,-9.972436366476144,0.21879497851123078
,0.3512248983455038,5.991808893061967,0.28873973351398097,0.16173597856842012,0.07296525501065486,0.4248170945675608,0.14793867300185012,0.11832184427093748,-0.0008440392689043766,0.18320121742894585,-0.14207532415190421,0.2769517277392346,-4.145174544134473,0.1493060244616572
,0.16192756538803948,3.724020792391844,0.20084121858303652,0.13041785628291505,0.21726105444632582,0.20470913449559397,-0.014707249638003106,0.08116682465167621,0.13203614580044326,0.14922725140975612,0.005546834553623064,0.3548806392599243,-1.0993159123999905,0.29473116134391864
,0.39469490495054893,1.8723317573771623,0.28735179622304735,0.18699468231338914,0.44027913036325683,0.13658519579361317,0.051935564836664706,0.015624499117113383,0.17498751567779663,0.1587993156428006,-0.361276372295686,0.061915846958349445,-0.11821977953771799,0.15038533582547534
,0.46707216055711054,2.06968009080152,0.2767179473308768,0.5262958490357708,0.24967465639779002,0.38882483248006916,0.2905679924845729,0.18303958407220894,0.061359167949595964,0.10986998650207666,-0.433166932204276,-0.06853495005915168,-2.8492037958880414,-0.07233481173904208
,0.2746824722960901,0.4728550278591288,0.2872273008614681,0.1407683468493232,0.024264530920660943,0.6151430616733277,0.4579047596861678,-0.003083518790677867,-0.01354875285051178,0.04132137320671664,-0.2749409683593283,0.14728163036926717,-4.638567194517083,0.08542931927402089
,0.2473484601692298,0.6462547921832591,0.0397236139685727,0.2420074507949632,-0.02251157210107129,0.408570559924419,0.3054610670358426,0.018882349226281826,-0.1296066498755328,-0.030412932723046092,0.04947005883031022,0.13574129147222955,-4.914798917804805,0.12405471497555547
,0.12207999352854353,1.2287379260388154,0.1510200067376935,0.3375217803555129,-0.018666237781987775,0.45336876351838523,0.359830295634243,-0.007448010668548135,-0.05110621170120588,-0.1861844314964398,0.24946480610322458,0.30487161906156746,-0.6213030268641431,-0.05089570913413183
,0.2802041955845981,3.205888607666225,0.19818212718112516,0.29340510199047976,-0.058388600336067076,0.03432272806963198,0.3545706358295795,-0.03640279940525311,-0.03130571208056039,-0.22375651071696065,0.18963078791439114,0.3919619951835457,-20.281611042628242,0.038171286884138865
,0.13923613140650903,2.664221908021847,0.16438679248399507,0.11615493499270273,0.0272631007750258,0.04229705765740138,0.3394596751039628,0.05576852891146855,0.056626015237661635,-0.49191576606083537,0.04032892086552259,0.14645977884512473,-19.44794993568264,-0.02499440193353712
,-0.1328078490635801,1.3555875793658052,0.07371142109254833,-0.23350917703099114,-0.029790877470812587,-0.15255391281198258,0.2649479126348772,-0.09260212715582972,-0.2313000283920133,-0.373730936608699,0.021206465793986527,-0.02597976684673971,-17.134820752031292,-0.017729923427518834
,0.08100356707804814,1.3450681571398695,0.12155391300572206,-0.43655688960569367,-0.1068001417630049,0.026396013913812476,0.33135370207699905,-0.08837933520610945,-0.3070112851472681,-0.14545907212088055,0.00025037814488720737,-0.04789760217927613,-5.584663703059987,0.034430990275440054
,-0.1315291723755933,-0.18910881222335,0.04363063824859761,-0.08629032524214549,-0.1527854008109197,-0.025717354839060617,0.10378699778021203,-0.14206696906629962,0.02005378623560179,-0.0651085990185258,-0.209584286645928,0.0868122171160162,-0.5875368948716457,0.03241066123672059
,-0.47971204190959127,-2.4057236619973343,-0.12730420530555087,-0.060868903326111855,-0.19131044219180582,-0.24844482801171117,-0.19385621314766044,-0.18288603982644697,-0.014436735400897707,-0.0011742653281777405,-0.3622318189239386,-0.04969465148336234,0.7635799296415157,-0.15741810183601287
,-0.3807757295200595,-3.0025414114587385,-0.3388118985371424,-0.2308571213424288,-0.40262979220735484,-0.37108047307361164,-0.2791491039127591,-0.3305339996480204,-0.09397852417470273,-0.25608857578085265,-0.32999996585107116,-0.19035076691232447,-1.1999896196228084,-0.3005713009521954
,-0.1794923147890998,-2.087049866513101,-0.10178590255882272,-0.4067063804891219,-0.2606110725553386,-0.27178640401065435,-0.13722829976122258,-0.12537928112483748,-0.014083287885667917,-0.3716596207616041,-0.21969023367658627,0.018226915111494605,-2.579347711848632,-0.013233485872680141
,-0.22758104628072687,-0.18556817415140917,0.15450164744519523,-0.44143154769073745,-0.23422400133481563,-0.045560707769746675,-0.04789336715989422,0.1806625765294045,-0.07059879135172505,-0.1768015035967614,0.032404919761859996,-0.08406192321180407,2.6203884080847044,-0.02071433869008052
,-0.2784199638700191,-1.442159647113273,0.0740645720659828,-0.03365494567309773,-0.36982418804185835,0.12874140696929792,0.05419671675832405,0.17123821425525543,-0.04155612468265723,0.27333985835842534,0.4516776670308803,-0.05089780085095513,5.6830765527347875,-0.1461352199283787
,-0.14117055027755498,0.0978738308519505,0.010008116789953841,0.18572534635048638,0.02923839022981233,0.16338275281736822,0.14917586954393597,0.13049639499132415,0.17979826860602605,0.30369296619892727,0.2774444941007592,0.11434173091537625,6.4363140825904415,0.21547350955502137
,0.046038871384388814,3.622492524943203,0.01656198293892177,0.19333739112259843,0.14916936454184657,0.2181013549313539,0.44757831512030993,-0.034077553297862544,-0.07891991263683328,0.013270693283498449,-0.022506789272569532,0.3247509606677633,8.309150780526307,0.3533723906171742
,0.05544049484511644,2.584484651011165,-0.10234055282137611,-0.090252467045577,0.15803025369180634,0.20683911477164543,0.6087384728668163,-0.045305421669455566,-0.3156145489830687,-0.1828066418838676,-0.049902345786990286,0.14808145194123176,13.573967665783304,0.2940804838287252
,0.14963243110707486,1.6204136152411954,0.10403379371556797,0.23983300595891893,-0.2916741421015267,0.09747386282330897,0.38984391658801226,-0.3363250055829906,-0.37886296612176995,-0.11995218315129112,0.1708246005106772,0.009354719116316046,-0.3623527572633233,0.2686453098071326
,-0.05054149096107692,-0.6380981279233631,-0.06481462270248439,0.30906222408386935,-0.8597606825682613,-0.055471848257269266,-0.07897960259165783,-0.6860449048824608,-0.9706007156826465,-0.6030423470906147,0.07980216724815078,-0.27580815392209324,-6.822119062724685,-0.05800141481953428
,-0.20777910530665494,1.301138715627007,-0.003137442925950257,-0.10017591315695862,-0.7393176262161086,-0.10659962969660182,-0.18430988628695116,-0.7546543227746387,-1.0902198126680693,-1.0453829402740826,-0.4102548000903036,-0.2919682374680874,0.5130767676051684,-0.1765748438465918
,-0.0550255991155417,2.6544697555463994,-0.14871134164343008,-0.5936842451019574,-1.0067054475550745,-0.08572269470912923,-0.1001720854066877,-0.8510725225897817,-0.9823530652037502,-1.1079969163623757,-0.2538422378370293,-0.4767206714306128,-3.5465260761453603,-0.12222890633692739
,0.11607235480679408,0.8950401844520312,-0.4380363631758461,-0.8387808639375369,-1.4433628549572286,-0.48897768225853916,-0.19996423639761798,-0.889622522640034,-0.9309698152092736,-1.4271303422376391,-0.5270911076731296,-0.6906061984460757,4.425853221204064,-0.24613054884292931
,-0.00607366372022355,1.8514591971587246,-0.22948498624438773,-0.7745362103494833,-1.5673390206171711,-0.4112261123760761,-0.05866314427774254,-0.6019134066789436,-0.9353752847578625,-1.3185916729612286,-0.5447253758437689,-0.372751187848983,6.16160290294546,-0.196991225294169
,-0.08019952074193172,4.698256816571085,0.16004338278602934,-0.22749109824992342,-0.9553322218797502,-0.3314915024183174,-0.24681621104540205,-0.22012509366720603,-0.6969398481062793,-0.7693581100251481,-0.30181958192970376,0.13975042704931756,-4.854920493930824,-0.08113134012680973
,-0.05850599152833776,6.435340197005658,0.29539579157826545,0.25018054039340115,-0.1200625991007727,-0.07643617224375399,-0.18233287247665922,-0.31544646584539443,-0.5714832747868992,-0.6076015871559584,-0.3855098812571722,0.012969072990591963,-6.054291891733877,-0.06619509578387306
,-0.17715197808992028,2.7156626844297214,-0.11287981892528,0.17619487066347583,-0.21576468064067292,-0.08707699479735272,-0.06162097682583008,-0.9082956446924818,-0.9450336439154182,-1.0164400939189395,-0.8119147559898159,-0.5134217795655576,4.07921638101857,-0.21267856462389312
,-0.36379820342903896,-1.6298908837702433,-0.27565276538759337,-0.3516467739246073,-0.699436812106683,-0.22392587792189333,-0.13528691185678177,-1.2120623510911073,-1.3582287878387436,-1.6164245589673947,-1.3931940420777085,-0.8771597061492598,12.977060081024153,-0.4865204596074163
,-0.5836560373799429,-2.714870900119255,-0.29072117862420294,-0.46806581489483023,-0.8416227315137527,-0.40026895719020866,-0.2775965318844043,-1.2339621518328894,-1.3155014340253843,-1.6691705827135341,-1.5805315301038143,-0.9584515826418839,13.860262439891473,-0.6552294701195481
,-0.48283564811823715,-0.758988317404066,-0.05553781041195893,-0.050371407181609776,-0.49880953250544346,-0.22846570952289774,-0.19554419480680293,-0.9488674602181083,-1.15521200061519,-1.4316813483139967,-0.8882191908127197,-0.5279672744910563,-6.626384877010004,-0.21768257656160378
,0.060760126805291324,1.0228042472432675,0.1557918845642793,-0.08925424727883467,-0.2746578434176108,-0.19605788121229795,-0.11254931777472278,-0.39425176556590175,-0.7558918915369873,-0.7233608004940886,-0.35764183408625844,-0.060510914881810804,-8.755017389532227,-0.1776379519953437
,-0.041647172539515886,-0.5019091875125437,-0.0886309370350496,-0.4265811877458472,-1.1856629239672865,-0.4486108522180632,-0.0037443342530102653,-0.6617792703546453,-1.178263391519673,-1.00105244072257,-0.4094653023700081,-0.4403090749201687,-3.061882457190429,-0.1862786160922263
,-0.07489576999462942,-1.343854596637319,-0.46815679760539475,-1.1072668101437804,-1.4289371414955485,-0.6237631216585653,-0.18598862221050225,-0.8962196655701088,-1.1879039104081712,-1.1834574905966038,-0.6284465254889181,-0.6397541351162935,-14.298758784725667,-0.3220482435430334
,-0.190597162928997,-1.9155606162969778,-0.4123796313317046,-1.1010434789183616,-1.3167159807819728,-0.6922084128036707,-0.14722992771286342,-0.8960291520642374,-0.8684292719900266,-1.0097520232359782,-0.5726489483058266,-0.4919644831007004,-14.843722721681354,-0.26231414720397267
,-0.16140929831487635,-0.7358185173818653,-0.27975145877855073,-0.721203467147983,-1.4512596691112531,-0.4495795371187256,-0.11540866480743725,-0.4919015270153848,-0.5888299827885582,-0.8334683424397752,-0.18130840134757384,-0.05062923126554932,-5.7049922187110695,-0.09091111150286858
,-0.06311321593994897,1.742814520111513,0.05184749759337451,-0.01635582013237653,-0.9127982339449197,-0.018201964289394565,0.1038456902285757,-0.05357694815142143,-0.29961410092336266,-0.474945277503443,-0.48162261392341343,-0.007886845595896926,-4.967678891997893,0.050713637499359844
,0.03557545309273208,2.0251879779136743,-0.024308293363212274,0.30663518719398386,-0.4826634923198765,0.14156725402614573,0.00968030656933736,0.08259623944197188,-0.14415449102071115,-0.33889891266281214,-0.3094160280201365,-0.06085228954085946,-13.426122190281546,0.03894227532475853
,-0.06394986752463985,-0.9107067811662248,-0.1475473266887854,-0.13486611624842085,-0.2034956470093732,0.20383994981814543,-0.16007035746205223,0.04464916097806724,-0.01276298235606121,-0.17970924955062648,-0.31101343519523583,-0.0737966403880145,-6.625821863762036,0.05197188787974844
,0.17384686622435586,-1.0513510408491833,-0.009510763982395738,-0.15848111669914405,-0.06068811968910762,0.11559959250827691,0.003071854912317546,-0.006267451718300075,-0.0009383799959833196,-0.2824935447724656,-0.14295038391520748,0.01903104193724104,7.2641970088615775,-0.06484319639541383
,0.2279296753577576,1.5477228659281406,0.1745516804297835,-0.13311212087436425,-0.03403866392508471,-0.042542014413350836,0.0032391929339976784,0.10847951957058784,0.025912715965152322,-0.1662488878520568,-0.29942665115106454,0.07557573552240576,12.186336010730543,-0.10638509824898139
,0.018638842493922964,1.1043855725137721,0.21384343688074006,-0.035249104425266006,0.018143751820690647,-0.23210779400956758,-0.04556444016429043,0.0018245529991671445,0.05896831195816715,-0.09483102747990418,0.5507076639128302,0.031106220348661763,0.5252346401105633,0.11966546180301361
,0.018972209145936496,-0.23346728615369117,0.16223288914741327,0.49061452870356165,-0.09796775770473458,-0.031026404275380413,0.17985635349050377,-0.06674232182087259,-0.24590445479613268,-0.23866245678432751,0.6574540714228047,0.06885503440888363,-15.959421053333697,0.1546258467332335
,0.06662008300456285,-0.4903590085559477,-0.035555527512376166,0.09406563112526783,-0.10438896987360369,-0.15691422224370025,0.09844933694599106,-0.09561093276589736,-0.34696868555062255,-0.14439939207299501,-0.033378730647822714,0.07412327912822046,2.0742401985151564,0.004337554826272789
,0.14676921994569705,-0.20826783480213013,-0.17624127219187755,0.07609318669948402,0.24980304632911904,-0.10140176136031614,0.11550204590619623,0.18601626496924184,-0.023447723011353994,-0.1542412369952081,-0.276522250510529,-0.023606960474304634,7.654334538979254,-0.14566134576369305
,0.21848510791171516,-0.7309004254434703,-0.012973921134779631,0.3500398302293358,0.24007862344816958,0.23820529660370174,0.19073043263038822,0.1381735316056792,0.0033174916822401746,-0.21554711700090873,0.21857273071225347,-0.019462067920890974,-6.799084011905191,-0.005730010179656154
,0.16824043173069314,-1.2898475987786362,0.2175217640844457,0.19638429303861718,-0.04256946806516202,0.24975042043807713,0.17106238335942775,0.12356772492439547,-0.17441493335565197,-0.3058110576770314,-0.008260575582399945,-0.09633814993074422,4.922920436657221,0.19355695207403278
,0.20516489770044155,0.6958222491841861,0.2998047060342302,0.23244120613052902,-0.18858511382877405,0.2168778280029656,0.3186298293862457,0.15156712634478378,-0.02909578971075955,-0.35258025846042973,-0.03491713483611589,0.008334875961232877,4.737011495054463,0.11297377171019553
,0.10942220641606674,1.1730693952242741,0.15994736962193892,0.2634086895909725,-0.1415225465044266,0.07951397222781,0.13364412305532775,0.23060921093470665,0.04810798801225461,-0.0004429065006395912,0.13821856687215778,0.13643628488990092,1.6184515196107687,0.03491053660339172
,-0.019988308286426948,0.8090825162115697,-0.0527306700982095,0.17991507086019248,-0.16997285948015312,-0.05931747956142244,0.05067499089782299,0.28103879175068214,-0.036236749675591456,-0.12458163633170212,0.33019885954034633,0.04224800190455712,-6.286315644887861,-0.24235510834354573
,0.20626783517882205,0.2128539082724996,-0.012132430824581118,0.11304256376744216,0.1566012033810592,0.11235647996004734,0.21053473586749813,0.04848894971173815,-0.02276885488098972,-0.10814945162049971,-0.18092650286308437,0.04030144836217308,-5.8664776143476,-0.11067323587732854
,0.15122888637041962,1.9858696251667396,0.14965983788108805,-0.05018396851322282,0.2283081779709379,0.31984398624580823,0.3886961784759118,0.07410058588697555,0.04057502751976809,0.030998704730938496,-0.285423265716924,0.15120274951570836,1.155742951168636,0.08387163577675867
,0.08855059939072896,2.128383866946858,0.1177836698229099,0.39317045468267625,-0.049131772830719636,0.6266582789160023,0.2863814177731025,-0.016091728357874212,-0.027833190362577354,0.14696733305488272,-0.3207619041683483,0.01732816340695359,-5.838851116765305,0.013066363254475964
,0.09825939887070523,1.311761394058967,-0.017243996960148333,0.40457186843352194,0.04320678628803764,0.2875726518653729,0.2403127634312749,-0.14778429263628026,0.021485295092997184,-0.03601612834615081,-0.02080233445883072,-0.17107124620386355,-5.471910770800412,0.10815174253138937
,0.05217046243739507,0.2856665415350549,0.055381380620208975,0.10756893109255007,0.11858658384790541,0.24034009055652916,0.3662771152534699,-0.05568084872040314,0.12240684522291526,-0.08303113027993798,0.14039909520810812,0.11312902712633661,-4.344747612756957,0.05246669393739452
,0.1241624598059325,0.7977048259855488,0.057856031072726605,0.2674196324981125,0.1618089743879254,0.15622229255062475,0.4337429912527523,0.1284526306298525,0.1040044815685147,-0.1417918132593078,-0.4002847522394264,0.1315462763348977,-2.335487758247137,-0.08831061485605339
,0.15819620870669757,2.8524602469774383,0.051076104177234134,0.296868098625474,0.511826457929998,0.09661960032785925,0.2014036893913862,0.10234598204837317,0.1262207685564622,-0.0983043321493129,-0.37634162606614324,0.0027553343279599074,0.5616071078781754,0.26492437215702236
,0.2473446296094056,3.1363973540544823,0.04366721233423495,-0.07774581546967642,0.5889640092755283,0.041387228582216086,0.006895317373757021,-0.030459243237484158,-0.08109086830521044,-0.16843756903024365,0.38063812573832423,0.17866491893335967,4.898515271947697,0.3361531140537454
,0.39469259897378395,3.365443055011697,0.12092917234714669,-0.2706854488547637,0.16913823581448048,-0.13745980397648977,-0.16636728918431687,0.04089844201318398,0.0030213642144377327,-0.3318957965541505,0.08568797535647334,0.3105939681048977,-13.667190740061393,0.07532108353803431
,0.13080828558438534,1.9896774847546823,-0.0010140382051769144,-0.43182007738908706,-0.17292981825213763,-0.40544280500576,-0.42424631876197766,-0.019217105449325887,-0.14635066647850617,-0.22954939766421875,0.04907137288217332,0.3173971700689703,-5.694899306795426,-0.00794938893469745
,0.031199962420846914,-1.040633717928514,0.062328310393136015,-0.48415802325165014,-0.36365765046783644,-0.13388601492539448,-0.25883137110281923,-0.12998563043378725,-0.384812840942998,-0.2818605697138744,-0.1778109209838452,0.16910857977487054,-5.949600392763845,0.10891793221312371
,0.048861660257855814,0.5174455345021237,0.2803458073319937,-0.16250734050302118,-0.06636640550949167,0.13853764538253666,-0.04425703743984896,0.08558932289931163,-0.13106071939783684,-0.2168137864291117,0.0041019522096170605,0.23610876774837153,-4.002198736274733,-0.05563624870610872
,0.011040593550006462,4.75619273303373,0.43630176750479577,0.027467276670128497,0.14949846377098755,0.3241564681302981,0.19414135147500347,0.11929048794473243,0.05533158283967636,-0.08573215119458998,0.06557534921395632,0.44954328466190574,-15.656643307908926,0.08581312807979673
,-0.0016866710359504055,4.834166643266846,0.2539538987245344,0.15260333947494203,-0.14218211816178364,0.3377529666468736,0.5469417890723159,0.1011301981965564,0.0633376584841761,0.06610859952278379,-0.06583783331253326,0.28636238814619114,-3.3132775280823896,0.310541127610692
,0.09537388276210977,2.7741462350702464,0.16260586619250617,0.3356176632906409,-0.07767828968038598,0.40807191438183793,0.4342822686802032,0.04966556832278889,0.0021780585605993236,-0.01291649583828754,0.09969805344456246,0.08327441784023108,0.4537413268667766,0.1362112306594951
,0.16220066625585466,0.8450242915494623,0.2686652040239321,0.12041241158071232,0.26432740334801813,0.28271931981816967,0.38162149060774603,0.10697440503480296,-0.12380963968529636,-0.20808575324062556,0.5605191451746843,0.36276597543451355,-13.456193239475342,0.06698209032107771
,0.20600872194632563,2.375404630124776,0.05402704251704181,-0.19841894030584217,0.11825484922544106,0.18985364605070726,0.10518613663667783,0.19403169636682227,-0.10939067321241164,-0.1629052290238212,0.8673885722265209,0.37259634942049064,-14.981283191721253,0.25952827806149337
,0.24379798567001296,1.1240767124356517,0.06277143308648565,-0.11668147120565053,-0.03689984170513385,0.2750536892839477,0.06784347486843222,0.11897244937913659,-0.01391236260432581,-0.06735746282202984,0.5474551168167445,0.2839263296128926,-4.003621545825061,0.17371305959404415
,0.22018130119846333,-0.7284664387780462,-0.011616403537175132,0.06795645792865725,0.05969834316757918,0.2196775185856949,0.09807352557637752,-0.04569592124686654,-0.023514319049283552,0.021460774497546672,-0.2921454693654045,-0.032994675299100905,-1.8942959256639715,-0.09423146842837439
,-0.0023115499987719063,-0.702573144707083,-0.060905050305758456,0.47890915603836337,0.3932775080764009,-0.05493810850871964,0.013799588790734566,-0.0397928267824599,-0.06367198238145516,0.02818664589072464,-0.24140396477443976,0.0393871585327079,13.301956189289587,-0.07588598826398518
,-0.003536111639988823,2.2839714179028445,-0.0245549207711457,0.425679053473534,0.22792122911369392,0.38667297018936353,0.22058217783257053,0.05886961843579983,0.13857900256663755,0.04347988681271461,0.017118536365058976,0.22866538272639556,7.276341159139452,0.29719513446808526
,0.03164328345935111,-0.7754743216442733,0.017847247855532853,0.01584471835080893,-0.046322143948647254,0.13078950283220098,0.12945690416469602,0.10043906982063958,0.22440410989836718,-0.14203023761525096,-0.21155178321740856,0.17682988152615664,-12.92593600324808,0.2556716814417725
,-0.07137882226170643,-2.954989657358729,0.027901895590075113,-0.24891969645535925,0.2131035168212569,-0.03425535112501394,0.05869961064131684,0.1875015172452899,0.042971401507781004,-0.2837669986982811,-0.464409929677933,0.11924662300941313,1.499106272642047,0.11250474834332867
,0.23876094659233946,0.3469548029863323,0.251940230035954,-0.17241616068112353,0.41962817140223846,0.3375654966158324,0.22300670489402785,0.44517279518505537,-0.019912396356936254,-0.10005975548236841,0.11124497678489836,0.2323841159861347,-1.9252717479086583,0.23660930720876877
,0.38969052676213006,3.4452903760679137,-0.10056572631086269,-0.17074209303279161,0.38547222928854147,0.4507595435286852,0.18994358121205876,0.27662454691735094,-0.09553186905626271,-0.0951216867503448,0.4099392418317339,0.4462217747043428,-9.828306040617106,0.12864574923688207
,0.039392552011426045,2.9131426153473434,-0.1315929366862359,0.3201330405508057,0.27988196719934744,0.23792060150543135,0.016837419850917308,0.1769245081307712,-0.11709847497031599,-0.20728235480249446,0.2897486188655202,0.29414592665589345,-9.206955170669277,0.14758952944409887
,-0.08581596436174647,3.5079592854068977,0.06079123298551463,0.4257739185884005,0.25549146068766326,0.5528909032574604,0.1568354880049545,0.10684188227102853,-0.09858419236882908,-0.07075385376545183,0.36076976835919844,0.07009855868909043,-7.003500280364488,0.36032557471433235
,0.048909718394882604,0.9553717719540364,0.1546003099997523,0.2317854663587484,0.28700152219642994,0.3985648881609077,0.3320416854430053,0.3449437440011588,-0.17981003752672509,-0.03974962893778085,0.3680690641455214,0.06627115901001898,2.451084119594551,0.2724807246407339
,0.1756334387739992,1.0278416046584429,0.18621520805218594,0.38321398042766897,0.1999085755108327,0.1495957728841694,0.29133836677143327,0.3219249355651675,0.10831698742159929,0.01710537652780763,0.30504986280108226,0.2347343246069396,4.4370903014012795,0.16046961502599852
,0.19479770595954732,4.518561253150043,0.2768166631125651,0.5006282842074186,0.430417629943415,0.27159311790465585,0.5001858326404697,0.14019680324353073,-0.08338614116853714,0.21718307475095358,0.16465798039398394,0.28532185049723296,-9.580147280581773,0.22662446490878657
,0.2523218995003758,4.987955713419532,0.13574748600156694,0.43323609660040163,0.5359093749579527,0.2912547511011193,0.4028504495984056,0.2580209729791907,-0.09036310498982317,0.4288494760180131,-0.399791340360251,0.13977186278339288,-23.515735612442267,0.25506266016463836
,0.4333706102612681,2.69083206963645,-0.03586402244659225,0.5300712636505991,0.3603565821231302,0.05337083497999141,0.0850267330687525,0.08932773636161956,0.14356928334945301,0.3233170102319126,-0.3322333315826438,0.05339083295776739,-17.3287787893899,0.1831802352209014
,0.23820847240417845,3.137315688070954,0.044574994328938716,0.31253064543469916,-0.04931202624091362,-0.07099951076117125,0.046599707920373955,0.026149650850957686,-0.0014591129325059705,0.08742602066652146,0.4947615736867692,0.1864586582753151,-17.583668539916165,0.24409569754301794
,0.1994761154851215,3.0505209265448836,0.25250522908435014,0.42722373916116374,0.0030850901532973917,0.00040368663709168187,0.09664082797749711,0.08162620347690601,0.005986869541103051,0.04263169093923544,0.2311769181923867,0.19035407270839652,-3.142038460882803,0.43384714494117843
,0.1717442533199644,1.1307001328293267,0.1424396560415379,0.35233774371256227,0.20564014520056437,-0.07508987637037658,0.032886439407448176,0.11370653942656742,0.018846607968810648,-0.1235847993822488,0.2406143809035994,0.01940783982296011,2.247476374738788,0.40065763369453433
,0.2844605248200815,-0.09926501248031211,0.21418019231137325,-0.1627855052004715,0.2826421637511527,0.022041003177355373,0.31979128050951844,0.06076921412644156,0.04072341990510984,-0.1124174671939382,0.6306938254031401,0.214224206212899,-10.08964036267314,0.2579673621052176
,0.3217993729409935,1.3502058678627722,0.07501806573533229,-0.019517702569664116,0.1097825689282556,0.2028669413068391,0.43362254410271406,0.35991354963520905,0.29546345479923297,-0.12039543767488299,0.8631575329271441,0.1779550506186866,-17.652557732621077,0.23360825495854307
,0.2654571919309049,2.055576459207579,-0.057604846511123645,0.29106208572115533,0.2218177770593491,0.0006447614789152011,-0.013652886309949732,0.4338280455990648,0.07104011803959602,0.0008129363943177491,0.41200061541577365,0.14075770989382727,-19.222257789690836,0.24994645001104654
,-0.07997476077932238,2.271987917299085,0.020165553285423844,0.32846703760383394,0.17498743783515608,-0.10706374209850075,-0.06190440558000947,0.1768060585869324,-0.0715707943426145,-0.04136433937004282,0.27374076895131605,0.13325471648055434,-9.561716789204075,0.19484175406580748
,-0.20365452028883538,1.3029491138532152,0.17221467956428987,-0.09818324074942081,0.02965815897728816,-0.021565616992703176,0.06753775590821903,-0.15022180713915534,-0.019373126895130325,0.023781681196369347,0.05404885731402674,0.29639077167650274,-6.366058898074419,0.18933253189445892
,0.06629566152927231,1.8911662948424137,0.29182891294857954,-0.09876545190911597,-0.018555020317932866,0.3731782205588796,0.38872995384287756,-0.04706134417997702,0.008499074989023192,-0.04992201241646278,0.19980515301883606,0.18102026097977916,-7.26508965778168,0.17253607192366568
,-0.0795170375811233,1.0022318732531863,0.2131901384852429,0.561565281991682,0.1009422653172479,0.38700081952997556,0.5321847880132106,0.17457171696548474,0.08611258891409157,-0.2609980724135823,0.34922191840128103,0.23676603815927907,-4.043374460675109,0.09671765549794363
,-0.17103678403518593,3.6308822601721116,0.04672755453634499,0.48949627347670627,0.1786921051376084,0.10632854395595752,0.4235933062239889,0.07195830882025549,0.14338456339849692,-0.2537001248593906,-0.19348132088544756,0.08923820794826358,6.464251688075953,0.019011707339566895
,-0.06993790962419538,2.67874241372429,-0.1566678053425521,0.10988061880805265,0.19244426732907452,0.0412524591478758,0.46462815433814986,0.10870019591503903,0.10126766473227361,-0.4364431248471884,-0.6273671983324756,0.030389722560071882,14.82811875970741,-0.016272891676731353
,0.012658192850542746,1.4185395945754862,0.026244541373101216,0.08168587843089781,0.14351193843547805,0.041726383303637794,0.1767782857964012,-0.07959329724966188,0.07811528704313046,-0.3456126052732582,-0.5305128665301607,0.0668785388248488,8.968032663253375,0.015205269837817456
,0.08341002931583193,0.3373391252857712,0.13852451650225048,-0.285092442104537,0.05447520580549557,0.05355102802665542,0.07580921553104919,0.19970767864863007,0.09564674222050049,-0.18672296444127,-0.4955991913875182,0.05156204916487507,-4.272773407627161,-0.07994457713695426
,0.11023378941897982,-0.2265662343360125,0.05934721194059721,-0.24512626780877883,0.21298261764840512,0.12655320468729478,0.2994555556880201,0.2893071551316819,-0.14081090502127036,-0.26266179970842407,-0.13342764428288728,-0.08430117004230839,4.817043303394967,-0.020168270073672837
,0.1255275949207116,2.7288599885788516,0.037673340458939795,0.06485143158727887,0.39515467065465676,0.18375611277895149,0.47831523608844134,0.17480603739449999,-0.07151467572988117,0.09082003791335429,-0.566063554833629,0.026338337912525416,13.96119461160811,0.01409133119750369
,0.03250908069934373,1.7808479998573732,-0.014168720307532426,0.06618239937567952,0.14127315775552204,0.26488160133899147,0.49976108988841345,0.02299540605311447,-0.14757249603240233,-0.042679666345486963,-0.30733959867406785,0.19753701051476863,10.416264068267003,-0.13769517055066596
,0.019271051861913996,1.8299856267171652,0.18020082332077067,0.03457209481836285,0.03350764248127945,0.5773668003097084,0.4880269969477844,-0.04644223032214435,-0.07829057743506918,-0.13255486434061,-0.012930785994821037,0.38265984130720665,5.773621783259951,-0.031335421571010096
,0.060533633891143336,2.915807449727561,0.19183490883269871,-0.06790960997085747,0.11074589723780941,0.4035321839708058,0.40380821371779413,-0.004748121141136118,-0.04735274647935198,0.12164102660459068,0.03324926119501424,0.1923897170559492,-12.312209244866526,0.1449950667680282
,0.06942144082244107,2.3174919958656486,0.07354396677424564,0.15778299834039555,0.13289949178464774,0.3288179182924,0.4571092819631763,-0.007006235642862647,-0.05627683801966543,0.4080422616946187,0.019517035758633842,0.004351157011167944,-4.996569718891195,0.19715630106500717
,-0.07253399172183612,-0.6229648918139605,-0.012848852195670807,-0.23311367416436918,0.13767553059885018,0.182831638068517,0.11593263802907255,-0.16230633211516732,-0.12098011305840939,0.16086698655176584,-3.6172032856058e-06,-0.18310058748579322,-4.810384618645888,0.042574900608056944
,-0.20297366421496035,-0.7188125916057179,-0.05269498224569522,-0.4544155829273471,0.0684202718890408,0.1582347482718082,-0.037631420465961386,-0.06938743730139675,-0.11368731400414288,-0.24724438910685623,-0.03174305556522053,-0.15739781014446974,-1.1220391905048452,-0.09723771927083746
,-0.14043138524727322,1.1211022680527585,0.23361318554482483,0.2183396263538244,-0.04573755399322189,0.04094147525302167,-0.07934289634901923,0.06140262148736987,-0.19609816327851246,-0.40180717034662333,-0.12547471752056297,0.36204077340800744,6.749209483528858,-0.018005623133155235
,0.10502188183065309,1.0103329183455743,0.2496063965762801,0.01975132844144405,0.20205720730259544,-0.023956890617860844,0.1896929041433496,0.013239663183388822,-0.1728523547357824,-0.21048424786526576,-0.3762986840005773,0.39985787713956544,3.742436678620841,0.022944259519407432
,0.022546522398055477,2.7143829956291916,0.23805061658226456,0.22932621715380913,0.18704776938037465,0.0921421390185439,0.30095379050749366,0.04675326389555114,0.09604209470988963,0.10793439154190854,-0.3630623551175665,0.3729788072721836,0.7150085626219731,0.0812388865374323
,0.08861277339761321,0.97041989325068,0.3131348393091916,0.4586788472629188,-0.070028166975133,-0.1291291854555033,-0.05714063804149384,0.09443560703828655,0.06779818724238935,-0.10225415063877252,-0.04906633208151096,0.5025505856083785,-5.833426660809265,-0.003347997574640241
,0.12696138557270423,-0.7360069915955858,-0.02351246809108379,0.42682512672587547,-0.042374228976571414,-0.2571046940307982,-0.17065383407293758,0.2899160609006869,-0.05915660472332627,-0.1473607456023846,-0.43159193787815925,0.22833531130510673,-15.486741777698628,-0.05461849823922046
,0.1005427296866321,-1.742822980252046,-0.06582537686707743,0.5731306671241589,0.05180536737248153,-0.08686793188680052,-0.005147540349160762,0.39072996917914865,-0.0594514548390986,-0.13864905527910495,-0.2666088571909729,0.17253996948408273,-10.830481554637386,0.0300411648446004
,0.1748041861106341,-0.5586560863469093,-0.016574487253517806,0.15483162010772328,0.26222807222240113,0.12939019783129663,0.12969178552788185,-0.17765049088751075,0.011168888864459343,-0.1113405126038785,0.05312102133020419,-0.002574091322387072,3.567015536065606,0.006143519230999092
,-0.061880578547004544,-1.3553842875026265,-0.22565875452096334,-0.06061434355884221,-0.34585451442586745,-0.4016677652054936,-0.16026796199889254,-0.676297800683141,-0.08417920854611903,-0.19092107135561268,-0.21420563230439715,-0.22686220484578062,6.953279695412863,-0.26760591838609077
,-0.09656379150097212,-1.1250015729174032,-0.3230605841274699,-0.20625136823558188,-0.29379893307613514,-0.27924397833045284,-0.18580261712480092,-0.6965992916818465,-0.2204319838086555,-0.14340025623326894,-0.17796327859068686,-0.2519068376720931,7.7736504995347415,-0.3540891573678012
,0.11757688782598982,0.6670113241751338,-0.2350206157452093,0.02776108224768646,0.2075687675341823,-0.03598219725806529,-0.2089061673422389,-0.25849236634810935,-0.030720951979250108,0.16720776346734392,-0.04889730602656437,-0.1741464632633493,0.9504721841912175,-0.29409723967166634
,0.027229305232480943,0.3033714155985651,-0.08430886473273844,-0.07894198292476264,0.1293739538704701,0.0361989080602155,-0.11571578176254359,0.08205227573364367,-0.2444694379404991,-0.08875218497241867,0.15786221990224672,0.06004130734141006,-2.62673532195605,-0.027156896016167487
,-0.018606076967379738,-0.6026561106577455,-0.0008252030245644121,-0.22489791330168793,-0.0827512575299437,0.19486474278448876,0.04808686548698103,0.07745673574423644,-0.5373766584770758,0.011112969865405855,0.11347216555819768,0.005129537673984429,-2.9545500536055735,0.06898729294808392
,0.09592276329111646,0.15430463679054499,0.05472887288525588,-0.19789225288538886,-0.047252375138860304,0.25725952700888416,0.07550716632145203,0.1402922229439404,-0.3584890609197568,0.03039378349013373,-0.05384205936584945,-0.011609139648507377,0.7649594679228635,0.06832689438497667
,-0.2622115106123528,1.9815538348633115,0.05521272293851792,-0.1987360940166303,-0.1382287172996368,-0.1483835758882332,-0.1267559811750143,0.06716338992316431,0.08673491721292031,0.045081789578221634,-0.33246856295916755,-0.0694499250023445,7.69940737330426,0.06866903168310312
,-0.12743916033625377,0.9300220226063904,-0.060513735837410376,-0.07835601687239357,-0.11106919732214861,-0.026582429614027018,-0.0008102523642974166,0.06572628371557798,0.11376485367483857,-0.21427990795572568,-0.3052517028385911,0.11192626634637079,1.9397709163098735,0.04835179959624027
,-0.21171804172360567,-4.658326772042143,-0.30231638544572964,-0.08594122589770978,-0.35232626856201643,-0.233836246729165,-0.202452851127637,-0.005211046956242122,-0.04914144973398265,0.037751103176520064,-0.08834817956694468,-0.11518701919695808,2.772678967064907,0.0931146094166624
,-0.2230941484505619,-5.282422044907732,-0.3966250127886576,0.0032881150230364004,-0.22368984083520224,-0.1974559874747594,-0.23643102188505957,-0.06256594789237899,-0.02485663769001117,0.04114374945100634,-0.12702927169059813,-0.11092252036013686,2.965983209375736,-0.16470315942991073
,-0.11266377226388284,-0.30060648294367104,-0.0020691622000139896,-0.10264874057486101,-0.12027585979737528,-0.03992740199737436,-0.19736302083815868,0.074799449578561,-0.011998643093644928,-0.02898481580065733,-0.15471862997342342,0.01569978068934612,12.108551538671314,0.06386580610122787
,-0.07193838425423628,2.136074626891072,0.2924506268359572,0.2649294882052709,0.2946708403005414,0.257192466687157,0.32269665581712564,0.06994748852254565,0.0384992757669069,0.024615509326995678,0.39352302504683695,0.06645205530809613,5.399092652867396,0.2433978120161718
,0.010659035971964945,1.506423385101142,0.18112373639214852,0.060501100423783455,0.16142863487133918,0.1458414649693903,0.2737414551721629,0.14313596269196358,0.27110555372231104,0.16892556207698733,0.47697636439759766,0.14892440605288718,-9.0925300644242,0.15523830786439377
,0.23241970255149094,-0.1478687230742801,0.1565787669346196,0.11980544795216266,-0.03850833600073367,-0.005087058786662312,0.05713398914979959,0.16838975554411886,0.27297774761737464,0.04620197057597149,0.011559228651336956,0.11184405247281616,-14.715420716888543,0.0438241898894265
,0.19511577956617424,1.1356243141109814,0.2675827477462345,0.44060854416854284,0.09571946690387977,0.07636341411734,0.1262699132176894,0.25096167654447826,0.005864056687035062,-0.0860266612520677,0.13034817931721338,0.0509442101253925,-4.675387534201865,0.17770293895306158
,0.05352535169313831,3.012044070738896,0.046291037236758946,0.005975149650164447,0.2076061735825743,0.023000266995054874,0.13116731410885132,0.30290189712169485,0.018535896843503572,0.0004497961179782743,0.5497098254386228,0.10434714636465965,-2.4427608281469255,0.13809301397799986
,0.008097760878473987,0.305213137867872,0.1793046651110242,-0.03297605205271578,0.17866444717823554,0.150344824716706,0.12016097326693592,0.30595677786581643,0.28027273875736325,0.163337840873673,0.2399837460413371,-0.0998962507092538,7.681089221357351,-0.01710846649830333
,0.19395024324260082,0.1841235933293413,0.19501708254191819,-0.04046718498897997,0.17483456831102495,0.0858770973248006,0.02541499674174867,0.08726478341989963,0.20173385522172577,0.06366022049989029,-0.3034997991116865,0.16118031669232696,-4.7582351792418,-0.0813541477093051
,0.07681444829218194,1.715155718319262,0.21868254705384127,0.23002262753118413,0.04166037521326793,0.011833730788900806,0.12463454080801646,0.040768245099587916,0.2610062478205607,0.06382335167350262,-0.3203313532556829,0.2260653729535218,-19.310331563613172,0.03039976901689528
R,0.1410856371312727,1.2965049370708375,0.04097246991949201,0.04868948956666121,-0.22051441053094,0.30519561285177954,0.2757156585043933,0.009030107721256586,0.21878254053695367,0.18643830668946215,-0.5533693966970398,0.047240803775828476,-22.750520854961596,0.15141602661984585
,-0.25593413447140667,-2.52359076173736,-0.19732543714921036,-0.35927883854893566,-0.3769003517134503,-0.22073048288450547,-0.05173074840422986,-0.07490005756467116,-0.15428296693250604,0.04777389359036032,-0.58337820774084,0.027529598377534697,-2.4446939227045905,-0.1393557551589049
,-0.29038213742883395,-3.2284386640405955,-0.1927326201096065,-0.43291742125755744,-0.4003359255591468,-0.08038626822743568,-0.032419180735751486,-0.16767986454184092,-0.29870542749812545,0.08781313368537774,-0.5212828714348046,-0.10598657499374096,13.1046746672258,-0.14521422894011962
,-0.005083846276237267,-1.1183890348114764,-0.05532323571262257,-0.30524537960812614,-0.2074642421709679,0.05155698453604744,0.07626322545968411,-0.12349881480673364,-0.17317581965631665,0.11755268964653999,0.2892921133727089,-0.19241642733061223,13.187625168393607,0.10431218058506117
,-0.09083774651298768,1.3416426155773071,0.15251056733821622,0.08051706681753006,0.14374512273478102,0.01487312857997365,0.14627408481574855,-0.25139617562369915,-0.22493352688220497,-0.16666071549010122,0.33316262799673024,0.06781936092613818,-1.5265419260604305,0.09117218890484562
,-0.28850282463026106,4.727465755699963,0.2401447331775412,0.4490426815180369,-0.05270488705240802,-0.08893742921867087,0.19204774836958785,-0.11878046770705052,-0.17561742261007138,-0.08461286993850423,0.2832865609501831,0.2951080501525433,-12.605629904663548,0.01022152581080173
,-0.2945923543675752,1.6194989857654758,0.158857433819105,0.02812924753310024,-0.020826774373057338,0.17418491700842276,0.4357636000428018,-0.018615118206629516,-0.12781850716562151,0.06507359717810282,0.05986869315267265,0.20033836595135077,-3.269270885130933,-0.060650945463530004
,-0.12677524592828487,-0.43711426806572806,0.04981650303365,-0.19444655206288253,0.04310718900016729,0.2730504007000836,0.4241649190510971,0.10029388530868226,0.09810858570615758,0.22038561910810814,0.10132750300227418,0.2958363563704413,2.144848884680902,0.017909300498654468
,-0.049150030459187775,1.0549156088621683,-0.03298163892748984,0.004050044265442675,0.10649297971453654,0.15500991757583094,0.4371157868504267,0.2007375442859864,0.2634638578369933,-0.11926177747750666,0.11775521629497376,0.30216689226948656,-8.402695417399316,-0.22494603387285111
,-0.11447895548987935,0.697479831586345,-0.06640820142188945,-0.10920589849400601,0.08025225474813455,0.18296964141625138,0.29170102977171325,-0.10370294495172634,0.06140272240046286,-0.23426095808506808,-0.26812349493203064,0.02534144363289663,5.4776707330799335,-0.0016689974800947185
,0.2999522271940825,2.192630634679786,-0.04472120980528335,-0.006262890030059546,0.14963630447891443,0.1614685031044127,0.13742405008344105,0.04259030775170732,0.1531067289252563,0.2619890479653596,-0.25529058029203766,0.1936525227574997,-9.966276967878844,0.1526867384838244
,0.18699483506677456,3.988351163020003,0.05906561665681325,0.25969132101669756,0.15595989041782557,0.12358341040888558,0.20877816067882413,0.2089968955115971,0.2384722926090504,0.16260325413278132,0.27058707048954234,0.17907758279158484,-23.343061574187228,0.04584034762348626
,0.15668071398127373,3.368499853129288,0.10880565303001895,0.39458561076710114,-0.187039699426578,0.06907551891936446,0.3029593755067047,0.24829424412185827,0.25198714278155726,0.002884402367683237,-0.12489146173788063,-0.06834832090609684,-10.420741701080615,0.045737727398994635
,0.1658327862476698,3.8359838002254225,0.17888547074443464,0.042229850235066986,-0.17971014257933854,0.3622969024862601,0.36592560778257416,0.29806242640328573,-0.004216636973491243,0.042365436483027555,-0.3298838162251547,-0.12242058961471165,-12.304727395378364,0.1884579654718128
,0.13874972162478214,4.869961914919143,0.17031988211564977,-0.058516882321822845,0.008902716034462911,0.35126237435897567,0.32916916637077315,0.02528265468593497,-0.0757185395977159,0.0036627836122842773,0.06164228617214418,-0.0888291359857024,-20.297668495345963,0.17695939889167167
,0.37575470304552766,6.822129099003872,0.24899081923395708,0.4720005286851511,-0.20520393369808868,0.16365236843845393,0.4845171961627266,-0.33895427852998156,-0.3972772799057452,-0.05050345791271563,-0.19614657178490075,-0.11855694313034626,-17.73066881708197,0.09792367559992364
,0.2288939789775603,6.4646436599260095,0.2317549004406161,0.6377395317057237,-0.2331793195396125,0.36271158072040643,0.4845178051754303,-0.434087358710023,-0.4421309463493828,-0.35253615436593605,-0.20225079833491616,-0.19408503083618475,-9.04252003597527,0.14349922162003273
,0.10898237479140421,1.984048946261169,0.1240713384803241,0.09502001476635225,-0.03716822954121034,0.6149428069392374,0.4065093498888086,-0.15608996876942388,-0.1606777650171613,-0.41930085552698165,-0.10335282883197294,-0.1172872646993935,-6.82634954999662,0.40119959052768456
,0.09566780631664616,1.5011701869337735,0.09278564604889236,0.16630435037642863,-0.14558621016594503,0.19778397071365933,0.43643677168896344,-0.04020341661277966,-0.1501391336054066,-0.34765140231310354,0.6959665443007779,-0.018367281885576077,-9.141839654423329,0.22946698182380268
,0.0975779654052259,1.4642455301261381,0.029946814135166467,-0.1733822522951673,-0.09579315658655949,0.2598238572237774,0.3688316633245289,-0.05458358057281861,0.04810022149789693,0.02940131507940464,0.12487206710428685,-0.08110093841160057,-5.217969706410147,0.05694864722649562
,0.0758006351594145,3.699266149499755,0.10189897897098789,-0.13022314271376556,-0.06505456874677369,0.6486525295206051,0.40268455359534,-0.18485102705241396,0.27619433431602347,-0.2076168954392795,0.4291835816426099,0.1974283649740644,-9.417933947084103,-0.024447735477850365
,0.08563119624765804,2.2409947466216154,0.3287692939384562,0.1150399702102954,-0.12517325036088678,0.37630242558866056,0.2631760834923547,-0.1785752809395015,0.3481938963493058,-0.05365084809136261,0.3339333264706224,0.1929142884293534,-16.47006944037119,0.08220224247111871
,-0.1039169705176583,2.757797039679904,0.07046265400482633,0.3130406925718571,-0.018852627655700036,0.3943710742962109,0.23581724168935014,0.1977254319633698,0.08663014744370981,0.16350829041415846,-0.04933576490764399,0.028568757414156584,-26.39737925633489,0.11044004628432955
,-0.3096216039831668,1.0643291248766573,-0.04616550695981081,0.00046647857702898947,0.2575515765272423,0.218851409174789,0.05592749234005262,0.13701925712088345,0.03905079837795375,0.0846884721645795,0.29955517839491264,-0.05936625370077196,-17.71339343360915,-0.0768672593911243
,-0.08543561774946966,0.43903413576296746,-0.04168976147318583,0.09843309532185121,0.18011289877511544,-0.06614701749635343,-0.02808372091131224,0.18640686503424717,0.05875478839598839,0.2381565124474071,0.5839904643480733,0.17825107118772487,-10.640818510835617,0.05317838245952127
,0.09371738870142277,2.441162779293017,-0.17310036756571612,-0.18245837505116672,0.22087433661438977,-0.22406789197705307,0.06486817630786545,0.28210770604252317,-0.06278890057338342,0.17290353378572004,0.04305556427109901,0.25288663950349577,-13.202023861353478,-0.053738072412821615
,0.006729169290501836,1.7639949789591978,0.020409560414965434,-0.29941404739856403,-0.006243052456733038,-0.04789197657008555,0.1618812791762591,0.0034391294278593816,-0.07844182018092434,0.3335795632043146,0.06360774863045113,0.4013360198753444,-17.838045439507063,0.0011134495689790296
,0.10870120352992348,2.284356783619602,0.1776873924288105,-0.14175451779213455,0.0449622175323657,0.23896707680447385,0.18804681222546185,-0.008672645885950006,-0.14127887168226277,0.24581561880950617,0.4147991366084388,0.5945702028096272,-13.608536595534119,0.10667101152670397
,0.18003845396929363,6.289948763639294,0.09206929902531834,-0.06432397497163314,0.2654829980996201,0.3267400743299406,0.21890281135292208,0.02142777804816729,-0.12731421221415262,0.04455128411310281,0.28332918972241083,0.3748405055404605,-11.548129773173711,0.1282724096045922
,0.0739163321135571,6.746644444355892,0.11251639377519487,0.10926157591885659,0.21467491218446555,0.2860981731906836,0.3642507997644674,-0.02738454451061278,0.057162148792415726,0.05314025501033468,0.06377719932212723,0.1586097129969951,-14.383191999826483,0.28049299944379996
,0.0754660471634569,5.86869445763244,0.3985956460077492,0.29569803430420294,0.2225209408832373,0.41336098154836454,0.5255842908672306,0.11344657235357777,0.16002540296574083,-0.024593362166307507,0.051269240769241706,0.23721461919132147,-13.42464578322079,0.10910300320352541
,0.27414718189951054,2.707876791475265,0.1439740788127022,0.5017389459110162,0.1182326945213128,0.6136779456077576,0.4405759575280872,0.2036910009112671,0.0796320131136726,-0.08489049831715641,0.2546970558911875,0.16870172231200053,-6.338680470929626,0.0373249534327548
,0.30125026551779654,3.2245366760157843,-0.022380461009071522,-0.21211323118656616,0.23635803435483663,0.4855807905767869,0.5378603294120042,0.10900233874447866,0.07947325895286424,-0.09868920047103905,-0.009781368845604304,0.15060558373334548,-13.969139054978584,0.12092719015233167
,0.177136777062709,5.081312445693191,0.02013278075461535,-0.2482666567569017,0.2701026668270802,0.15308186344907243,0.2126602227233378,0.04822909344197573,0.07701591544420133,-0.1113652966580449,-0.3190053686296836,0.3950752171080723,-9.151397542933143,0.10101515667215007
,0.042534862437568925,2.971939721819472,0.2636937029450355,0.022409708135524065,0.24566886803139149,-0.20747233038167115,0.03139259321271381,0.2195083764418255,0.004979403920732127,-0.10429009375226106,-0.1478222758911863,0.28400395704449183,-6.216159142486448,0.3021999597640939
,-0.04345799342104836,4.541345926816154,0.2569402398322708,0.010540907472670277,0.3887217346569978,-0.08021537748909374,0.22048212710938786,0.4656215412986935,0.04779001479361064,-0.08856942345953282,-0.01753878903817743,0.0027484921166280505,-7.2663304000815305,0.3549431422697159
,-0.07085970592955129,6.946846616876188,0.15203184751384843,-0.03465978701088965,0.5195988914770051,0.018644265824983984,0.12406294220958723,0.18764472283615144,0.3612752994107397,0.05431055911384483,0.3604559139854529,-0.06669808539484597,-8.432200984739993,0.1297627981564657
,0.07047349683876354,3.5402113999018527,0.10114297779081124,-0.10094202982302662,0.2781225387806205,0.0020736433312424684,-0.08520099991796891,0.008447492084626819,0.27251158880107784,-0.04777859751254453,0.47642530053641413,0.09662934083629124,-11.746887468276173,0.2562787473451293
,0.22053511184200608,2.3679511106268607,0.06630589123191906,0.05474623737974282,0.220734647159427,0.3356066010370365,0.01550489025855305,-0.0100706447183292,0.17940077829374318,-0.0063333329350502565,0.07591830931111335,0.2870930971506302,-19.76327236227526,0.26851957791606557
,0.3646609663610507,2.258148134982477,0.01056309272127487,0.12643389900826849,0.22648170300301534,0.4368136077652301,0.40245700284418584,0.19168707772643978,0.1548607803733262,0.033950629172086744,-0.17749895115528963,0.5056138274727026,-9.100761460437099,0.31368137265159785
,0.3999253347991272,3.7434276746614903,0.1397948402104005,0.054350415873069144,0.15859354160888658,0.3104845880959537,0.4455082968382975,0.18720086201516928,0.15326166344001357,0.10115660753652957,0.18502390331832738,0.4501158732300856,-7.815937388596328,0.17093810102280893
,0.1793573393860112,3.661047873875563,0.27006886693370413,0.14703906344640744,0.3046973777116739,0.38202146491347594,0.33063994225756366,0.07976384944255126,0.0354835625436245,0.08339026548830847,0.02318977772078846,0.5350160597747375,-6.939523234314161,0.14043691414847312
,-0.09532092034518222,2.118614176815231,0.23998364877711864,0.14852234806037784,0.30921617417769104,0.42316324096561037,0.15856844215613966,0.13860369638014278,0.1740289722638075,-0.08771002719166192,0.07545600121864893,0.24891711647350598,-11.246607868140476,0.06608026773517234
,-0.16915676012933734,3.8973564994820755,0.14892411755514287,0.11228558405815624,0.24200317281024328,0.03127842239948087,-0.14552700766170315,0.02234997531961521,0.1765868057513167,-0.20639282174618875,0.5313602822220195,0.2549471025076175,-7.159226962373032,-0.029739603886224403
,-0.29708668248298764,4.1012290986950894,0.07914104505146125,0.007162341246998688,-0.2102146961795365,-0.21981519292128884,-0.21626022504456924,-0.19469124964298465,0.09017774556399392,-0.14674312768090916,-0.4221273693010992,0.1550241184091564,4.711449759045845,0.12642546035384486
,-0.20362527876747644,2.1653870652045932,0.14475368042052034,-0.14833899603463976,-0.06502740974340784,-0.32086194323832307,-0.2095654966188747,-0.07238887116495173,-0.06928393204037472,-0.0200969091511291,-0.37442834694255284,0.16821563624398725,10.489209135538552,0.17460838727445704
,0.021081074386697832,0.4884129388887008,0.18344561738548132,-0.353779045846969,0.02234555769322228,0.017957601977956324,0.04226615228896107,-0.03300109889233834,-0.06624121033771457,-0.08995641431908778,0.27539164396560967,0.24408244497527024,-4.565092916244534,0.17262566502650653
,0.18234486276722234,0.7098448681453466,0.13214478641160451,-0.1106429376787871,0.03649331675853643,-0.12200393566172431,0.12593220026742866,-0.019510181311503956,-0.05060511453134815,-0.109958761591128,0.08447427899490231,0.24252606914564628,-3.11262588850565,0.2048785945114557
,0.1114661097490896,2.0543625435386947,-0.028529171508839914,0.14496975206323784,0.07677190655230418,-0.20247501393143727,-0.007169616985535469,0.08198335253824811,-0.06116173891470541,0.06911900772826994,-0.013985141123592166,0.2672290306341331,6.982453336641959,0.025071158101858344
,0.05495558705407829,2.7833992357082065,-0.07339774151046041,0.10553498328441542,-0.06665537751018082,-0.004818650101076186,-0.016934857351314517,-0.09998266547748981,-0.35744120522597933,-0.0913044709757771,0.14127099695165393,0.2518103348910753,4.11016656939562,-0.060466203338737305
,0.03356365439440051,2.462131916507754,0.18453608891558093,-0.05002766993496047,-0.34252210455989557,-0.09287586782744017,-0.14863136920079215,-0.4419828443955145,-0.7289442777376489,-0.36480487856418603,2.940570407435482e-05,0.3217448768201034,5.40250137021952,-0.052765408960510504
,-0.22499462071545095,0.2200965563990143,0.11548491967613962,0.13238063284690196,-0.2036273327394655,-0.36312234076387123,-0.38479041081020554,-0.2935920681721131,-0.4852237984064567,-0.1829930449347195,-0.0007616930864488662,0.29011626985767563,-2.1819652952206816,-0.011675035779993896
,-0.26181822314242237,-2.8333459133626313,-0.03500049554487687,-0.028165453467838414,-0.06215417331250777,-0.49937322817952196,-0.34029207813710255,-0.07265434962772442,-0.3594258219853864,-0.45071373764291367,0.027303327005341407,0.08445926066803297,-1.6118594490412057,-0.08593945467747141
,-0.05136220798732623,-1.9947315209972971,-0.03881887734185854,0.07945036981427668,-0.24022782882705973,-0.1466690774782181,-0.1731480474396684,0.08001788904049731,-0.40194588644822854,-0.34420452272889557,0.010154906531101569,0.0028831021352432595,-1.5765309082363521,-0.1723694037062635
,0.14334456140728316,-0.789489912409624,0.08893738283494212,-0.22833609785465472,-0.31114681779429604,-0.034335833677489665,0.0907083179777669,0.23855713993685837,-0.08715037999927251,-0.2288394478613459,-0.2728311858680353,0.11326390429119998,-5.885777770193063,-0.2302286233531884
,-0.03215791575938918,-0.2174419590229757,0.05574676946993367,-0.03425904921826463,-0.2637202990282936,-0.05492220724674648,-0.021814985150482236,0.01852342985189327,-0.2545739394049188,-0.10014008983358705,-0.38583509717975795,0.3167251776997542,0.9865526948668265,-0.005422271794629764
,-0.2137758709452872,-0.6769718979394523,-0.03840833643245131,0.12656123425623358,-0.22297069594043337,-0.11819929366193827,-0.1290025397869089,-0.06355296661894225,-0.30493230172594493,-0.056010727763906226,-0.21289298287421043,0.16221574365089833,15.38759378655806,0.009681201925178406
,-0.046080295666436386,-0.8735269708212676,-0.038183172907744194,0.19300743530069617,0.034957413938993216,0.003790436111856623,0.10428572372226634,0.0045265403514175686,0.027666135428942272,0.07470191778322414,-0.36325940549194546,0.12548218725481233,5.733592618596808,-0.0367573362251858
,0.025902058390592755,1.0488513891618956,-0.009230050567872438,0.011989239740982555,0.07422638376469005,0.10046959233035328,0.004457861221882539,0.09092201844776934,0.21380469617042025,0.2986155020864577,-0.4755009227644627,-0.015889301070600218,-11.78185413769162,-0.03073540239921202
,-0.10739144491304412,2.1038222495214134,0.14388641786349035,-0.1704096092034346,-0.06657306096993051,0.0726789748501928,0.145755972672747,-0.004849919116692107,0.2639168021014237,0.2495234246838555,-0.3493180115460179,0.13010287523851444,-6.932700110795622,0.09924610488054332
,0.1184606563085648,2.124412966607152,0.07749835685655797,-0.1938350210071787,-0.22250477209983824,0.1170184299249428,0.47345287808884345,-0.09999880737395084,0.3621128444260853,-0.0604000374570815,-0.6377592855837674,0.09970005715828421,-10.044356863515974,0.10435065686375487
,0.018853638575308262,3.966715991667231,0.10863344543844371,0.06487817350057609,0.018323302579558255,0.10679348197029954,0.3062449946822227,0.2881264434609378,0.45284107806541385,0.07607532358947523,-0.48671056774164484,0.10272555089718942,-6.544196317165676,0.0633430473176897
,0.10155423136746956,1.638134076068511,0.163157136562548,0.08632433856572576,-0.01091133101329539,0.16030120531716618,0.28639063289165945,0.18824928092442472,0.11199816362465496,0.15411602612785155,-0.22383949439206302,0.3190053007585153,-2.1843923937434893,-0.02286027062682382
,0.16836902868505815,0.11989965120824018,0.31362987441353285,-0.13527285510171022,0.02385208959171701,-0.021316489879957337,0.153831962323631,0.1334407964038428,0.08590905613811407,-0.1344859104423618,0.16333989354470255,0.3378121787932754,-8.71743361334884,0.01840835671648232
,0.16316537020913707,1.9867545846629806,0.28091602502924895,0.07256387569214882,0.1397172522818622,0.06912780041650586,0.2403240871262583,0.09700963332476178,0.06163256839810335,-0.20246489499213455,0.6560126688102819,0.39263446745191466,-21.57720806687754,0.1564283471352263
,-0.07109981959550028,0.7846493930731829,0.10783673881220054,0.09424665686986212,-0.08339703399045513,-0.1256635152583198,0.058731273738088036,0.16170644747112353,-0.09870631637789033,0.14777740516443372,0.7326383985093484,0.2164145630632666,-27.567960146995183,0.20923476804858185
,-0.06643951217266461,1.209044019691274,0.048993601973000823,-0.15540726258349294,-0.13745059060476647,0.025219190100215946,0.10366396969686867,0.13500968597041743,-0.055984020179522656,0.2858760665441371,0.7278452990619412,-0.02663694124877253,-12.807252684988116,0.1757322151404162
,0.0521284396467565,1.5402454837519868,0.16483860630909888,-0.08154551509731518,-0.10735478976219143,0.2826388391108729,0.28966402953713916,0.019816079791025596,0.12049324768115338,0.08729951803381956,0.38756675987843536,-0.004547278440289053,-1.5537911439126662,0.0959990315928986
,0.03729130064809755,-0.19923253240235306,0.21141328293780107,0.3178787985643929,-0.15867377212655678,0.011076616943216697,0.1548402055709359,0.2863742702210051,0.19275240324442014,0.0904384354526225,0.011963881342051551,0.2318310396448906,-2.549644006936035,0.16047093324698133
,0.025472465072069794,0.37218442444478844,0.18126405601389223,0.4489225744376108,-0.034908340496461805,0.20769953693884535,0.17916866279491528,0.31061995211491134,0.16575667810616077,0.32195130257990107,0.11453024217626541,0.21345128205718714,3.7814906466634635,0.0333093468405541
,-0.12393363908045461,1.3540975901700218,0.1474798321934853,0.384439559173681,0.02454311244064788,0.02478180752120232,0.32618862268572985,0.2671008809049084,0.030072142561555968,-0.08250587818814498,0.14814086282968736,0.1874353759674596,-1.3326017683409492,0.1894480095431817
,-0.04097565467319306,1.0575535976694381,0.06671904618158772,0.047337826142184784,-0.23922990489248613,-0.16513879480182095,0.1890139470482172,0.30601162444457053,0.1229592030982505,-0.09203129202600645,-0.21015713848691836,0.0767952977199901,-7.642807992044026,0.21070227806193004
,0.025558338374306204,4.359985468295211,0.07226553144468048,-0.25782630715907523,-0.2546262674293205,0.24495595521121402,0.3498131218604423,-0.03881971331756139,-0.014169769094777029,0.4078987996734138,-0.13993959205290013,0.12508369353574708,-2.099235005099382,0.1220558196263349
,-0.03091059696937649,4.1370371117979134,0.19363984216256142,0.05250289585849167,0.3083736002814931,0.46888648818555756,0.3984385948229653,0.08856543620112081,0.04644860385646975,0.2529474528862244,-0.20825057039162273,0.25454169873476706,-1.989366695856343,0.11374265399123373
,0.16052061105586427,1.5571777127605755,0.10657754885493778,0.4739623215937461,0.07066084269021423,0.29181904732834124,0.36297395621156964,0.349701582029274,0.008100279900722252,0.06301274341046342,-0.34077862713196244,0.23020474821888273,-5.763605980104055,0.2345647217832765
,0.10807281077687697,1.4856739427767984,0.08599336430909509,0.05605704496510355,0.16865563194158373,0.398518542652566,0.3270182311953587,0.195285865022174,0.1028706711653456,-0.18602719942931384,-0.38004950295195744,0.17995656344964836,-4.829901664049332,0.09606406198202791
,-0.08810716668472997,4.821158335013399,0.1245206581316857,0.16250135087898,0.22846945357420614,0.27836223306350244,0.36040299751330507,0.07048463606289439,0.20716837865534538,-0.06646719399424986,-0.42746430602927615,0.13112549449247335,-8.873030671762107,-0.005373760039080028
,0.17424272232997282,2.3345654669949067,0.2541415835044104,0.08056778949999731,0.2449209458562917,0.011108537454971886,0.33065756860001444,0.34619107641102254,0.18461283384261842,-0.19517573929165644,-0.3112481333818318,0.26141273978895285,-11.590329921618869,-0.053160705916721604
,0.35084050612838047,1.6013148528318313,0.16988461711685898,-0.055263186222391805,0.2288687530460486,0.25395567478927306,0.3828820510987684,0.3953452192595877,0.21212332641180692,-0.1779534632025095,-0.14062554281119938,0.12725841361574652,-11.44118083779534,0.0371465476638405
,0.09239273772862547,2.568739511635613,0.14402245130140418,0.0809977811446666,0.15925256004749713,0.13073166784403945,0.23545062136650857,0.027605936338265573,0.10035944481121899,0.1344304129962681,0.13838460552263543,0.12874757512628363,-7.708918824554171,0.39967407237023034
,-0.17350500084921353,-1.8324250815656735,0.17685428931392116,0.14404813303491287,0.11869495585134668,-0.011482174591584914,-0.013831084205162394,-0.05333562874592126,-0.13991374009381657,-0.04491625847369321,-0.09103326595462422,0.2625125798287459,-10.110160325277759,0.07601711529390029
,-0.12578177032618743,-4.504998436874204,0.05958238666144193,-0.06969301169422999,-0.13704717732330676,-0.19595030746602957,-0.07359698681453763,0.10380978942468166,-0.07290196736185114,-0.19441388921179542,-0.5022367004397001,0.30915099644485616,-6.593240744547899,-0.08325136315441849
,-0.05677168645723278,-1.6579521273629994,0.03543142774146372,0.048407446616503556,-0.0761568079333483,-0.0029195206902611153,0.2621003485948514,0.27867426094290565,0.2145846955520487,0.01435008755266568,-0.26378060162559736,0.10020343860235768,0.1121671304159939,0.18313176884933524
,0.09914732102084654,2.066428056368474,0.07559511773523156,0.2785572487592084,-0.055950477662394485,0.4126386684855354,0.37319517691686366,0.20306111151154727,0.016197754917051617,0.05294888178029556,-0.21469468636531164,0.1342201765781733,-5.006398927232639,0.19120468825039205
,0.2772364974577163,3.093921327155813,0.06558534439023629,0.0513079623054629,-0.048323124151372715,0.29720203718777133,0.1751795708617403,0.26813206638990417,-0.013692301303671689,0.061404910560286394,0.05102148148470408,0.15243144815172077,-11.283882526040355,0.13549104487641414
,0.18387475403165573,0.6501237863512129,0.08623794761339353,0.10813405745542484,0.11281872441928092,0.20484378460836147,0.20573558865509467,0.4402724897845485,0.05262526518576985,-0.059286383667135324,-0.018102860860955743,0.09686922030312713,-5.0347672181794,0.10163652003718364
,0.04548385569602121,0.2597321894562625,0.032105359075119494,0.2060528224736525,0.1720437097094147,0.12207243080307374,0.08635540380380606,0.4531661110285554,0.1647424302496069,-0.2137261642199112,-0.24173801599440925,0.03374239536402003,8.007636390045862,-0.0063675399889317865
,-0.017822992543212988,1.1029374341792741,0.059017851029267314,0.4746180669005256,0.07664157486314799,0.002583146018652126,0.14017692398418802,0.0961652985350229,0.3087845471134292,-0.13230454311423517,-0.10215219414293354,-0.03493377616709155,4.737963101768237,0.05207764608200271
,-0.024675119870240424,1.364536845045834,0.2177131602525458,0.17735230577576522,-0.046295575135684656,-0.10449067575905241,0.12043888913733505,-0.13010683730028344,-0.021282394773493595,0.010302759658644196,-0.202445148687715,0.060874141543635324,-1.0801015390660595,-0.1944021828894983
,-0.060566824308425006,3.69581297780336,0.0715515222231111,0.031019764419522405,-0.08118946365289649,-0.15465703280516277,0.06331518614845887,-0.07874641825424465,-0.17124797855024154,0.07460651134451043,-0.035765573807399885,0.42844712269618573,7.10779524741715,-0.255696450668617
,-0.19096247146387155,4.033778610674406,0.04626172317045289,-0.06747929440923503,-0.04582285437355184,-0.4468194324958547,-0.2852390724538798,-0.009798583904387766,-0.11455207078018337,-0.059559060471244776,-0.5851353958538172,0.31810634942851923,4.551068179878616,0.02808166565460443
,-0.10150299435344697,1.2018438360757437,0.1880240858301312,-0.05599920871470269,0.05460014513380357,-0.07030079851239893,0.002909116048387719,0.1462110621993603,-0.11872214008552016,-0.031786676389147485,-0.11268198801018957,0.15102510724613064,-10.054759395291827,0.2489415891142753
,0.016577688379200074,2.9112676930552817,0.07428674606690068,0.12695494729620022,0.09610192419764374,0.256761651006884,0.09739087625248946,0.05935350409350073,-0.2565521993942471,0.16623268736551045,-0.13749737927922587,-0.027417126072271748,-14.342066808558096,0.12648093541262165
,-0.09543964048130049,4.279132612955583,0.04492714189827466,0.4959458364208826,0.13983115023442255,0.49071934119319266,0.3534985476399283,-0.09622649379718887,-0.07927903492180802,0.27337337774853476,0.21697129138835222,0.03652517101119463,-5.652401427092926,0.1548170016108908
,-0.20754618936317165,1.6887933951897007,0.24670255837299765,0.6175611273831266,0.3045841632342967,0.41902785458758696,0.3270022271824764,0.04245967753545279,0.05830413254390155,0.16010509218031066,-0.26570066094051287,0.2783990424985148,-2.338676854951728,0.0046521435791749485
,-0.08775271378458463,-0.7791462613115883,0.2805019445461188,0.43189265135464,0.4333835679093307,0.12212034415279678,0.1624828343428652,0.0547940627427867,0.17305774765164322,0.03534347193496928,-0.32349794928591713,0.3266843620924552,-16.992191040250802,0.007214220870780633
,0.36301330748307764,1.2968056635739211,0.20439475718266065,0.49048890145909535,0.1389183464201477,0.5232861203958927,0.40433338850260897,0.11764170338996462,0.3602531184189606,0.19179868541874756,0.33717514045799174,0.25122857965931156,-17.22036758213132,0.05343870236276217
,0.1663592522315873,1.7874468008432063,0.16813339851506598,0.3251605950670404,0.09771376227266203,0.4330654288057904,0.4201094868201451,-0.09519735921804634,-0.017876479230560342,-0.0314335394918937,0.13824597933804686,0.14961989883975696,-6.501407897254094,0.03832112176665519
,0.2286398305978361,2.0529451750639547,0.14384440965927667,0.14621356127295432,0.16967415946377837,0.3578394096207163,0.23460244959374799,-0.041780530566270006,-0.009499271060390248,-0.1275152068517328,-0.23224731177814661,0.14826896156292327,10.037036938444416,0.026904427020660673
,0.39653034270729454,6.686145438126445,0.2199287809812441,0.41389465034391043,0.18259546554394054,0.39466193679833894,0.10486191151687302,0.20861740373714324,0.02827862030935873,-0.06433480126239499,0.21605984892425095,-0.049538902503048175,8.440945812945516,0.20494420194730276
,0.5068396448406056,7.089934224957374,0.16682156394668868,0.6171756138455716,0.08319674483940655,0.04991736050644623,0.16344362832058995,0.11326582940544822,-0.08778482516293051,-0.1144353496290369,0.8459322006136168,0.19377662115191205,-6.95165282802527,0.07991189773451941
,0.4888009742034943,4.175924399359747,0.07910779337374942,0.4218633055817793,0.06856703883351757,0.009350974039803483,0.32899696828859476,0.08402290836860263,-0.08874299607585981,-0.12086074259793986,0.20732425042220293,0.08634149920669774,-3.5963199391837772,-0.010188881491496908
,0.30675413585288525,2.762726751808753,-0.046274425936864746,0.05182687040869773,-0.016652133415853886,0.5470898297106714,0.26983175696123674,0.26779873226240314,0.27185017506356945,0.14224855563320452,-0.11287454892532978,-0.103423753305958,2.918540746709517,-0.013827502499243223
,0.3560113246278489,1.9228904452499738,-0.06869646145748781,0.20100721002378275,-0.07413631253953434,0.1600769633207702,0.3029071456046296,0.20112733289977403,0.20150758669405322,0.4097258697984635,0.3454006080609008,-0.0867469092815277,-8.964888580440531,-0.05820718576003302
,0.395801878992636,1.0834402744598985,0.12386412274367903,0.2634085770265433,-0.06020368398838026,-0.13546954473217002,0.10071326005115948,0.18066062349792572,0.1483379187883672,0.09665577065517883,0.4039306899120931,0.06525050533246712,-19.68759104276707,-0.0010729115341874984
,0.33056430830965877,1.7277616783437413,0.16801188219884117,0.032036456624522404,-0.12759516112263325,-0.16175024922028094,-0.04703616900930302,0.3156719583576641,0.10742092161576544,-0.40781952819442385,0.49158451868679004,0.2524960887693008,-18.61755764292909,-0.007111064453001867
,0.21172139963137868,0.699222854082352,-0.009466157872734724,-0.1310109038405171,-0.5985583652704601,0.21616516870335425,0.2221425239672694,-0.09714908171611963,-0.39410966040211554,-0.7096635791635482,0.14035431393472367,0.2962866475485384,-9.242552186136022,0.010240653976382338
,0.0902486459403992,1.3367752163053548,-0.02338523416637936,-0.09293112714178828,-0.7733280414825213,0.5212984099983516,0.2355585699753289,-0.4842051394347324,-0.6883787666853287,-1.11399269213098,0.020196004458528913,-0.1761190010406735,-3.940346292085377,-0.0021413733762446784
,-0.12919289188765953,0.10835414338008417,0.05987841182676386,0.30582634904985806,-0.7525448835552615,0.6192897373046468,0.005472986730364466,-0.595141930169861,-0.8152433498749745,-1.214850684142958,0.06631250511527921,-0.35170417139626875,-13.731367036541272,0.05351456668878342
,-0.2699797115485734,2.448730182485716,-0.0983009072535268,0.41219123068137076,-0.610029959308634,0.2013053912897711,0.013853800668590027,-0.5095631002985466,-0.8022052374624276,-1.1276158132250904,0.1856389518575472,-0.2501923818099316,-8.30943978015129,-0.06077917101134627
,-0.041298948332217734,6.4037361041292025,-0.07629353195977732,0.2525186164882047,-0.5964221619048358,0.19985553936856695,0.2596220198308387,-0.5453864824163,-0.7599266239896841,-0.9421346400520758,-0.5161472300132192,-0.15302641618366555,0.8058883644271836,-0.16407612430514185
,-0.05492397063015801,2.3772777509763485,0.026615372596596982,0.3003695623735091,-0.04718588733864426,-0.027942097007471065,0.015490073785895534,-0.6220269746224398,-0.8098982653943005,-0.8027977636359963,-0.29939690390767226,-0.18071280368535952,9.55039223792028,0.06905983730456025
,0.141317882682212,0.08772998610364541,-0.007177725464469853,0.2183773326329367,0.35819493174354894,0.0936579653482977,0.05832509597962204,-0.45931239965660053,-0.8084247791714418,-0.764381240253538,0.5772516724390202,-0.010967134791211489,0.05130945461141931,-0.06701339788690566
,0.3574758837982772,2.2824959457706644,-0.028068197313335555,0.19829573483921878,0.3218510336997883,0.25074774065063044,0.050683820173324984,-0.47957194116537766,-0.7429562261516374,-0.7117038111789181,0.7064118103595562,0.06231672486299427,-6.582497569779984,-0.05124708279557008
,0.07136103019623817,3.40182283031592,0.07775373892166652,0.13330979230897474,0.06479709219624258,0.33147401401317034,0.267907578411014,-0.43086457894727637,-0.6597966645162702,-0.6458587444777019,0.1766762940128638,0.15745661103215755,-0.883022290271647,0.06780784439560657
,0.06259365173037641,2.7260819412094137,-0.005679600904039259,0.23109036973583397,0.02547045463427345,0.5271091231378119,0.2544654303058885,-0.5933394357685301,-0.35126719187298316,-0.6353743984834512,-0.2687343689338769,-0.011687222203783897,-12.083354733069983,-0.11434709392886644
,0.26145764096887925,3.4331549097405616,-0.07234199958119963,0.6166670688341811,-0.05705390883251062,0.4860417743215092,0.23583583607228326,-0.39980642673477734,-0.21601196380866597,-0.5553769454621664,-0.2183515140103372,-0.014132413872507193,2.0505401232878966,-0.06558252926553558
,0.0926389489822124,2.847709541105762,-0.07994906774628437,0.22791677151724024,-0.003199772734885881,0.39219054861867847,0.483916620932199,-0.46416286586105293,-0.44175945065952155,-0.3260411521196131,-0.2672363378682739,-0.09578895783802023,6.971137793491408,-0.08461335323322736
,-0.12908756819734266,-1.6224324451347576,-0.04590615046274228,0.024961100310729425,-0.04667291675336765,0.30139568363763275,0.4207990270837323,-0.4738969005610717,-0.4829530020092188,-0.4651254076946791,-0.3632242857866796,0.008646180428816552,2.4458215525188676,-0.12628918490874239
,-0.04801818235509721,-1.0551928644163047,0.004337168153598488,-0.00871237108096885,-0.10485019751712282,0.2600851600541908,0.2527191334953438,-0.2122387613237493,-0.22404945870557935,-0.6039657464026105,-0.1487315714898969,0.1537561483761502,1.488772203809712,-0.05045369556858222
,-0.11696942554339466,2.943224102991925,0.02126255419611327,0.30850601674714667,-0.1485894271179873,0.09352485854902148,0.08558979328440533,-0.327504124395068,-0.4105656899133582,-0.41244707644343626,0.02971821834002422,0.24363787616293997,-3.020395802304084,-0.006553851611992042
,-0.04856296060277449,0.5620430688268648,0.02996315671689388,0.7632749216455372,0.17610310990252948,0.3061404451121239,0.1270061640705247,-0.3129921816940034,-0.4421452272140035,-0.17577572400725935,0.22585973937630563,0.04771257435867191,3.4663058163659333,0.11606089370253793
,-0.05421699965692878,1.492751633768413,0.04044201830037815,0.4569179019781224,0.2578896113391049,0.3735164483694059,0.1228029602891825,-0.19843513377603406,-0.4721894404807736,-0.2535658453816814,-0.26557511494322755,0.04598685303346265,0.5590376586472491,0.014342705576744346
,-0.1340841623872092,2.922048955252373,0.23435913832519684,0.2689494614507475,0.10447959785944758,0.5110266203294113,0.2383419619691294,-0.21766603008359348,-0.5158519891464692,-0.3783118157006136,-0.5359385544754967,-0.21800364856020812,-10.11443587584939,0.0954425040176156
,0.010471646467458028,2.1243776741526017,0.3405040763035071,0.2343935105324065,-0.035142698846193976,0.5069465181797717,0.3084873370373439,-0.1346152567220619,-0.6281080580308669,-0.7035527583409514,-0.4359101611881755,-0.08694069821304633,-12.572009095998832,0.19602969827102837
,-0.15431010939322556,4.640788290317793,0.22008112456858833,0.32728100811976507,-0.03236698644496849,0.25854336515736026,0.12463700878140457,-0.18319268498186253,-0.4982639662539201,-0.6192788210187598,-0.2632614789419601,0.19891095602326767,-19.48947891266051,0.43308493660972597
,-0.27114085111474984,4.680565054491409,0.23770080577503386,0.24149554312884217,-0.13903931045465012,0.23091170397259791,0.14233618007525073,-0.4626667531465707,-0.35988071907565466,-0.4169761295887187,0.16282012504214466,0.0808265353580067,-17.820093780654297,0.2693548277626687
,0.040501081139068,1.0983854575450966,0.20411566938385828,0.6497293047080359,0.1387643396056637,0.3048134951613367,0.4330038743546596,-0.1906116726456988,-0.3672824779744245,-0.21548903423714133,0.1869667128999458,0.024440570310668777,-13.613348959266508,0.23099552150025782
,0.1562988904229587,-0.723037725630487,0.24044044302546616,0.20640038490017565,0.17521498114814663,0.26970859553325033,0.28095078560146475,-0.24902629056324752,-0.5281710990311438,-0.13622503535521743,-0.025558751580663803,0.19847747476490327,-5.476329264636996,0.11300871563726587
,0.2560290589218443,1.561857112486124,0.17764198604731365,0.18747976777776745,0.21945518964645291,0.17996653451665393,0.10223761173817628,-0.248879233810005,-0.5114034678074045,-0.596507312008597,-0.1627983798581443,0.16796280390929338,-18.432326874637862,0.035606005374780654
,0.266278167797321,2.2686094360633158,-0.004272726566696686,0.2634724792381627,0.19688402567185487,0.09955236441103046,0.19763273722428354,-0.11302834553999812,-0.2780874362807455,-0.5201231428054569,0.23805450894898497,0.184357872145285,-12.905548043856225,0.11850278747343514
,0.28965983653843835,2.235043540688519,0.012501190742324659,0.2687149790879874,0.0442026230543923,0.08124615366926656,0.40933560920605355,-0.004893140158928625,-0.058190006868894445,-0.25359268497407966,0.3013902387207561,-0.07707070228584295,-6.159213268273867,0.19775199218834513
,0.3390440705971888,4.321156111473483,0.20052921203706114,0.283075694943566,0.12393720494217873,0.13948814086674688,0.38232048310035854,0.023887771983611486,-0.14068610606424398,-0.34124511099232774,0.09784216708969594,-0.006886828563826226,-7.114551439279074,0.193237978405618
,0.3682407870877049,3.144759146902401,-0.09577562996102568,-0.08753050067646874,-0.21418735778250725,0.12311777405268891,0.3603255110069406,-0.010033572658740553,-0.21947134058712267,-0.4060720001500654,-0.05192925212017812,0.06403855039234965,-12.22152043059349,-0.031800785895872465
,0.3498830065451717,1.3035353020237215,-0.1835972337744594,-0.2862996418400176,-0.1361631440799356,-0.1343627318077528,0.23582677645000474,-0.1664660964749075,-0.2538761647620246,-0.497237219186339,0.10247481462239898,-0.08354073635864315,-1.5315075537938094,-0.03946570308967498
,0.2702812528317127,3.071031907686434,0.024831449691522605,-0.27152961796686176,-0.23955387225671337,0.17379299270647075,0.3812189022036394,-0.270627171404228,-0.2032926488748564,-0.5116715964237308,0.26757361542889607,0.03512016516117911,-4.439736219202061,0.23482563013846594
,0.16343848959922874,2.825820988603202,0.12767440978767686,0.16752033964676455,-0.43756156841572474,0.36897637399798977,0.45016287597028287,-0.2711280248139034,-0.40988411321753,-0.46577085468366486,0.5270841463429641,0.27282034915971787,-14.215559979612285,0.19589502175301202
,-0.010331937740521399,3.66155438039658,0.14579344625102036,-0.16284770646390778,-0.337683361079014,0.04062212075682448,0.26900107329493694,-0.10264931187903265,-0.48005353878767015,-0.38216467418792427,0.3088202722955812,0.32629672507432345,-5.898878321310685,0.1477516768733897
,0.020901379453471237,1.7374119258007408,0.11031807191894866,-0.2359041914846548,-0.1457909583103573,9.394652301924476e-05,0.4719515062207085,-0.11052054803374974,-0.32957615260118994,-0.3477915865908783,-0.07700230017651273,0.14481377830252776,-3.9671726120559527,0.04000324010699659
,0.1842113968650775,3.074348517317023,-0.0037451811098100484,0.06294006505445812,0.1686767699626974,0.34069217250265005,0.5164123393743233,-0.2522280327728951,-0.2977707134391379,-0.3675755032533226,0.05154475620168732,0.14199847506693206,-21.372656408075624,-0.14337601252130294
,0.11687905637675813,4.209335350904287,0.08514778675367995,0.01299397082779559,-0.18287120043993602,-0.08330277145340298,0.0644045020193588,-0.15972844629335733,-0.1699151765825581,-0.1760896708321501,0.413597634430806,0.09566447620810842,-13.252589153176578,0.05159168841476804
,0.17561486788328173,4.4595887565199765,0.17913255083136287,-0.01192706779842163,-0.23434939537890911,-0.3222561210276855,-0.12177736782768726,-0.16444173150801997,-0.495401009495765,-0.21656819232158595,0.1987294480422803,0.2340422127504584,-7.110082087315682,0.1608788029260482
,0.24739282862698894,3.2119002755937394,0.01681164774391796,0.5320189226044013,0.2859102040720371,-0.02813829069013736,0.028679775534456615,-0.07234714552153781,-0.5308901018084808,-0.29669950242768467,-0.2481401133240325,0.24249458454278616,-10.016855147706389,0.14778758664429403
,0.31243467242379164,3.2976759553916786,0.03278800130798974,0.3525600228978259,0.2423772857109128,0.1733980346942867,0.19962297182758199,-0.49342720513319416,-0.2274843077826152,-0.1777904858145991,-0.6147178958433955,0.09067432057857946,-4.346447268923795,0.08073660922243892
,0.37887389744023203,2.1347761593825063,0.08827248479174829,-0.04593064686168505,0.34549575979117764,0.06842819458995236,0.05473263069813123,-0.34739007144286455,-0.23802065588065743,-0.436778197288171,-0.75303596601881,0.1615998294033812,2.4987335820014853,-0.01577174378713504
D,0.5477996046416762,3.277504343629393,-0.02469748529234557,-0.10483462024262724,0.48306336290462876,0.17510261236193578,0.14559747879996512,0.016706180874880208,-0.259637252822336,-0.3999445936034265,-0.33187815556496697,0.2118474019135163,1.2028957361131232,0.11543879918612834
,0.3525083277274325,2.504987890806615,0.01995711126258256,0.4541051438304976,0.333130481613122,0.2731168637400969,0.3497247205888044,0.0429275671716748,-0.17765619674134345,-0.09857359429205913,-0.265151539489597,0.14946023094843844,-0.8782617899578568,0.17460271454167095
,0.1863362067662323,0.8738541306960024,0.19543104162343755,0.1974729803035851,0.14709548092496658,-0.10910321857632894,0.11343696171178247,-0.044937894423699415,-0.17337610046758825,-0.2657666335083739,-0.23246385474174017,0.27454470498746725,-10.57018467326661,0.04624905096629272
,0.10332432732073392,3.6033493093179856,0.19654199047013343,0.18988662320215788,-0.07878522450948362,-0.02216930464102041,0.06443141282235118,-0.26518026303907233,-0.2631754787861759,-0.16976545582135058,-0.32574399226104794,0.1420482910630959,-21.720905875665153,0.0994103273565817
,0.2701042546561025,3.1381381124461627,0.19611984528722087,0.44234390426944714,-0.09996397988305386,0.24928854461325856,0.17286599196731395,-0.1984039688247525,-0.25693034742336157,-0.2570667000743022,-0.2959925211370121,0.03515998131481275,-21.3869171941916,0.16447048091316202
,0.30391240033468536,4.4210513888850045,0.15277964976649888,0.5313756046305503,-0.22474600610940162,0.4391693922491759,0.37310788717787524,-0.06285538519618915,-0.4243587702473421,-0.3815108305850602,0.1579994245041664,0.0746428140354592,-17.051707778116644,0.19429918071591898
,0.07575226087410444,3.126315403060632,0.06322497599094992,0.28639954972907317,0.0026953407287423348,0.4728530183879845,0.5868664007571041,-0.36911009493007724,-0.5681610245682782,-0.5003617790713907,0.3479100147896723,0.38310429300942456,-18.822031866335866,0.16038734299831572
,0.22103699240528285,3.5295910460452005,0.20179273243572893,0.1060555153551208,0.2552962893683729,0.4365262142147466,0.5562434840821829,-0.30542591783450657,-0.409022967882984,-0.31796225992522487,0.052303566245475296,0.40304082894124266,-10.793933430637285,0.13763716804523327
,0.17349729139870362,7.778436478789744,0.11941419060380287,0.34051850214075174,0.23946754601753478,0.5603407467467367,0.40220686855673843,-0.14906846693455258,-0.30050750097510814,-0.1963229490603375,0.1708562399735429,0.26210150406168214,-0.13799139910764777,0.13894312238916667
,0.02990948499387081,7.688233754517595,0.0634126533989983,0.5339660623281132,0.32398109499805267,0.547284689047061,0.34678117522256463,-0.17450610000557737,-0.4490450755906343,-0.1977447708533746,0.48311023345368276,0.1329498529923349,-4.7725009003505425,0.11750905546956991
,0.15045432435594547,5.189525698277039,0.13824250016734668,0.24131221020593424,0.30452889853725573,0.3499244717391923,0.32220689949253406,-0.1514879643935502,-0.35591839381941515,-0.21639165541540845,0.06985791967496616,0.32397566237833514,-0.5321496359910695,0.17515956702649899
,0.11597428826325304,2.4590165224833864,-0.027715644430272107,0.03269927924653686,0.20642453356749815,-0.04146673857952736,-0.2263124876597261,-0.25422017529242585,-0.11779750915024931,0.07872139979198485,0.006261068329997099,0.052204062824885024,0.13126220932425178,0.10567627926621814
,0.17534882560343928,1.5384256934209755,0.043161441960322684,0.16483110200830373,0.1964062839254024,-0.007326588843034658,-0.13069391796599486,-0.2749356572284935,-0.1838903258881697,-0.030745642937165994,-0.15269246563712946,-0.03412929644081536,0.0893370310498112,0.06648203490727865
,0.23253690780575828,2.8608364570900733,0.13876517573463482,0.30722994665384024,0.2812241101231278,0.06387002355330038,0.16744011007095316,0.030130473117646526,-0.1720981415211327,-0.10582522276224354,-0.3721712317073424,0.09820686248754489,-7.711599786957643,0.10132777899635223
,0.17648403619019057,1.763601490023129,0.1828316211283152,0.2045775776642368,-0.058253296725932144,0.13242124091154303,0.30370210903476175,0.2547788373420075,0.0368110753421482,0.0008807569053233874,0.145320975658754,0.2783612785690369,-16.04032010458428,-0.06140378368664961
,0.2699973255070666,0.29586885339415475,0.1448098081720559,-0.002009933051288844,-0.0439795733761771,0.2406232268818543,0.26133182256017784,0.3129837791421254,-0.02659233129571168,-0.06960316718605943,0.2864251391272626,0.030167361671952504,-17.619556153771356,-0.19725612625849384
,-0.15939515513645638,2.5903813505841815,0.05066100817451454,0.4268383365253711,0.4185621808231638,0.42971484658815373,0.4038288583272053,0.10060613546996204,-0.2944968913928452,-0.10403738356939606,0.4324249800312526,-0.13277413229344673,-4.897709056145347,-0.05719869166896725
,-0.043432409530510335,3.0333750737491525,-0.07168423465960978,0.15492571985013995,0.24175181324958953,0.41511543242962207,0.432724061301778,0.058709213310319315,-0.2624329602999772,0.07932521803453539,0.16266032409512252,-0.10009916792644122,5.230952654232478,-0.08536970089917933
,0.14111963140631734,3.528098273402861,0.11415781980567127,-0.04413384224921401,0.06468565949521664,0.4332320157642095,0.22821295015784254,-0.03669913609158962,-0.012099327211973418,0.2711551705231592,-0.030776078460224343,0.08377231113236094,-6.438901719873935,-0.012974810550633624
,0.20779761275383812,2.95385559473325,0.19055088912190563,0.05685828944336199,0.07371651868215187,0.455620114662705,0.19932619716655017,0.027344401789178546,0.24855763530626662,0.009413231520372788,-0.34050563368140446,0.28779570408087696,-0.4846498129912044,-0.08372730246615542
,0.2608740680565349,1.096351525973423,-0.11392503510021852,-0.022781144769135397,-0.09119488223848159,0.34308169733692867,0.013889606816684198,0.061720318105104734,0.4360222758121882,0.06805516341656673,-0.8821946924747761,0.5427531426361208,6.146217187740613,-0.0066396312793121064
,0.1113976543957772,1.869517065372726,-0.08534661725702493,-0.26498413299268264,-0.1054593932068325,0.5407640709085982,-0.03192411045824971,0.007411180326247611,0.4405071594392592,0.18344621447556217,-0.4991058767953832,0.44386822471717596,-1.0435804831585673,0.1865135255491086
,0.004520999334643042,5.091633136241144,0.1739160507888498,0.2937538008013822,0.22410288385322774,0.7325992867217123,0.396822709850123,0.10950060276977056,0.20499595482738758,0.16284541287938586,-0.20456143287519749,0.3865162035698912,-7.350582640695459,0.135509477223553
,0.21305696029211296,4.161822678315659,0.15003003534661766,0.3110816731252719,0.17461382179174342,0.692127630826316,0.33302005434819715,0.11111444491146741,0.07833497915228804,0.06126684167496965,0.46184590562567523,0.11583638808684371,1.131594716678631,-0.01942194565698344
,0.28769039011517006,2.112763421500419,0.0915537876003822,-0.032169648351584604,0.3565955117347517,0.2112329116249314,0.17222275656211425,0.1366186907452208,0.24420243386909332,-0.04235891758383665,0.5143474816391232,-0.03221221356867577,6.072653421797666,0.03794373970878694
,0.041463338431022484,4.788719627292941,-0.012158668451477287,0.19285309732003053,0.4999355933087063,0.23794177124823496,0.2655950071532641,0.30400670514215905,0.15550776253696577,-0.123401134833802,0.6419951298147468,-0.053148388628112865,3.057632230054755,0.008272542848321957
,-0.11453535651265152,6.888704905460159,0.03998051208494474,0.18509572787262504,0.30253723397362975,0.32866856098521835,0.3751342991502073,0.3495236991814698,0.020900498995806347,-0.01578343108887348,0.3056657508688485,0.15482672958295776,10.507661395642346,-0.08419976382228225
,0.04751680434354254,6.2054267633283,0.3319053222455111,0.2153967071315281,0.17798989468130255,0.032770865470032176,0.18753005428235411,0.30697220657891744,-0.04759060267802746,0.21703403435302837,0.5872961760583293,0.35513763955352134,-4.500427528423155,0.13130531178265528
,0.018055553232642112,4.850464960738356,0.237341161413478,0.3279940910113086,-0.059109495651653916,0.012189812805987922,0.22973514985477891,0.08664243245517288,-0.2752489704732936,0.18988040154388588,0.6751343154759804,0.34994689585597927,0.6412852272921278,-0.00863202139909959
,-0.13889491120656733,4.2799674236082215,0.08716006267787685,-0.12236408943920445,-0.1672326857449343,0.05447490563456994,0.04805863593675067,-0.14686728726119966,-0.3086168263445276,-0.11260513170690191,0.4548140903500221,0.12438116803849115,-0.48155793483266746,0.01106984953896832
,0.11279646333235148,3.4321353192062425,0.01776305022868789,-0.22449569477066145,-0.05234976378042792,0.22446216347511316,0.09611241385900438,-0.17102357844876942,-0.15533411485249105,-0.16497090061387082,0.2681669536802692,0.1924141428977405,-21.9129838739129,-0.033882881497725836
,0.36422461996638594,3.950229157153841,0.12597955427221016,0.38058206817256496,-0.07402476656815507,0.22374377738048482,-0.07334697053400369,-0.010402383442762515,-0.09458994780419376,-0.14961496613151995,0.6426171994005049,0.26854443096860053,-21.005497519297283,-0.06289317800556182
,0.18600873027727813,3.6135568623714396,0.3645275215573013,0.5232570871835496,-0.08177411040447559,-0.01986864347868896,-0.11343680126603432,0.18231521340967208,0.16764688073019887,0.06777746920346947,0.7499001659205604,0.3329080309446805,-7.506634577382834,0.14171839704681446
,-0.04928771114256626,0.38356554190655373,0.23922495555133166,0.2761790547531544,0.31991940980403627,0.0531823693595022,0.09599187347215221,0.07713489761805348,-0.021232314791398466,-0.06184131845791004,0.20757213916363085,0.2450058214927607,-12.817581836717485,0.2917737645528132
,0.14302692946460124,1.2984331139716816,0.10502989049670575,0.09489368695304454,0.10384362054186962,0.2570766013374475,0.10300361647826828,-0.09892259446630827,-0.12628104789203767,-0.12995250579923642,0.5295124542010475,0.3416185601363188,-17.601500925655998,0.20684206075364195
,0.1920695724598057,0.23066709873447863,-0.022757761600841808,-0.18345874813887436,-0.12454453698599599,0.48948449379351744,0.2638612611604114,-0.09696822693919213,0.006301805233353937,-0.3133230643475095,0.7558838942700241,0.1960363739900399,-24.63022104620499,0.16405542185748728
,-0.005701213380650269,1.5764761325629362,0.08849137667169295,-0.305516192983433,-0.010414563821500125,0.3588212793892782,0.3287150833060011,-0.11850564311241485,0.012019048091445397,-0.30245899398303505,0.6330704227554519,0.1405272947321446,-13.279414960197254,0.2968179560659683
,0.07763509207273486,1.4128374797658259,-0.0012925582658723691,0.10988139290109329,-0.002342581677053426,0.09695967158065262,0.13568009556520252,0.08136252215960908,-0.16552475400795952,0.018173586586465257,0.07196099403714201,0.054943748680090644,0.7556241910144343,0.10737105248819712
,-0.0076458392506778125,-2.5372522435993456,-0.08076698012985013,0.002453134910278343,-0.266658994285942,-0.20755780528348722,0.09295497243856281,-0.20035859641059106,-0.1845943989446138,-0.11781464783883848,-0.33786173284157905,0.15803327298905878,6.620014344815595,-0.31982049764508474
,-0.1060041433537196,-0.7492914707442557,0.16394395360455977,-0.015752162605141607,-0.08519525255941321,0.029863140908148792,0.24993765189236802,-0.33179875090489047,-0.014284076550802957,-0.30614963186410843,-0.3798697958576293,0.19399834861747522,5.95294028932571,-0.24676771872551842
,0.014079403090193525,2.231548094651059,0.20335438003908063,0.17259050066830886,-0.0710436184938881,0.3265729025583538,0.24032626118776834,-0.09614299830948406,0.014144177399495587,-0.29694737516331116,-0.27698391494592306,0.22941474330407377,-1.9432694126053802,0.0024609696171846683
,0.09161558275285352,2.5930358049394533,0.06414868912056972,-0.3302657307643289,-0.05012679989328486,0.13015920706892598,0.2615614112452295,0.06262494991672024,-0.020676943443141003,-0.11727224940754605,0.14262320484859872,-0.020724946010925713,-1.9244420626895329,0.16078461516777956
,0.0001381269802598589,1.0228188637583664,0.02171273066902226,-0.4125272288024963,0.19165920841873893,0.01362347572334599,0.24515159348652835,0.07236224102730549,0.017012509129356368,-0.21582997164456705,0.5638925381714002,-0.018160694373333598,2.9555569280742575,0.09229933681409533
,-0.1091358576193078,0.044492760661868073,0.014195942062226283,-0.12730340313496868,0.22839224337550565,0.0022857611467485975,0.1025435952874141,0.07817299364452755,-0.014091404926213528,-0.06369896585925246,0.011776476881602702,0.11643687770828537,0.18282096416069837,0.10178815180372318
,0.039533518317707475,1.2564022673190076,0.2034990596173735,0.05704241761763552,-0.15108680635749153,0.2454963138126794,0.15022430280077445,0.08887365585063177,-0.0766587041809284,-0.12760114965704897,-0.04313455115191656,0.16020167098656204,1.1548537536852101,0.21773841004628902
,0.3720426011729157,2.8931281487109373,0.16239459576189558,0.16523939824489997,-0.2596629642909989,0.7367691042271726,0.2678638031976026,-0.04920466509100892,-0.12653191446510395,-0.3324829347233716,0.43299093832348534,0.09224833723038948,11.365874103001115,-0.14361071704288406
,0.06601635945792068,3.502079674739678,-0.029591706581509856,0.20090755397369367,-0.10946128672739731,0.727401131409129,0.45363505561168277,-0.1276632189205092,-0.23956660825636109,-0.24550226770065547,0.12353452080879987,-0.061618460179928315,11.865808682991144,-0.16317908252332253
,0.18210419530017713,4.7478779142039045,0.0887158661539143,0.42232972478874065,0.1352197128670724,0.5557705502751674,0.611514979141051,-0.19940444915883654,-0.37044312669059914,-0.28478254248261675,-0.3199473692564166,-0.05978827761667643,-1.997417151954945,0.11016093181085926
,0.09693562100933312,3.2801473977670628,0.2241455004378499,0.41110168023330335,0.0965468134249429,0.29994034376985745,0.5015243843810624,-0.48227380093316,-0.7529988442987119,-0.7002183296749213,-0.18131386593228693,-0.07995230411837455,-11.942814404486684,0.12127675083632528
,0.2777310260783394,2.58694664523609,0.08163320381564397,0.28248056813120015,-0.011686633412316698,0.3427101659287255,0.33694190155911563,-0.6995885397608339,-0.8265961469775798,-0.9008497346835145,0.11051587998918763,-0.1072928287329846,-18.666711420078602,0.05939617895755594
,0.28699437991185023,2.1984205401475396,0.08367927567183246,-0.058424353328950275,0.14724790857610381,0.12413584602229484,0.07212297630934549,-0.45616106699809633,-0.5142524681099052,-0.601369755857102,0.26712360249373984,0.10407869099466716,-9.149099733190596,0.15931845430697786
,-0.03395527596037143,3.0885293039120922,0.16386023574163072,0.12447209067123881,0.25997889111647615,0.07604387713179075,0.09126624067658286,0.005974689917483731,-0.24737315744614327,-0.16591290923782348,0.2270891074467832,-0.011118220546808182,-3.334226880537637,0.04069940459522611
,0.025156326531984775,3.219061848800079,0.24186896430970084,0.3873521324685603,-0.04309984907113521,0.16646716063378003,0.3815802501049294,-0.30142848461181804,-0.41986987239657736,-0.522843513044296,0.16823021305618907,0.038567487068488775,-7.5729704815870935,0.09443400205660224
,0.011138460407942462,2.065428875841563,0.1109750788322689,0.33793220410786085,-0.3232439653699867,0.21384528509080192,0.30251062279131546,-0.392051749397558,-0.5829708726149854,-0.6560207030121566,0.1340537134694974,-0.1616494351372815,4.659533956152341,0.10059068269124903
,0.26995597324996845,1.2826232337061998,-0.13041047270433873,0.4491417962902689,-0.16405731807125531,0.31454057302878613,0.08957111633217205,-0.4319638241429945,-0.471639283262401,-0.3855533473583301,-0.12752005593751645,-0.31554709260517616,11.223334198730845,0.1906011548471255
,0.3129015726465899,2.474130010030626,0.0180801328878275,0.42297699151485324,-0.12507925973000655,0.17132167166958653,0.2359335545429782,-0.6438547741383727,-0.753169884696792,-0.6535455871852974,-0.14898322588453566,-0.1263788954725191,5.979683321924299,0.31672474298676917
,0.0154458302164986,2.7043397098345467,0.12628848198860307,0.3151853141542376,-0.12457748436976258,-0.014881102054463174,0.29620871197863247,-0.5638247010717307,-0.7868753630060006,-0.5467560598643789,0.09176186372595918,0.1280946207915774,4.351711782703151,0.3547609626297116
