event,eeg.af3,eeg.f7,eeg.f3,eeg.fc5,eeg.t7,eeg.p7,eeg.o1,eeg.o2,eeg.p8,eeg.t8,eeg.fc6,eeg.f4,eeg.f8,eeg.af4
,0.45359256167852274,1.3281276396578765,0.2503506468445656,0.06846419858308235,0.14770850401507543,0.26737238025490423,0.2984377895663755,0.3204490175574069,0.06165346649131332,0.10531862566238308,-0.31229915091699023,0.34555304362946954,1.7313500552068857,0.30836242935100244
,0.24691507446020253,1.3382591640005517,0.28960092003274635,0.32180854061571923,0.09716704284088766,0.24529378600447135,0.3520538937131284,0.2071071532866188,-0.017024631833272186,0.09142186953730821,0.06932064216380349,0.02727896342562959,0.6368196364570092,0.31750575947245036
,0.05818646022650863,1.7025765854453074,0.021894274212590176,0.24350339858144895,0.2207227273834352,0.11684497252925943,0.12489289861338174,0.048979678002233934,0.08874948751863068,-0.0761070392785404,0.37766437854768525,-0.15062663489240982,2.6929208768863835,0.2608830964289155
,0.04720212981155379,1.4661976627399365,0.018598552855093237,-0.013967545268450876,0.027343463306939892,-0.0011755999485028531,0.04178066029808292,0.04166078438816559,0.05985451893066818,0.09929937507042104,0.39251044340449076,-0.1589467561134705,2.8666016681872555,0.07126161680387555
,0.25110332376154954,1.0036312927500473,0.2362561687107189,0.3263485950705318,-0.05153931599417817,-0.12766828270645117,0.008104838735921353,0.14676886020287253,-0.013595860331402044,0.20605149204161305,0.2542767468989483,-0.1435834889288678,1.7772300087003732,0.15707754220276277
,0.020326216994526334,0.829273262199644,0.04320041720376332,0.06386390529012671,0.19925867170245606,-0.10476781738325988,-0.08363600305149788,-0.06984917721212051,-0.003267106195175523,-0.16408290766153,-0.14696254353420043,-0.14298336818103882,1.2781634315032955,0.2163713539871216
,-0.10509935589747435,0.8420742665223049,0.17233746170696176,0.2085954135558406,0.18912918024061187,0.2839802065526416,0.11831017052324172,-0.22031482536096955,-0.1606958361313921,-0.12344299617711343,-0.23837141853137328,-0.07938987522704727,2.2320178452666215,0.41041420871491663
,-0.05980094590148959,1.3088394264334762,0.2533145657846304,0.456777547782252,0.14644026669198887,0.6844758296267703,0.1489153526019829,-0.15032133583883794,-0.047995520022837926,0.3803668585483138,0.2351367471689029,-0.013325394525469332,2.612834040107719,0.399963882301518
,0.09712345685847468,2.5387063214557055,0.22019501226550836,0.5465693032662572,0.07436464185403506,0.6321779277134477,0.07562147371809888,0.22920318062798292,-0.06451793024677265,0.24242976018727566,0.3630669173661563,0.0768591053930209,2.7792391736259474,0.176809445183731
,0.32443554147044157,1.8644203246977264,0.035909028259492506,0.16530603465121954,-0.0061534756585465466,0.2855151852348666,0.10854244554853923,0.09057512231284447,0.027688984150382602,-0.11015915416577704,0.6617706548794422,-0.11453612565655874,1.6304784036960849,0.13773931789447283
,0.026394629078606093,0.3984265871013012,-0.046174604636222694,0.09062948097803088,0.2544874446178612,0.19774728339078815,0.07719613255025395,-0.0032015614126978858,0.17111391897007516,-0.06094145500986454,0.3222066774549898,-0.14075641455938037,1.9810712705241504,0.3623253446384384
,-0.12154081651086347,0.6673384082137075,0.09472448358832838,0.6693329715202916,0.20803971296173718,0.22596951688934744,-0.014589155290296607,0.14989193808138873,0.05220557792834853,-0.007463753053340051,-0.12499990311255343,-0.06551181528252184,0.9903291191253422,0.35716873944939476
,0.1164536788928462,1.7370737465354338,0.011290149396382029,0.6693730809459258,0.290704161926345,0.2188717803887867,-0.04427614499974842,0.19696422620791934,-0.03981541471500575,-0.13487683661757302,-0.14185860978879195,-0.10028585226854764,-0.7586224421979121,0.1090680878398273
,0.17103903427334674,1.6598512128279426,0.06494338890120445,0.402610461144412,0.43777632475371253,0.144449480032856,0.022130374831265856,0.05372842180375588,-0.004147861640307705,-0.1686457228613163,0.3306592545684135,0.16159828176135846,0.23312944638389205,0.044357303254586894
,0.12827509736068018,1.2160876943175072,0.00846149415284824,0.2804354609888051,0.23774385286555924,-0.03314107196834394,0.08251525505494604,0.11798737080598408,0.11587029468878889,0.3773502782305956,0.3625000828942065,0.07277310473808578,1.468065410797773,0.12007361319037042
,-0.04619774124649926,1.0516177784922336,0.04478847721370314,0.6657714237672365,0.3170795861389064,-0.03968398839691799,-0.05398550056924005,-0.0899755942277585,-0.035569396254607255,0.09575118733897883,0.3486094978561722,-0.1278050172833257,1.908419855971608,0.2663783100272565
,0.2511740114629552,1.553602913693794,0.1792020391586914,0.49333204473270315,0.22630375769576463,0.2592633536661195,0.10226962976239976,0.03903747844508694,-0.1528590646053269,0.07618562239600409,0.3647497658657362,-0.0033900120770608334,3.226572142831273,0.06857220328784494
,0.4377248898810462,2.2750756109256214,0.1920946399284495,0.5734826090719147,0.3200990265342446,0.23095400302013516,-0.05689741039228113,0.1913541888603107,0.10427412468433121,0.21349340596255958,0.3835352177219678,0.0951854114743542,2.429859965928775,0.06407994460488883
,0.1649031711863643,1.8600284838574745,0.057270728182972276,0.5552462008918361,0.4820845424016267,-0.02920420449351849,-0.05660746636981125,0.14931439963771698,0.195485580778744,-0.13718571620551184,0.19524146719932906,0.08628315712536196,1.1241356233000284,0.08309268535897384
,0.08169669192086863,2.3050726675062716,-0.024906489711135755,0.44249257626946215,0.4426337013400681,-0.11604075283537245,0.16606024792488353,0.19333172748510266,0.1338916732392604,-0.19207261302726727,0.06484251730214041,0.2910326008782053,1.154756936737011,0.258281083487653
,0.25817482121016644,0.6725372979341707,0.05115774599725507,0.12005515931127973,0.24552558180235912,0.07638056178278742,0.1464299095448761,0.2845280107331706,0.18896732188687035,0.18332303362292945,-0.03164523348717859,0.2341316313551255,1.354494585846613,0.15812249723239866
,0.3678454109539346,0.5561733335386075,0.10111823964787311,0.289153524511317,0.23920949838578925,0.42625499012042994,0.16520097328670136,0.1651903254707877,0.0179956736623015,0.26728548208988057,0.25435316146478776,0.3123686838004248,2.2332646113555272,0.13547398392458215
,0.1272872553489615,1.1814255663606723,-0.048578199926238984,0.35712963367721595,0.15083680389594908,0.23037540679129956,0.27164953920893803,0.07608063453882845,0.09348754463268812,0.23494408876789874,-0.04209532637911199,0.20393335560860004,0.7178026418944401,0.20194763340884872
,0.11324817678418274,0.29339542057509765,0.08907024750056683,0.48646897050713767,0.06020127112045378,-0.15324134998341232,0.09906446664766524,0.36334042251479237,0.14508716671402097,0.2252672339454174,-0.06275793446643972,0.028566967555107597,-1.1180731862449098,0.1181342862526523
,0.16917807215516345,0.21410706801019838,0.17072509352543805,0.1317095906353106,0.05561197065788286,-0.15070310870358433,0.10015237689778139,0.3507205361888804,0.1484250869950764,0.17429905410888183,0.03726316832837254,-0.030169760039541357,-0.6233656630664989,0.10586542654523462
,0.12733732865838837,1.3855139592998436,0.09696064042894309,-0.17989411081662937,-0.020400189116408198,0.3123501168658414,0.1451061457685433,0.19078756285130163,0.0709137794649808,-0.21381338070953157,0.36555673042708076,0.1168618941769141,-1.720120837464921,0.1699088287196476
,0.4045178034938591,1.4839758045126752,0.18468975891655087,0.29022908394604197,-0.008557522080058881,0.24522683627163452,0.09902565706810663,0.2533970190245664,0.13288235854975786,-0.02702636267545087,0.6310189167848858,0.012371393225735352,-0.18407808768736708,0.13408299474809318
,0.17136734977874774,0.8481572203784087,0.08339864405560461,0.3084839928629539,0.03962181384027888,0.21440304438794555,0.17707030621001849,0.21257079351682306,0.11751464033023577,0.10916702240283259,0.8298964291886868,0.06772730962917985,1.9226936809603197,0.19785632009931522
,0.33185734823627155,1.0449339391216512,0.15295968910184424,0.4081989340701315,0.2439813562067895,0.4413152117153786,0.18967570285861507,0.23828345285125446,0.0016799562854680295,-0.09855767984830198,0.9742103255380634,0.04811639938162304,2.7499591813120916,0.14473488637957746
,0.26921393436550023,1.274800087821087,0.20780895751854406,0.47014971271632194,0.07753055944577607,0.5691394083689133,0.3499461553767511,0.11572132009833912,-0.15511698666164067,-0.09110476470282265,0.5871707061148284,-0.0220609729640497,1.7873489461455427,0.18372903931024537
,0.09672849567391416,1.8172916276303004,0.24409502667648014,0.5861094006144366,-0.028969936200309722,0.3915539265980214,0.18532545079339052,0.28191061546412993,-0.020023929239969956,0.26196747115658775,0.5024974668072285,0.21189639364543428,2.0316345972943375,0.010906392685702704
,0.09443064026762886,1.4565601386035387,0.20499843913213275,0.33111706073664604,0.25937395801211055,0.1957384970194889,0.13783759963292555,0.1535100179740159,0.09033916413965613,0.14396858228478648,0.5574610893363284,0.189996152585993,2.7655500773095594,0.1639526033634216
,0.28288896215898757,1.4956447060789317,0.08491251226920093,0.1607657694330403,0.3497740690007219,0.09439898143966485,0.10475882435142211,0.10910592166151388,0.0991354825309885,0.2802234837351833,0.765237919249017,-0.04778406737656061,2.136329800745339,0.4955217511159256
,0.18248302667358382,2.095707401129399,0.08136988835736454,0.14812194436875675,0.24988884876950795,0.03042422061609152,0.08567011890101309,0.11006213369372421,0.10168064441969858,0.21861929589557008,0.44969354587968735,-0.12151005878632616,1.3847235647530602,0.2292883493700958
,0.26391306927093333,1.9324836894651518,0.15805877507733243,0.4067228685961352,0.2839405075747194,0.05130311421287668,0.018922649404924632,0.1631888441234598,0.05284439179022461,0.2109522305323493,0.27409064534562927,0.025584686198741248,2.622234641858402,0.05371425848508805
,0.33460467232115415,1.7761846547440656,0.20465526772839948,0.3662157917057379,0.3031591656864823,0.08199578152614147,0.1271583442110215,0.1871026712440925,0.0407463012287149,-0.0008507019967105973,0.21844432671168995,-0.018324333783989066,3.088754501713894,0.27755606597884264
,0.12248274563505152,1.4165341571867478,0.21417585346435014,0.4373997230337071,0.11545958279897338,0.23594626536512286,0.26428811575009975,0.10655784382377959,0.06356296643621889,0.12913819279178626,0.1553753050750281,0.1186735398287243,3.4742254019081673,0.5387370063831535
,0.059787132127877965,1.3975538562826169,0.21333399328648348,0.25671133920808553,0.2724043315313563,0.21070303797301254,0.3015141677738837,0.07108542822457081,-0.08943802267661752,0.19004036509631933,0.515545559468373,0.10765293696329546,2.7669312696418458,0.4454526857181264
,0.05591562486644176,1.6028897241364843,0.2854515346669156,0.35260662330294473,0.31210472374484227,0.022180260347428014,0.31155008476543955,0.11425906614131742,-0.04079413747525561,-0.08651572399103599,0.8198693158974831,0.05525296256348112,0.1308142339773515,0.31365520117549334
,0.08108015299855775,1.914732087865682,0.1710449902749651,0.555408536283314,0.3082704727717559,0.203412292503944,0.17610222727574865,0.07713498398156324,0.035612737011972505,0.08862290795539964,0.905818440297568,0.0036835665580494882,1.1918337994044874,0.5109938401699557
,0.10716894916973684,1.5466087617947668,0.05117963661273467,0.3050780486814755,-0.0028891389971793064,0.22005458866880628,-0.03017195643773641,0.1035808850955099,0.1668337217224427,0.06471776152970284,0.6441322335949634,0.059486931875146434,3.984053520259333,0.32898907432702185
,0.1779537479669246,1.2665326746066485,0.10549107733043007,0.06737271661809861,0.0393679886548822,0.05800500083235348,0.03689531904640709,0.1459099333451957,0.1677036055455869,-0.0834025137691067,0.26640404488057684,0.10603772124125553,2.6645013986401063,0.34949564687671986
,0.03829879244977916,1.0290155909357324,0.0047673247716223536,0.01775878673827961,0.2637724619518769,-0.01792512258267237,0.10237566175532387,0.12980697644385664,0.26149737836892956,0.22098130266706442,0.1812107898277492,0.09673804069142158,0.8283732030975657,0.3894318679295692
,0.060229332435563644,1.4159698621577415,0.1446206439870513,0.1369732788919095,0.3696574009335582,0.2547930202052525,0.2337873988909103,0.13596833051939328,0.31180771380945216,0.4881779001165664,0.5924512522696446,0.19476054894271175,2.9906392525947156,0.360209821259769
,0.2894714535210853,1.498821850730115,0.15782716421473506,0.34662182808146036,0.20484667502290363,0.4213346389098309,0.5241458211066959,0.2589458188706793,0.028837367933773353,0.33373462060108355,0.8749318593712166,0.10729906517959933,4.420513598655216,0.10333775946089233
,0.3769182408991703,0.696667240150676,0.3292094118948507,0.3105644721132457,0.04518764970897549,0.6021073118157176,0.3068325610054784,0.029530294292959225,-0.0985962330576214,0.0358003729085725,0.4866188258206795,0.11865191714164725,2.1588111176196985,0.009256512478494343
,0.23062820938891,0.5232659245446503,0.3420122873197779,0.46149218005024195,0.19813188478595464,0.23072527792514844,0.011186525796014373,0.0603320027711853,0.0264134683538542,0.5107466256132298,0.3987617087381998,-0.03229812145747648,0.19030231202989017,0.1755828615758043
,0.18090202512348244,0.5711821005868942,0.15551947899648003,0.573858151842239,0.13107585639129762,-0.0924337617315225,0.04733461007396367,0.316752941447756,0.2874086376686435,0.4969989381555744,0.4544773467271889,0.10648126407925668,1.3150129571544833,0.4147592594207664
,0.3117567386900566,0.9156693583941709,0.1568544060085439,0.8021733212329432,0.0003859998921083989,0.17990140172192814,0.2629138576942888,0.2207334037180863,0.2638589470147636,0.27166651718950635,0.4622247226110117,0.19508265588949059,1.908269768270493,0.2866159319448942
,0.5407546846668261,1.399163496726404,0.2933272329921529,0.9060674059490884,0.13720533143912444,0.27818900703289856,0.3533797740639723,0.010494006064671083,-0.024862866603878694,0.29163653321149785,0.4013465003063964,0.18779840729315084,1.6348161405602313,0.2563009258835672
,0.30210396430067454,1.4318598070276016,-0.02681156636119405,0.6337837530891655,0.403365389091917,0.3438020325365101,0.3921538953946528,0.07089287256907631,0.0006889224452366837,0.2550200676130616,0.4375548186129843,0.08072008736652272,4.376053574520973,0.24357592664519018
,0.1617527536178276,1.2156098132599824,-0.12014841293100727,0.7204681509438727,0.5892601063622427,0.5085397391008423,0.47588529079270475,0.07950067342549572,0.19465921614510306,-0.012681606540505033,0.0173573035745724,0.13308841021886963,2.6376471933309524,-0.1845978744046006
,0.07841708701146755,0.43313612705068383,0.04742535635404908,0.5331970870151417,0.5138661882176137,0.37514594317727323,0.4481069379882164,0.1522986431484015,0.18093741809123323,0.14695099746452794,-0.001891715567491257,0.18621472700167013,0.5234205730262053,-0.0815975698714436
,0.19786570537578224,1.2370969802145155,0.0009038952559756075,0.4204391562927273,0.24218224712165715,0.39461288293401325,0.2903863459709303,0.14116389579458608,0.09857459483720514,-0.15312681707292963,0.5186216671243459,0.11846628468008205,0.36637730004362185,0.05037356635765891
,0.28578614500458277,1.7755591564274378,0.1587490197229532,0.4011085689501491,0.2075669122032757,0.2298012626976034,0.4301404386594612,0.2014403362114729,0.08122606984073219,-0.1891077942021154,0.31140064450062904,0.11993543512036868,1.8014732144911743,0.31037560628385763
,0.06161032001641854,1.986744377864218,0.2944595420579444,0.6175160368434608,0.17077116367150386,0.30448328846221845,0.3995800501908057,0.17678535470633905,0.07751909167314035,0.051649331595315935,-0.111819218425831,-0.08913069346900532,1.660428851702059,0.47713923324640906
,0.09989705480691669,2.440923600851041,0.17731793051561287,0.508970765357125,-0.0018701761232343397,0.024868350887007413,0.4666199365247007,-0.005289349628204018,0.10455083470902,-0.17394222720154173,0.31347693571115004,0.041583533071240374,1.9246064218274945,0.2409104943403897
,0.40195021791218405,2.6431431506129464,0.21559555213371176,0.5155219841011439,0.12105851932025535,-0.015495892960257286,0.43643243233611306,0.14365197738320204,0.23955739116722974,-0.13338169032264033,0.3870807555417171,0.14594887968144837,3.0930698643456997,0.11429764335115726
,0.16817765407692634,2.537912881435474,0.2728382918914946,0.2980807911426477,0.17501312731396843,0.11052737628080905,0.3656851640517698,0.073552933219602,0.11360153104073138,0.15826317043975263,0.5750121244024522,0.23723361471954219,1.9528088796222922,0.24252112724591315
,0.12219923540247031,2.817088332089789,0.24668392009301962,-0.004103181554621486,0.06785905848133345,0.04303796512124578,0.39289079227829177,0.2343966854383363,0.12298570816767525,0.026268914061131878,0.5740320048700225,0.16446197255718673,0.28878179312354624,0.22041693822871838
,0.16515931011629187,2.1916104313555627,0.08468402023585317,0.13792761388788036,0.35524939269316413,0.2380313608103659,0.4527394012048724,0.32554684912754706,0.37879325789795304,-0.006786408376511484,0.5036627150158448,-0.037184917438994367,0.4556575200240352,0.1681457125123454
,0.12662374680655056,2.399803002345066,0.09768444796142615,0.13441747921296415,0.03138515391904822,0.24546617496301606,0.7234618126652737,0.32568521075643947,0.35356710334889074,0.13046006214008982,0.27527965347140443,0.1556966728433914,1.1827415206143772,0.04749282985737744
,0.14505864147979108,2.1295336551460435,0.021308518549985802,0.40200964687132623,-0.06325087774132206,0.38033180921676796,0.5048611781958341,0.15568210874499794,0.2385046312202066,-0.10769058708746725,0.34099288693718566,0.1742927548223192,1.5917574085100785,0.23606740914282784
,0.22635772444238034,1.3173748538013899,0.30339959430182767,0.3144665084919818,0.020626069655288,0.21635821377970055,0.4308746910522296,0.013367134072739841,0.06027229106167612,0.03736382182103623,0.1734004743038385,0.10743473069736281,3.4065066201251217,0.15110292325116276
,0.0429245810008152,1.8021255048977574,0.3214797844993524,0.316292478516186,0.20683876494203426,-0.13269695781411706,0.33460748023965753,0.05797880349346554,-0.055117385605276493,0.036869516302912825,-0.15388494058025684,-0.06649003449654775,2.5481325867671893,0.15475166547135175
,0.07196436114505528,0.9662137242912954,0.012014419534943473,0.37870553907480264,0.178557159205265,0.16151252861537788,0.14895528687125165,0.013038814438567001,0.06896975776480031,-0.06832808295938546,0.005823975821862259,-0.23120364649831637,1.4211887162202599,0.31266247357579896
,0.01732609192775719,1.1940397116489652,-0.039529086861169786,0.46919334392800566,0.13182202684503544,0.22108044129300428,0.10991458775504266,0.08150369325706329,0.07913319100503911,0.2590198531384153,-0.11746531294597948,0.034138442151045424,2.284604303773864,0.3019097946118686
,0.10096790513943109,1.2594377907659737,-0.014262628843413573,-0.0015762976134531602,0.030811005411166312,0.033407866778936916,0.27452298274471826,-0.24149595767765816,0.11443560850761782,0.01559685029268165,0.26626128234101315,0.08452833221376126,1.8521531144783236,0.2726509374010432
,0.3820553463083741,0.5541343740871908,0.05716235630703802,0.021618276502015622,0.002179442157745983,-0.0837286776904137,0.1296245506041973,-0.08008577522221745,0.21302503727423866,0.14581795961853336,0.3764943380608942,0.1695053870927534,1.4127298219074715,0.29963229627955545
,0.3799972810977075,0.5924932120888423,0.14873811811425577,0.37431705310268826,0.11233167432309217,-0.08307529843822783,0.10316400856560098,-0.1619491101989973,-0.026982990117946828,0.2132217578216786,0.3974065569286559,0.006614275037179186,1.2315124546863416,0.2917680310079603
,0.31540322560921813,1.6965119525064742,0.18910782387136396,0.5666448145982546,0.22688714349455152,0.12788143079970357,0.18064661749163588,-0.032047823459516844,-0.04047335605940825,-0.0837818427513534,0.1362581334863665,0.024337856182031565,0.905333929245787,0.3491345261032961
,0.013009493919207084,1.330830381007166,0.2637051867565903,0.5936779545229933,0.019691378772881657,0.4116829759326948,0.2692129477045976,0.17683483899904848,0.1661086178567926,-0.1332454594821138,0.33868424501232486,-0.056268368401158876,-0.7736781170161356,0.35293290839419833
,-0.0020982407924942663,0.991025423416349,0.2574763331869306,0.08443928948243157,0.2351529859965559,0.22166171115046557,0.2915740500955592,0.21719205314212858,0.33836807864293783,0.1094094384180501,0.7737431579008797,0.18442182552686737,0.3734741118464742,0.26490277628106784
,0.13411686297734968,1.271027817783071,0.13147645142243822,0.024234754502241978,0.07011857735470524,0.09090092675103308,0.36410822133131543,0.15613395967006682,0.2978986953743295,0.13419807219215388,0.40501736752000783,0.1565919016501715,4.106440438883341,0.17087367578576465
,0.29203375201793574,1.027302797626786,0.2137123234258044,0.8080797131669611,0.106325321432325,0.259013174304749,0.25448786667711176,-0.032984473957117795,0.24869644522423726,-0.0785747860451273,0.021520225690723066,0.07738984121807226,1.620459865776497,0.1481798441977835
,0.16338046061963665,1.5644071070675167,0.2652433812071742,0.5359024010844282,0.31367047630239253,0.3071632131671127,0.14980363867495158,-0.08679403304391227,0.13096200876785377,0.15430290656914558,0.32112682476847954,0.16015769552584394,0.7385578533328536,-0.04431258210561549
,0.1291503943813346,1.4477805271477002,0.10877557556684805,0.38052914024654655,0.2804890129767799,0.235494611403803,0.13036931507893137,-0.04379533129514605,0.13651887583109887,0.10463551670084298,0.25165188075490297,0.18714316471536258,1.802824539657237,0.08753706732867945
,0.167547078830928,0.8677372205839016,0.21349110425288845,0.4054728694465944,0.14514988583195718,0.2825908603346087,0.32693178365907505,0.2100294922388072,0.04642919422873093,0.18888367090149338,0.034505760811961564,-0.02142589284237085,0.8344852337130667,0.08940497567228095
,0.08821060172917554,1.011549004243651,0.20113417242323767,0.25615053457086534,0.3644101738723588,0.1975563792836634,0.28283715526368297,0.30686645247277666,0.2486892806495099,0.5512490688128302,0.5134926142534201,-0.02712487655610296,1.3131680493520488,0.1309276387828965
,0.19889423735936523,0.837127632018344,0.07806063513199234,-0.04504811572856541,0.42354175340085787,-0.13236182365171134,0.039142882480212554,0.26197257768136817,0.08511371512408342,0.1439602751609714,0.3597891830713591,0.0546270930663329,1.5614333008164591,0.0822139243262557
,0.2563598862216668,0.9702475725823478,0.21793850292385078,-0.12015268875674996,0.1478026328243859,-0.07411460722025699,0.17575042588088546,0.17385931361210985,-0.12584773998674148,0.009279539290962362,0.344467369619493,0.037095517327825726,0.9959074280343694,0.06767129955172999
,0.15737248576031493,0.6644601069490429,0.2992224893389201,-0.010527092410909539,0.16206379993161837,0.38817889416212575,0.22563021055413623,-0.026957279428292954,-0.0677843954712361,0.016867960638791608,0.5166776058954425,0.14553022689278197,-0.37342897223385874,-0.41115741724033583
,0.16660534537533117,0.29105405441896015,0.16345057185813372,0.07607524084724435,0.15699005057252885,0.12820477492861188,0.22269016070340078,-0.06721026047385335,-0.1597847871319922,-0.03291902915963652,-0.10600920078963738,0.0707678203229023,0.36439306596025595,-0.565616689248686
,0.04768501431636744,0.36601419657867584,0.04594250872149774,0.12357322607039403,-0.1111383638940328,-0.02124904621000723,0.09325234450592074,-0.07481266505068832,-0.6756603840191767,-0.03490495152232903,0.014292544364445785,0.01116170968805198,0.8046184162176643,-0.08249865787000418
,0.11691779525423593,1.1402745359716793,0.09075177869357759,0.4787979331953438,-0.07854386813076754,0.03783004072353588,0.20755186999867525,0.05745228368676504,-0.493416925010032,0.08344927783645877,-0.2623456953759897,-0.10014637137142084,1.550095016995487,0.15982999086336652
,0.11534088572599141,1.8405640083495234,-0.02877074818220944,0.43492482991710135,0.13275103334271593,0.2106873514976498,0.11551896286191367,0.08349442382962607,0.048683054931324875,-0.1328280792720942,-0.20675186433244738,-0.16131745149590637,1.1072984837658804,0.06076073160935379
,0.1832820494247747,1.7555049714395925,-0.03021170748076736,0.31862407469415777,-0.051739836270957004,0.33119367874295735,0.0300863509316853,0.11552451275479533,-0.06020578990991966,-0.23762540523908954,0.3318313130221892,-0.03410562080534421,1.9176403167827263,0.1377662709722121
,0.2315854723393564,1.63311853157603,0.18367503454487374,0.13931816554856252,-0.0527742240931409,0.3568256695237583,0.07136162421571489,0.15707277555948193,-0.016312234669207212,0.14043630314167005,0.2750276740162718,0.11909626891816594,5.051227570490031,0.17885053957024852
,0.22637256624636218,0.7738792179476756,0.23333180743993112,0.08991947535491739,0.025262154472388516,0.28719207326396035,0.1515386918479557,0.33696282255095994,-0.0799636184056962,0.30119682279932114,0.4463021481555657,-0.16066834273226277,1.6250842804282137,0.14264872935125883
,0.1939089382551632,0.8756514937131413,0.18831408660949184,0.30239076862939585,0.1485915972564131,0.10788339450405199,0.06396690225048272,0.2822103046553443,0.045212175156523676,-0.04741474364072383,0.5915865314020011,-0.052755249241089326,0.06109120059519703,0.16990299409382062
,0.10651236569439526,1.3252847251287097,0.12929306895418552,0.16275575566047376,0.19328135514260228,0.26576076883447874,0.2466715041530246,0.4268048038052223,0.0876244923117708,-0.022898063548857164,0.9810460175823211,0.25763975465041944,2.0689046061954324,0.05181234127569227
,0.08631848877775669,1.1015249888098104,0.14870879856918504,0.7272671923072206,0.056533834789026016,0.1728291327967099,0.16645658508317981,0.4417637688461876,0.05696931287553477,0.4180258015111843,0.8366233420666074,0.29408424676907124,1.2118750334941473,0.14430542547875044
,-0.032295459809605506,0.9651246076090109,0.13956811219655785,0.425789627496595,0.3211766351768213,0.1893552193276311,0.04455947633532065,0.24197952351997715,0.08720731072414535,0.31285277344611284,0.4200077772817498,0.2582120122882521,0.6889209373948874,0.006419147602652376
,-0.03748992376722298,0.9785732549194397,0.15718108528774,0.34319385419581755,0.11234167643412929,0.42420560298996685,0.26600732444059033,0.20346804294751483,0.1864874797633911,0.2855357339407613,0.4284389384434291,0.09932294922158393,1.3579534465592116,0.18942135649421687
,0.04235710716776563,1.4124063818620038,0.30746229075415216,0.3549779225629895,-0.03308177921718937,0.5455484653350916,0.08318067029311911,0.14464082712354204,0.20950494831922917,0.2985920586837469,0.4980671938685165,0.3415891738892876,3.6696611779935293,0.3507936882640727
,0.13878559525147716,1.289156514347414,0.2739515661620652,0.3762738422059602,0.03930241308231451,0.5673443406535223,0.13180540686174536,0.23359734625592152,0.06352343610141911,0.2924560052757486,0.22694080835302485,0.4564279983494163,3.556565195574118,0.2997919603887678
,0.06387756235290425,1.2390353358141686,0.24522729169357743,0.6974188298475531,0.1776493219720275,0.33413127335644105,0.14411887923704295,0.29598482123626324,0.15743901761453552,0.23863755419487107,-0.1038400867715407,0.2447532659124467,2.7958720114892466,0.23442752703826544
,0.1730727027334071,1.5155786643026992,0.10930512463686082,0.593791657330269,0.16125361063083782,0.013687143096030079,0.1459442112844642,0.24124009901652554,0.3107971897375809,0.35011224476968006,0.1066581647912937,-0.0267266527427933,3.6824019584088123,0.2625656991950026
,0.3253396744214427,1.0960266686302402,0.027560677679694747,0.440129035911817,0.07304868225472996,0.11579239365950532,0.30211733854012723,0.20554376755692133,0.13115267443341566,0.33527587175911305,0.3611809022076373,0.10737165945415651,3.6180172939047734,0.054750933795451845
,0.24049442143357463,0.9391452719590453,-0.05058698918919133,0.3649928075504656,0.18859250060442906,0.09753650407695191,0.4844323556505384,0.12314293149319482,-0.07161666924716042,0.11748673472988619,-0.22258317185324,0.0924152323501104,2.6133505619206736,-0.111855003705854
,0.08345811518048835,1.0138672698900568,-0.09166418364606933,0.37489380776722353,0.16460678227671194,0.08565356393076701,0.4829944619926873,0.11203287863790615,0.03766369236645894,0.16255651986331215,-0.26754891465662606,-0.11907880782766467,4.1952632949605695,0.08968916457911252
,0.1465573203305173,1.3519237619835272,0.053883888648479344,0.26489319447786713,0.1586524039354183,0.37400931278276367,0.540813019818023,0.1109537909515851,-0.019121602573094643,0.031734023596716475,0.023186898344862827,-0.11587796652624474,2.2722976423554933,0.08694718821045679
,0.22324313209763452,0.7250605001332879,0.18809138402381612,0.4091574595839112,0.0708309534977864,0.39466654660907047,0.5289237476527284,-0.009150406475542085,-0.19677128838620184,0.03706824781424459,0.021964493243941032,-0.08649266575441944,-0.06313879917685497,0.0009360067020607227
,0.17865635436772856,0.46766644151419207,0.16383777157220764,0.6946292359566287,-0.03872669969183866,0.09309769621113473,0.15537053233660622,0.07230837685951916,-0.13359058952662128,0.19471886215687867,0.12824360969510318,0.058263209116940544,0.6282325193115463,0.08755437056552198
,0.12140021341920161,1.2813646069004456,0.0034606799956299473,0.628048663123275,0.15247200537008307,-0.13421561704423315,0.10476063550108625,-0.04459394287613276,0.07580635369853132,0.18305813937455753,0.5203371937566856,0.13737449463869805,1.318241509586729,0.06722648008793156
,0.30057529413220635,1.4048467052680367,0.017925220605298744,0.42079665678444883,0.26230743201860895,0.11385039125372029,0.1486070657395112,0.005150393351153726,0.01325562550899389,0.22521488127701805,0.4438673353779738,0.2037490811094114,2.249669369574798,-0.028016599599057206
,0.27843550783121546,1.5856626181637865,0.0052029071309058735,0.7745381984434913,0.08663334598522818,0.19334539554113728,0.11582571224781354,0.3071152430404112,0.10119276798298908,0.09663943829915463,0.5533770574906774,0.17775603266246476,4.473509626023852,0.11422262938452793
,0.12299005541495624,1.5762312984092153,0.04180792752763906,0.7952096819339097,0.13565847996071437,0.3784452524346908,0.1816230420361342,0.402686434504657,0.13679535101961424,0.21880862943725682,0.7007109745209652,0.05560030488491686,2.751973785269115,0.23455926488708598
,0.23968176447075576,1.8201741370854392,0.11632710374867536,0.8979806417709618,0.3991223672710089,0.37723483068646163,0.3741647698232645,0.2210916316235979,0.05892145561944415,0.08483181518399503,0.4962428543459572,-0.045991229999166584,1.4516602033776083,-0.03979268739411662
,0.1796113212489324,2.018284998748546,0.19525814945444228,0.9579665013406963,0.10929030369331214,0.3468789566878106,0.534272327542144,0.06811398683629717,0.009930109070966272,0.22721724729238596,0.43708958799175207,-0.09363401846297871,0.6808801689474884,0.013398848192338145
,0.41931295759067877,1.9061575539361837,0.11731546158634315,0.806771420269612,0.047141734898071455,0.3648904297228831,0.5438017132707301,0.009778562012302771,0.11558939252299225,0.0751728715642423,0.5040507686583966,0.1033334436175603,-0.1283360139313822,0.07840315107688078
,0.2694623639340462,2.130531098746222,0.23197662312497222,0.5826453757824068,0.09310506007627549,0.052288454171558266,0.18560268103499858,0.0360774715772443,-0.04629557159033687,0.1538913681378849,0.5523903760546635,0.14795799392806222,-0.17397811025553328,0.12141473824623465
,0.3301016273169736,1.679784074052083,0.2573545884989149,0.2658331842717142,-0.052120326867791035,-0.06588237945361268,-0.01717209949896916,0.06358915586045787,-0.09154982122580242,0.3504001254008927,0.16555063920406005,0.004715090716300233,0.2862406099787539,0.08641185556843883
,0.24579319411658723,1.1013209230542786,0.2159299562701368,0.25517937599656854,-0.030333423129690954,-0.1902336659497458,-0.09923085118736559,0.09933795470928257,-0.260097164971899,-0.1376209415305944,-0.5012553053843007,-0.035301442567849464,1.556809810232364,0.06352908852123193
,-0.0554676177718485,1.1957478354655888,0.024679165086888253,-0.14161870497537735,0.047219077677895724,-0.11334394622492376,0.04519286157594001,-0.18076327244090554,-0.12465301629960755,-0.11884124550281926,-0.20742805845628925,-0.10842795640648605,2.4152869616386434,0.09500325133882243
,0.05757636376014731,1.0747499181819342,-0.19893210389189367,0.03273294643985053,0.30267029797660405,0.025534533362366028,0.006917752286727456,-0.15662753444186686,-0.16290903223849224,0.16007540587976982,0.6480583051853155,0.01526541840700638,4.256756038292277,0.304958879319093
,-0.10114954930563559,0.8664935716400287,-0.04293377257432446,0.3278038931971237,0.26748933393776236,0.29720482962319184,-0.32929894108385344,0.17930817251720285,-0.08857259259315363,0.2567192727177986,-0.10241109331130194,0.022355425934985174,3.2307344543621537,0.09613756696821506
,-0.0392689767344614,0.869291333438743,0.11849985136330407,0.06349693296672342,-0.014856111039090339,0.1171941791240701,-0.49199859892030773,-0.06908235123858288,-0.10372502116672687,0.2679448926746038,0.0042697460278035785,0.07731124730101843,0.9599761800599252,-0.06806881943386875
,0.12039446683158188,0.4313166193310778,0.059882404720028495,0.18629500108091043,-0.09375783489834497,0.12819678074399957,-0.1537700518172487,-0.21620973873124283,-0.05592353905220539,0.33629936199292504,0.44796714066567866,0.08348687348398366,0.26150975108190583,-0.03939896077357241
,-0.05798963519594932,1.1729450340577507,0.1574730716964196,0.19524831994627467,0.06287804054919378,0.1636993397423127,0.04285054859148055,-0.059303970076167584,0.1878644843454005,0.2530699957006916,0.28296499562993466,0.15216426172395808,0.030598274757531643,-0.038400503584690014
,-0.036348822713383105,0.7393028434238044,0.12995786697166184,-0.0967828456009854,-0.1282303686932314,-0.018299505949225366,0.14055361162043697,0.04324519058967851,0.02864985302608017,0.2930377562837514,0.7905247369562406,0.25454407863830797,1.2799055200188636,0.1764111716604068
,0.15165692774431155,0.7357346019550371,-0.0015297812664762493,-0.012143842885542237,0.015507903892740763,0.08725843176522854,0.3053037172228783,-0.03369566696052549,-0.022626742539088286,0.2422036146744289,0.7550547376502936,0.18891767648182115,2.683467495741847,0.33236574361807886
,0.062023900801660974,1.5534360480730511,0.0683420491521552,0.3505767557186487,-0.10455195460754493,0.24810223736375234,0.3536421393107468,-0.04650058601390842,-0.02780096298225865,-0.07961995854964658,0.5178385053638138,-0.053877707557113526,2.423263042443075,0.3430565572129538
,0.08084817983329068,1.6306803738673747,0.01929833487782832,0.7619442384081719,-0.10276080597623921,0.13817017402931744,0.21850058611891082,-0.09519012307947614,-0.011463055328961485,-0.03194628927226384,0.39523480330565325,0.0375359279302083,1.9094399691007964,0.19532164224259344
,0.3533988796328935,1.2011146157702508,-0.11301118895663288,0.4469403884149445,0.022141372427940644,-0.14095711254402743,-0.06568843748152413,-0.13292066202263686,-0.002596727721877552,-0.15918529245205312,0.07562311168438404,0.04570111865291901,-0.05362831532786166,0.05393883900560079
,0.2818709728867648,0.7773343656786803,0.03497749651180749,0.4556338925514545,-0.10642420901657391,-0.0888332596674405,-0.16850862947064993,0.06819833924669552,-0.11324854034770244,-0.3214542151471638,0.17370084731865948,-0.02045498769965922,-1.826557424309152,0.14984717733663389
,0.2754865040086503,1.3006206126539752,0.23157746030101997,0.22868351388941616,-0.08536008549683663,0.0830560023339829,-0.09843119422124186,-0.0791612415015513,-0.5155860720927314,-0.7441455298236545,0.6331531406036709,0.010872204769765534,-1.2449576369437256,0.2071877872345652
,0.2205813532384852,1.6223975907824648,0.22382486930064577,0.0922415654454941,-0.09336787878132004,-0.02951718659486314,-0.07671671773996899,-0.0786368247041322,-0.5216330374145242,-0.45794340596062993,0.20018795428630837,-0.12369741369263053,-1.2793685256068834,0.1439708975401803
,0.19737711391369248,0.9506343839947666,0.04655750489843831,0.009776552427018732,0.08975839093368461,-0.01428503497334009,-0.005249827548460009,0.015527357462191818,-0.33572916817942605,0.07825256828774559,-0.13264548327826745,-0.019424171092329152,1.1158611306413886,0.3073830211374608
,0.060155333101831146,1.1332463665136894,-0.0056010896668751,0.026732886145490974,0.23492557315332774,0.05119951044812213,0.15174845988009122,-0.09018315354578449,-0.06097155458481218,0.02573669094873218,-0.1854536789189121,0.065738006419579,0.0019676406355755884,0.3165232287758705
,0.07068202014166519,0.8847260968041858,-0.01761182556751744,-0.1967486189248714,-0.18536124280835625,-0.09068895836447158,-0.05373147141841302,-0.2947339270697006,-0.17091123698482816,-0.14348554743891706,-0.22712867494411546,0.11816416369648107,0.5000844639678431,0.11570852260836333
,0.11863692812022537,0.8057818830352712,-0.0660648451021474,0.19964900564856583,-0.3067673340912661,-0.2072418160708598,-0.18152493167919165,-0.16209275612764798,-0.25616785243844015,-0.28145297662692437,0.040036519217877535,0.010094431311669991,1.3356820282057167,0.12658360459478424
,0.09104252136482861,-0.510927319992492,-0.09332556839901167,0.5697514727780297,-0.13621123241482624,-0.3688065895357879,-0.2592153222722373,-0.033535263862864075,-0.21951792223270494,-0.07456195635801105,0.46530775965843835,-0.19861833620607852,0.7105654786575383,0.18333922702278677
,0.11974426706052507,-0.3609917354951872,0.0027412382949856097,0.25304493902530056,-0.057274548239887826,-0.1477753786352936,-0.04839642897641126,0.023078245893292024,-0.05345844908647107,0.08352265787117161,-0.01319312564729858,-0.1044141963891413,1.130136758193616,0.1990392146678651
,-0.1633292092653885,0.3447132893383433,-0.0123742960539411,-0.15335805288985985,-0.06795822972559376,0.08452206049356892,0.046744872617892536,-0.04250631311903672,-0.005053952582561832,0.08545556365514341,-0.5346436420055821,0.04087637922274922,1.8617234096061712,0.12727732364130068
,0.039754411932402166,0.5402249966065544,-0.06846981953724525,-0.06812066022308928,-0.0798555780677429,0.014223003251673234,-0.09079703096032563,0.11457698821947099,0.018592183795319763,0.09089385996765544,0.11433152409912342,-0.14559133637332627,3.2213839721087782,0.14297971951007568
,0.12367682304649479,0.7931855956132078,0.10625765466576897,0.3077225015671988,-0.13493513536717539,0.04737776105942316,-0.01304088512979601,-0.044609749171747835,0.01755448859235424,-0.05452988776602536,0.31005863824908186,-0.1835689277702711,2.6558439747021167,0.33153569804853056
,0.12570730193563773,0.6559982640196713,0.07237421338589126,0.5442409815663238,-0.07731110097864731,0.3165523692934555,0.1255247712498264,-0.22937171904863524,0.0022067384598659415,0.009172976654589207,0.21464141761061364,-0.015154725197069962,2.4101205322352297,0.1807421238146539
,0.3685515119688461,1.150221249913491,0.08243612666525957,0.5010349684065081,-0.01384288929447649,0.43153010957380833,0.17440909225049206,0.09019697396469031,-0.25072316081974727,0.13748948134903788,0.3962609507878917,0.02251846406899556,2.8484666399173872,0.23859328786779385
,0.24192633581012102,1.2489569039362831,0.09710607901968316,0.2953663988344833,0.3047837604057924,0.4482150799413683,0.037757732930138864,0.19184493216244466,-0.12809606546293872,0.13614014059393648,0.789229477672677,-0.08247301225257789,1.7438682690636909,0.4207337693142579
,0.05150182833448202,1.2347172895694072,0.3100237357513124,0.44216246863613373,0.4477894151149117,0.2299154316820736,0.12382150094566037,0.028396410745822515,0.11619430139633286,-0.024997693235752554,0.7108697866553219,0.011732803087005307,0.2958827025757184,0.2550712122750762
,0.2365728653653217,0.005091444322173581,0.2633926362893764,0.5705568790992787,0.2377544358457105,0.09230025060797747,0.35128540830570404,-0.14117267935968356,-0.0004851974403144096,-0.1648452270907207,0.2977480606911835,-0.10638002837287122,0.5783626161221468,0.10721340415636349
,0.14303901755586584,-0.7461341832150298,0.2039681536625808,-0.012682793903184175,0.26496008966853757,-0.021688582022737893,0.2106463015982785,-0.14961018533154735,-0.08012406381033378,0.11859094771823488,0.26908121634497967,-0.19705344842558256,0.7890684260950129,0.11654535428580806
,0.06596366033568314,0.0850180400010851,0.1668357917533154,-0.10809214649575039,0.2835013175167902,-0.07433899407743899,-0.062320114007175485,-0.01303144213913822,-0.06439463888275854,0.4549117066787379,0.2681059841676377,-0.0206589120073804,0.26254017167726157,0.114876111238924
,0.23419831643633074,0.950845637306238,0.059868164814553836,0.21598861574685574,0.2977780349270445,0.2007026001825582,0.11022370221342388,-0.020600313511821313,-0.15843019188974133,0.4316375323879455,-0.36807377728436735,-0.013175525552771131,1.2640659084948866,0.09227248364501038
,0.12407609414284708,0.719925394590122,0.10624899349318434,0.3648102233974307,0.23508156470930297,-0.00679077303073271,0.10781252489969609,0.050834452321274835,0.1817487052663779,0.05891529042393049,-0.31748731920128803,0.0982903728413661,-0.24416659964725118,0.24139864505825434
,0.1867933491004346,0.1741781461277245,-0.02499490366477721,0.2875810367801736,-0.02762961580826691,0.11110580793262566,0.10909946769906183,-0.03593620818534674,0.30396321899619205,0.08697904127843178,0.05407968023245089,-0.06288912163251295,-2.079121186890874,0.03426370977998745
,0.05242762710796908,0.7893850876589148,0.02697487009648591,0.5626946145624965,-0.029957053829794418,0.1915389392769941,0.20282140014852254,0.09273171414142518,0.15531851559117302,0.0367762865354463,0.015456380083307355,0.012239100539233681,-1.2936066155184087,0.05773509215661729
,0.004767163435603783,0.4112671312226872,0.23085077237738114,0.6429262329813321,-0.009495765303116473,0.13487548713295192,0.04479709065493442,0.04423596842653355,-0.21001050011770972,0.057777336852140156,0.035171721398625955,0.08329050327984971,1.0298764107282825,0.3055787709502886
,0.019491493132618946,0.571694586848948,0.13767775740911087,0.7024100961722065,0.05234638229281749,0.3034080493110574,0.40788322310296526,0.10603109929487763,-0.1268846093268625,0.1606141403272011,0.27936769729358074,0.06404857391191107,1.8478377082678072,0.2972556951386221
,-0.21018374581395013,0.6362546184857809,0.19081589968490048,0.16513894925711356,-0.08202699821429964,0.309511317848868,0.33972262920964097,0.014551750325242814,0.022648246230604054,0.01648447490375549,0.09030711759622913,0.004928094035122074,0.3209708533359302,0.34445194733382306
,0.06089426003214608,0.34502176709750726,0.12009362242787533,-0.20020859926907525,0.04121250198344673,0.1750731670511724,0.046667126139075206,0.05124704804405349,0.04901136631189357,-0.05450334649028784,0.38487109689865695,-0.03640683125873043,-0.35246170874443317,0.30516930114028756
,0.12490390712529884,0.07369018284362709,0.0887967622610429,-0.16919250884881967,0.013449988587550709,0.07172791909147617,0.05154319771178207,0.06901034669743623,0.14832692336810066,0.4317155054352161,0.35799199290055966,-0.16861088245269745,-0.3101793267631553,0.1402667774033755
,0.13280609670861981,0.025316741358057886,0.11965243123849738,-0.29161176543951717,-0.1204232353656499,0.010825906456054312,0.3089319971761303,-0.12388575820200191,0.01763681027773709,0.19295385689888772,0.22845676650296132,-0.17345133969864748,0.12370255629028083,0.10006797563432714
,-0.025977552633580134,0.38767252265539065,0.11964422531560988,-0.18720707411358692,-0.01618065803066277,-0.008450406459740257,0.10250241630057531,0.06274808372630176,-0.02327674200632753,-0.014501132411784546,0.14124355643911382,-0.03189897625908023,-0.19689701807382098,0.026770541513598655
,0.041383192345920194,0.6411679624844074,-0.013978991979457471,0.42951447672536064,0.13915779285344382,0.07048163480899827,-0.03952819019907207,0.17866846228097114,0.03494734724517666,0.02036561647316193,0.3604559295273117,-0.022180038118289638,1.079995802213443,0.023708270661032017
,0.18868125191116208,0.305041859314325,0.02296659039634208,0.4730572226397749,0.21896463966914376,0.07024952961351327,0.09565670886804542,0.16558569349273566,-0.06955789086837183,-0.046397107196027194,0.04891150276645927,0.07938605571148055,1.4175073737227866,0.09945542291235998
,0.051952162505425815,0.1167623898277906,-0.022317327073392654,0.19926018053682665,-0.0007430834177220086,0.22310655234203472,-0.05433283354786875,0.20234253147956266,-0.1244133663547868,0.231277057795166,-0.008148102630601051,0.16004017077722543,2.486549166315831,0.016552059542185586
,0.13658767549039189,-0.6912894948796536,-0.1998588817593471,0.3671493162464603,-0.07594114198586947,-0.07490790086636706,-0.18426517337238124,0.18504456749710851,-0.271618161377039,0.2835432115555797,-0.15793391697480622,0.05989626330640903,-0.42957975276446464,-0.05076493317452819
,0.1607633385916206,-0.4787311667700804,-0.06910302742198159,0.29800501497787085,-0.08886430787571419,-0.2601130369871542,-0.13006739197950784,0.20630901557691422,-0.1446117834606872,0.1634341222698608,-0.1628869655403701,-0.11865492220646498,-0.35745255005869064,-0.07832869404739781
,-0.05487893134423458,0.16753374532184875,-0.1123808599534345,0.31519621467039516,0.09259020730023108,-0.04222336303485716,-0.029435426187833284,0.039916856759028646,0.0336214693687817,0.14134092507958232,0.6208175056841366,-0.2351006834566658,0.5642596066641509,-0.058679464290737386
,0.06089271208700736,-0.028224280263469768,0.05718362100147487,0.2798568436196383,0.1973258878835744,0.1585679365576282,0.11017519717313663,-0.04777609991575136,0.11316632398998681,0.027809713734515747,0.42543907726112395,-0.2263999790956367,0.038661372174187,0.1873010794719825
,0.06256104887433386,-0.6797864675333255,0.029698810292051743,0.2523353340854757,-0.11540482882779747,0.08818268546148739,0.23499117686213247,-0.2730918110232932,0.017427901777092643,-0.3250172010521257,-0.24832835682494048,-0.16745645509786564,0.2508621165517804,0.22127369208035572
,0.07063501379001146,-1.0506194503439663,-0.20628291305034235,0.1203213486651091,-0.2749000402061004,-0.1106848321225326,-0.0667851916015858,-0.11165558272223111,0.03805807761178111,-0.4585395339304046,-0.2603413093368245,-0.08554676071454334,-0.15692063052569657,0.2553944579790594
,-0.003564840235329806,-1.109295972128899,-0.27329095085027705,0.06599663573708785,-0.24409152636331705,-0.2445346498711811,-0.23252246042928446,0.02621301404116855,0.12041258413332101,-0.17531600653618293,-0.08241115705800826,0.021965026333801086,-1.032235102409598,0.21762462204356242
,0.07396655346098736,-0.7995881845558002,-0.13551010636598199,0.27508086575853247,-0.15614643415811333,0.01734928313091878,0.04114865197262119,0.07768176767931115,0.0014352552456405004,-0.18315695949370636,-0.37244977291437176,0.1391159763894866,-1.3396642608808866,-0.15555621173857948
,0.0929198698233046,-0.42025638967323714,0.12249868352726402,0.2354055110731783,-0.0709463469803231,0.3992206991059065,0.3647513787874907,0.2354994169521564,0.024474803736280807,-0.2182740329436974,0.05196504395396659,0.19519326939588297,-0.28100998314416625,-0.103971495559993
,-0.22267597402868355,-0.10747948581457883,0.11498714335609075,0.2932827013828864,-0.2325524000262882,-0.05799727673107076,0.12149107623420169,0.2567608494668372,0.0754086288679778,0.2138545322311903,0.29374784360520023,0.25959361999462605,0.5408779418363239,0.25027059196583185
,-0.25926152832641247,0.5083063769938011,0.1792995945020317,0.14858636226050081,-0.011668816521259607,-0.18854420596732713,-0.07112172200154476,-0.043392762169748994,-0.00029777452912182415,0.11768475375155824,0.4460499936146499,0.22406847573525238,1.1823913645145772,0.024649535223012796
,-0.007801619271316603,0.7552221194659144,0.005253706647972593,0.13677193431140938,0.05440774751101839,-0.13609238572148538,-0.16065568176406556,-0.09346011362418498,0.0550192146562456,-0.08020600793468635,0.07947727634169391,0.1775314976796702,1.3967239866691787,0.03348608476364671
,0.18266647421095172,0.13487181566782488,0.0033320651336598154,0.4017690240273794,-0.12141636938638575,-0.26610578519195827,-0.19694278716709157,0.03446914006348826,0.08174182182462689,-0.09422059430685813,-0.07177567598667131,0.07757758881046399,-1.6487571300393025,0.2465473015020895
,0.1612423725276751,0.8505628671178173,-0.008133725089590012,0.6234958013211698,0.03880135990152307,-0.14226546615399818,-0.03498018906124986,0.03042935439373287,0.1297338867867746,0.011453541195758669,0.30362022683206497,-0.07847087384415721,-2.766734937319414,0.09878436441518551
,0.18503540438829566,0.2351438834102145,0.09325021706853855,0.18899641377392504,-0.03306782972317918,-0.1833612970649237,0.00810999382617821,0.14996118588559854,0.0269168554108498,0.08505627662234656,0.22424197732937867,0.007025298865512754,-1.5983069939972705,-0.03903702654794687
,0.1616567367155346,-0.025057911096001983,0.177061299114236,0.2368705894085484,-0.006784752826708607,-0.19157344818513028,0.008025557206292895,0.21089327061383364,-0.017328345640217523,0.15110874505185523,0.4076330277494304,0.03779540309000814,-1.0927052805122766,-0.21398421134419124
,0.17139675292969522,0.2592773418094418,0.1167090249662358,0.3806100096962235,0.03382246738661473,-0.049097405648441304,-0.06798711402074867,0.033185046074269454,-0.023723553153899575,0.27736862420397485,0.8091585950898721,0.00010864460057454734,-1.9636133313790785,-0.06093064186569968
,0.18220536658410139,1.064784677501451,0.13892897221874279,-0.223899087632531,0.11742180340542496,0.22332967239535595,0.26930187939508454,-0.3003730571064241,-0.1959723864150452,0.06629540652791475,0.4687181146837862,0.08836700809386873,-1.4174430884827431,0.17537115917170473
,0.14361822674970087,1.3486426219614498,0.15434798140339384,-0.09696306036045492,0.12241760052381853,0.21045450729076934,0.3122000993432282,-0.19040988727326225,-0.16634056953387694,0.18492164569301886,0.17330425268927038,0.036507462111156824,0.1659878002638462,0.18215515928392073
,0.02702176092886909,0.456402777170449,0.21815496826909267,0.30026381179041567,-0.05551070754268221,-0.062283051940430385,0.12118208718142391,-0.09182662961149411,-0.32414561196507496,0.35056247960156006,-0.2999467696909497,-0.08171389326276034,0.3052149365480415,0.26682153924127916
,0.1700160811497515,0.5243926394813699,0.030473955290634337,0.30893328094483924,-0.1561237715043151,0.007061282464769621,0.06299236992719796,0.0009338586623898025,-0.3864458790767984,0.38122197383647183,-0.3241777828318791,-0.0616412042629731,-0.051824331486605583,0.2244842390770841
,0.3299667316747871,0.4624494889849662,-0.09829331762176668,0.3430470125758694,-0.16831946205843154,0.1507512172307442,0.18772649031335922,0.0808294655220433,-0.014228952712643213,0.1478485108780907,0.1152480645604316,-0.07308112489467858,0.10005768415395791,0.21708337239025316
,0.23594814800438693,-0.2788139559281395,-0.019767020848944248,-0.02131785641235868,-0.1571949058962826,-0.29835589745382707,-0.0317014411160509,0.1656777930110354,0.055354679509744945,0.051109327428301016,-0.14401034839762886,-0.14203299291686292,0.8069630527240662,0.13849173869974993
,-0.03087933355137289,-1.3028296536976163,-0.13590024642526352,0.11171586014331591,-0.04162938697715441,-0.353230751489585,-0.03987855203612814,-0.0023415562698507275,0.037479473364936775,0.26616787097110123,-0.23171157271140733,-0.097203177593842,-0.3588504265965236,0.05137177661655459
,-0.011276281755778956,-1.1030015370259698,-0.0724776019450871,0.4404081645375306,-0.2569656180731872,-0.03727519479183606,0.17944033941816015,-0.24299201951185434,0.012160185993344352,0.10081038800226548,-0.06386530717936385,-0.17736170514257224,-2.68504988888733,-0.07450585667196669
,0.2777939687731749,0.13597823057597405,0.16723967604221068,0.29474201249845117,-0.22304023472377862,0.035932279173712174,0.1741574803264181,-0.04719629369543574,-0.022742718368898223,-0.12775197361810642,0.10174575289335244,-0.1637911896946363,-1.3276314972794043,-0.13128256369401475
,0.15660610482939488,0.5974681170206163,0.17935728968743767,0.07106588633480011,0.023727796928338225,-0.0270462673114211,0.037816353107994985,0.21609324304242364,-0.1143931580790253,-0.3131174041744928,-0.0654025862887531,-0.07066366008547609,1.5746968377851243,0.12959587669534728
,0.1815282179661537,-0.08913602442037676,-0.04530091427651472,0.2971685185422545,-0.06825762480005124,0.0157461362312551,0.033522592573036705,0.33765367637947247,0.012209736641723723,-0.37361042267723005,-0.1229530904784009,0.011406304546720689,2.9558405516169053,0.17719509522187948
,0.34920119051329895,-0.26818263769283307,0.000728310313862326,0.3254988126882379,-0.023564958239838108,0.2617210281473569,0.2772840377752554,0.26066167916305527,-0.01988156518992635,0.18781124447562794,-0.17217910429536573,0.0364123534343466,1.8515988321718897,0.0984183099863165
,0.069707744499101,-0.4628209847039061,-0.13705093456239512,-0.22075905213557037,-0.0580976595571179,-0.31326734720683524,-0.06917361844890395,0.10070387392408049,0.021239447702611273,0.5507686803555496,-0.16136209599238965,-0.06198683254557939,0.17145442477116304,0.0560387518912138
,-0.023819616220239637,-1.1575679441289308,-0.3097850129264748,-0.3777767145574645,-0.028154534043641762,-0.4341827596020211,-0.22589713975066877,-0.06285784838504196,0.01598904470439265,0.18614352365071016,-0.10353672764044332,-0.11014273227594187,0.3417640657543201,-0.08017152506123039
,-0.07821481932057862,-1.135010037578327,-0.18540056834106314,-0.025800115129530416,-0.1621759390421416,-0.3304946623840585,-0.2807647686345432,-0.06479221346986562,-0.1924762855023114,0.06608838587281614,0.24143674717715055,-0.025612664019891,1.3562624671644798,-0.00947216499862373
,0.2969787367781717,-0.12912873163910552,-0.04749577789896522,-0.12371459379745989,-0.20051686213156136,-0.16915785523493876,-0.12586464956848012,0.1263477653009433,-0.027358685997204937,0.2317108486866054,0.10436789913125522,-0.1470881835992974,0.46519416322115753,-0.014608669297830577
,0.08130290267133815,0.44923779727964863,0.02810052942189002,0.2490179026422438,0.025305761131764824,-0.2943670335214214,-0.13725729542778628,0.17991222008678695,0.10115309345322486,0.11277715237850333,0.31052035262295363,-0.1972250151803836,-0.71782233791099,-0.04404711958444165
,0.0014071648456656734,0.38023452033884925,0.10451346005359735,0.3815336074355024,-0.1517944198372314,-0.2582675264805004,-0.09325843856774546,-0.031561353914517414,-0.08306968290204816,0.0016673986265218163,0.4748241344264055,-0.04207251918110308,-0.8496985586020117,-0.1224205049768662
,0.07818964850123457,0.33158806614199327,0.07136274309700402,0.37001621306989546,-0.2790227825276047,-0.1268316882860929,0.0543478353457561,-0.06834071885668623,-0.10745543161392368,-0.2818282134077412,0.1542192413433091,0.06843551480426979,-2.1301081874114267,-0.030631658750064277
,-0.06929912808880555,-0.36588548932839765,0.03402301235578589,-0.11101171453773977,-0.0458477261638636,-0.12148900329126376,-0.06458342208857129,-0.09245051834376188,0.14428381637338675,0.08944014340741525,-0.05697201784018451,0.006565093992418562,-1.5542859661617483,0.04139258318436816
,-0.17209727274537112,-0.34390285052396563,-0.1046510458314557,-0.1689199640727063,0.11573945438720362,-0.12568726930576088,-0.166625045828536,-0.263181474616654,0.013507881014403995,0.25490378970189703,-0.38012919215402796,-0.05486299420536104,-3.2198873580117127,0.05447761449596387
,0.14219739580276353,-0.25901227755243894,-0.15667418078737091,0.3896645579474111,-0.025717661283489804,0.06080002304941052,0.07400540753803315,-0.07977391755801874,-0.033204717209547194,0.1747210648487908,-0.2704165131551166,-0.048218380472139256,-2.4352877656322742,0.18365074233672404
,0.2617949907021077,0.1834952379787023,-0.19450886551247792,0.3597233044867393,-0.0200624137817042,0.010902729181121592,0.06379424003271562,0.1005527153682948,0.0036282450834663155,0.16019119135733564,-0.224736187084112,-0.08623014061229844,-0.7779218332554393,0.018287032756042595
,0.25057303752362076,0.5678699143663778,0.005365370571583472,0.358785343698317,-0.1657262147201459,0.12134652102538035,-0.0352189946679324,0.060929191143879805,0.04835012657565172,0.04594078580833954,-0.2361543626275278,0.10097742854146959,0.21352137813460478,-0.014260794661238191
,0.2365755882753188,0.40597228567292803,0.09722274563609806,0.48332284528179886,-0.1169059963183394,0.4611751105373846,0.11178841245209828,-0.051005948040471254,0.09998101543489246,-0.26075565230986936,0.3138812816251637,0.12605755919476333,0.044249417025369886,0.21997522875424655
,-0.004584127423123746,0.8716883919050726,0.010160696757659087,0.36053639860232195,0.0472789273018231,0.21009771854978193,0.15632094731600019,-0.08336252690059949,-0.008477988568169397,0.014589967589766304,0.46069262945333056,-0.02416838856097141,0.386454396803049,0.24838611904702573
,-0.08128587633815293,0.6358934712234418,-0.0066852901071119,-0.08594753644772456,-0.2257138974965142,0.08272218067659175,0.10578058193653057,0.07160321178622009,-0.18245891951178614,0.4358278756177053,0.1478696926091713,-0.05656591642515252,1.2163492366565,0.015718104604268125
,0.20262107505423685,-0.6895154871673403,-0.025221011884221115,-0.05128878045077423,-0.26806764378160935,-0.16414590916060048,-0.16476226710955713,0.02617290779184506,-0.24116283321082096,0.3676483036542478,0.3759503259084627,0.06443660073450344,-1.4294661947883296,0.2037811686877107
,0.04236278895743984,-1.0233760030505599,-0.12787327976388302,0.10157957735905414,-0.1506735432974889,-0.11215119126373324,-0.15484153549790444,-0.09892301633738479,-0.17736474375662847,-0.05866972435220322,0.06965322835656838,0.029524037332721124,-2.2568497698051675,0.2957643679048026
,-0.02627109788364894,-1.333443504266567,-0.19861920019471352,0.05380090176832879,-0.29108553355082295,-0.07712759289287495,-0.27833172558093505,-0.09810613423138481,-0.2595635538290845,-0.14453886565127844,-0.4063182728262816,-0.02576725236465981,-0.7950171130379768,0.16921085802289448
,-0.06106085158355539,-1.2412530363530863,-0.08807854662647359,-0.1687281892856543,0.00010805378942283399,-0.0908693779086107,-0.10100293590364484,-0.019323063820339343,-0.031769434831803445,-0.108976979494063,-0.48459096604187885,0.14171440511408162,0.15859644627577027,0.12669918317201034
,0.2132290122875363,-1.2421571288757942,-0.1304490501106275,-0.28053726367377607,0.1391329120674164,0.0016103590972284874,-0.050433794545175076,0.00742266171379715,0.009034911816249356,-0.19564206497082268,-0.09585045862424528,0.03821952885892159,0.47424573503431,-0.0554904506935769
,-0.1439377766377056,-0.07241085230305673,-0.08171435380301334,-0.10751851909957962,-0.18148686095878122,-0.0009619236617823141,-0.012073213591445801,-0.07203484384423699,-0.043841860588716884,-0.18944216644776143,0.038240856795381736,0.06616779385880588,-0.22088333007825325,0.000826785411821752
,-0.07166226527991071,0.4421515353243193,-0.04704484026423922,0.02366171815882258,-0.16427325374528778,0.0702973998335164,0.11731843215458698,-0.153254699412473,0.1631650788171011,-0.11068408326869036,-0.1336270146844744,0.06741385592667785,-1.5769776816066041,0.17231488664246777
,0.006743413728070891,0.7009972433674634,0.1194009455712108,0.21042002168721288,-0.1251529086221141,0.13778087037816436,0.025185514617513276,0.039596435826778145,0.23859836928513103,0.10377191865886572,-0.2669125139411694,0.10562879289710161,-1.1181250612312539,0.36019907134965773
,0.05777368170296692,0.6075938118480326,0.03706512464454601,0.004017964389897226,-0.06679234931302581,0.14024193357349746,0.014668613564466377,0.1086298680903897,-0.06976159304783615,0.07509187751865616,-0.3386492047448376,0.08587271845604663,0.5389008541598564,-0.007414621298591998
,0.2694686980950553,-0.09222151605375065,-0.09699472186716565,-0.04431952999612403,0.15975943056042308,-0.048748628222701935,0.07920641789011164,0.04051393016638128,-0.23451287668511803,-0.4303516110417746,-0.04515657351313907,0.06416269093715388,1.693067220548192,-0.1872077450353127
,0.15833629656459838,-0.7005019143842752,-0.14590842417842886,-0.23642077551717458,0.11067625199792533,-0.1665416246223193,-0.005347212101504194,-0.14723182157280895,-0.12634325112173572,-0.3489368662505644,0.03913181821447263,-0.014734325106650034,-0.22966386196098504,-0.22469862636784205
,-0.06094818903855583,-0.021517581870539575,-0.08623432811369584,-0.046831175710800796,0.11157799603795857,0.014139795386023602,-0.043169881154397335,-0.20747505716490014,-0.1408059725806764,-0.3126123945296425,0.41320776620611793,-0.030090441166603372,-1.5854546592385421,-0.06571320509107606
,0.04602399615232181,0.6451927119475172,-0.03543892010597809,0.10848716985354935,-0.06106887375068118,-0.01287135245794779,-0.12428170533902855,0.07778817347686677,-0.1520057533850524,-0.1326590867572337,0.4177016910896396,-0.10313351221551124,-0.5679118735596996,-0.4033314656825682
,0.15826211398190737,0.34626496589828804,0.1507605465861882,-0.052926533439041024,-0.13606995593089574,0.09079323530754123,0.09733634201260241,0.09351549919088332,-0.042773107647982034,0.2566463806926586,0.2589674605165416,0.04639764993003728,0.737987221575632,-0.346730963946192
,0.03754396865426928,0.027044179010174325,0.14284536473437795,0.03764740796528616,-0.16195446637963196,0.13352872235609922,0.22895615055774685,0.08416250546023764,0.20123277274768722,0.2879345330301919,-0.014639920816873578,-0.11507781135918199,0.5361370639573615,0.13537356983313545
,0.07307919678784994,0.38793039379821265,0.07655794758156215,0.04522495075802583,-0.2894051447011236,0.05972455254856254,0.083700787970328,0.04867873847026883,0.125686028164708,0.13092233611432777,-0.050653500533806725,-0.04385575465970188,0.3938324239599942,0.0762982554719347
,0.08143857333133041,0.7980065133806984,0.016111214970824673,0.10866157021049853,-0.07187390848279193,-0.00752543776936127,0.005479434838375636,0.11162973055332741,0.06464482125986354,0.23232867422078443,-0.1104177539753105,0.09678392911614402,1.785329967693767,0.11316990639337822
,-0.29044257329631556,0.6976515300170748,0.16220881923107255,0.3846225862920222,0.12517481099126046,0.03589368856216512,0.09331136528351007,0.010679613787353187,0.029721422385952656,0.3542685761050752,0.38855060920940054,0.061442995422697336,0.5098916869083752,0.043915193782677546
,-0.15445335918766204,0.05308102139366955,0.021033822064604298,0.26617739484924263,0.15997136218093091,-0.10631581413291884,0.11171444827327077,0.00488859825168968,-0.01136516344705534,0.15672800948037338,0.3464062118201426,0.0061198783674239286,0.5673337280852909,-0.02980534637976412
,-0.09116976735620073,-0.26267280658778114,0.04200923229294395,-0.019346431244401496,0.04092722580475814,-0.24998613587665555,-0.14962660597102115,-0.053820059283987344,0.07170177102100939,0.15119664588140921,0.46381123883570646,-0.07074820056027996,0.09893729261833768,-0.02991119568703757
,-0.26406919081217123,-0.30951974465469484,-0.12488066535324441,-0.317199555023207,0.09996336049701425,-0.06463970584076795,-0.11610722916859097,-0.07009683497352628,0.13831417231991452,0.08384666880867489,-0.12007021654195987,-0.2614126852282975,-1.6783481824611852,-0.0001238677297962986
,0.09828177109320838,-0.15905271201540908,0.01921107135850658,0.015333266240368335,0.1498487731094781,0.11873754326667435,-0.10959972075502286,0.09288941491234183,0.01241624171959857,-0.17792766175956737,-0.3655581368153554,-0.09288412563039694,-1.0307780220500378,0.02413363568479389
,-0.06243674918703534,-0.6046066128870572,0.04953976138703173,0.06957392258482852,0.16093754484774753,-0.05428809981641065,-0.14523520863268094,0.00284121017195454,-0.2013365762012409,0.17449729400910036,-0.33989139245435285,-0.047987382958466135,0.5138830313696701,0.29749700016987835
R,-0.33052259294721503,-1.4914151609577926,-0.26476895891742,-0.18533782362075343,-0.20417787520306527,-0.311392287306663,-0.3290273859257568,-0.1370422415835387,-0.08573051175973581,0.24224264471017415,0.2579242685961345,-0.22396547657494675,0.8609947282961781,0.08676197882697186
,-0.25567474489768754,-1.2412705451271995,-0.15763253398708452,-0.1992449897823224,-0.34036995822111504,-0.21239891730483929,-0.25747783965218696,-0.10032607039104544,-0.04558585362076357,-0.041633797657378825,-0.34444154471119526,-0.11160412922527253,-2.046284062291389,-0.03386976486302188
,-0.20579465779009457,-0.5243255528393305,-0.02092550841496558,-0.33406595082796525,-0.2407705366046102,-0.16198434224538916,-0.204574926245727,-0.024151115769465492,-0.18196800367287158,-0.10387291166719889,-0.2465960734688263,-0.030459231822616117,-3.5234154431797755,-0.11149627543561258
,0.04103230717598334,0.2899362929625341,-0.0478810978496745,0.11586781759628076,-0.05464826603747644,0.13029346275926598,0.18113841521417914,0.1587635236447768,0.04986495376734136,0.06908380467427519,-0.46324808845530707,0.19500128011469622,-0.8744972779071114,0.07072820041084406
,0.23795390001526814,0.13514849749553398,0.0065563348448693885,0.28753067387547154,-0.13330373582210034,-0.19450316955678154,-0.00736314220808387,0.1332640041356944,0.0438488392875647,0.09916450259859527,-0.408722452045674,0.011632710680691341,-0.21027054921962438,0.10289625261606769
,0.18222686261407406,0.30960096012327915,0.08754622117696251,0.1294891271247545,0.014282667766407424,-0.18113025422025902,0.0029548724167481745,0.034955930350484665,-0.19834352729241408,-0.0935339032587814,0.02772636710528054,-0.08396056487316464,1.1351881521419305,0.1383488652132067
,0.21580565805449944,1.385511948532856,0.013955995865617897,0.027832792818876757,0.09065248219970921,0.16859926229730182,-0.33571155185455875,-0.008813681814001264,-0.16866505883119917,0.029664834967650967,0.01721089241586461,0.09607411851769496,2.8721594924415372,0.2786818320514759
,0.03834150293177275,1.572076648353595,-0.0883721246418137,-0.001535295192720599,0.10809143751020941,-0.006364636958476298,-0.5277927584215276,0.01539343948151301,-0.043449671289627755,0.10980407012860897,0.1717446637484754,0.008772009876304603,2.4937346685601214,0.46499054369340476
,0.07270807298254901,0.35937760785654954,-0.19703807342606014,-0.07467571458370766,-0.07506822816674762,-0.26810889160488427,-0.21602777285878372,-0.006180304050139739,0.20172352912621816,0.1141401894363099,-0.14628751591922312,-0.11580934936970792,-0.8299997009337136,0.22660047500399225
,-0.03371143082697755,-0.010729029128157134,-0.14917665793802878,0.11545266692384457,-0.24033536588023485,-0.3616592820674062,-0.14232314019266196,-0.20418186497139554,0.09258882209349789,-0.16194059825952528,-0.34874532430822563,-0.15200377609079957,-1.5323013231037377,0.1287025596167047
,-0.16710257628050873,0.9084610296484791,0.08854240240967713,0.11946391397443167,-0.07616592027267328,-0.07999703485514417,-0.03880983092799258,-0.22375026321112249,-0.049637557001571075,-0.07200356326704481,0.04309922230127879,-0.16147871503494818,-0.7902008703224657,0.11059329586648152
,-0.038896790536680576,0.6983744519372804,0.08542904349888285,-0.01809513727624792,-0.2890258108002912,-0.14368275962945024,-0.2915623627354254,0.05039443630145684,0.026971991063232198,0.294178687049642,-0.12422827541910784,-0.051054580973120135,0.1162552501634059,0.24453531697915692
,0.15086595855219218,0.2869770850559563,-0.07197728226602408,-0.2798415677442875,-0.2685127907122705,-0.11560345266449547,-0.2826503368710775,0.1090936706346098,0.013898480653346383,0.3737527616544633,-0.26470584095952154,-0.06567491638996234,-0.7262558323324438,0.02051895768267623
,0.2046287663040123,-0.4931112830200929,-0.042751599392429604,-0.12167575792876013,0.09135930871035595,-0.19459027158981476,-0.19823328772035606,0.09056563003507916,0.06364308449947595,0.25448988885958135,-0.20061834629568978,-0.07213445281741118,0.9130622788244016,-0.01699748487172075
,0.13423964516473186,-0.7432538367377267,0.03119770606753759,0.05959364295046257,0.28810781184831197,-0.012542135330947248,-0.16024635707250992,-0.11400075520106771,0.023013911117163104,0.346474563466812,-0.003036289025050952,0.05555437327732193,1.836736665994973,0.2941741358573936
,-0.09594107584145077,0.4842683332373237,0.18893211700143017,0.5231353568551778,0.2139859943151773,0.28659239154992217,0.0006070965296251179,-0.12950811357180345,0.03682554357319797,0.3609811233699912,0.5154314739764548,-0.05153513454401743,1.6502309109677724,0.4541436050587409
,-0.022727710465182363,0.6734232967103847,-0.0001487301641613073,0.37899784104023804,0.03584173027089488,0.18192726949013052,-0.23694428640476098,-0.06399725009968818,0.0792875753510165,0.12250815703326935,0.548043588451476,-0.08510784425354592,0.8159083256257863,0.2969565233441079
,0.04080684115452675,0.5943336134425121,-0.016026860592600105,0.2953145786704093,-0.038657150650037775,0.18525780688159427,-0.22018472691265187,0.07610425041539692,0.1803320303214407,0.43413109494209595,0.14089963806886685,0.11497257362594208,1.8824870941430036,0.032639624242775854
,0.1603830203361854,0.25339489305306695,0.14744934325044579,0.4558816491610571,0.18752244616333255,0.38416008420298786,0.08514641063512327,0.09434810129332527,0.1480324743549082,0.6629392154109794,0.09389954005925759,0.01116402138272584,1.120923209838091,0.09522640366215254
,0.35164578662807394,0.9973647562025117,0.2181647610329513,0.5763043075048528,0.22772119532609017,0.4097897572004347,0.27811758230238326,-0.03533003815360813,0.18640426170968727,0.3394333498819638,0.5066104952992231,-0.054862307657457435,1.5204254748368284,0.3421606177174234
,0.41055470722611476,1.052910234500687,0.203353198289462,0.7448361677981552,0.09075852644851914,0.40412608718175946,0.29060909661917966,0.12868263968844537,0.2850383739055843,-0.12432712829562692,0.21039909063100024,0.10901925709623042,1.034764748433965,0.1711785769066682
,0.47579711611251824,1.6995885178756724,0.18828711693956632,0.47720486162403686,0.31725210846695356,0.3689857633716023,0.15121770537446907,0.3247326166008215,0.14181753589841242,-0.0913704037730786,0.2071816735984941,0.2280338831929623,2.0563705442641425,0.2351406471387948
,0.2126712472213635,1.863932259737983,0.07190775164529917,0.5560966555591803,0.21749643221489426,0.4087915023161314,0.03476510590972577,0.31078419177529515,-0.10164228462784203,-0.15532167565268123,-0.39569725826078134,0.22866279460436026,1.6862612838509476,0.20304245206988658
,0.21731087466041832,2.0572789385230554,-0.01246473773281128,0.19944552945765473,0.2403700320525361,0.2881202280288344,-0.09753454336353169,0.18979963749258136,-0.10143269197955264,-0.31287659829444,-0.3490753048071372,0.10960824239807647,0.2731727068242744,0.10637262195486087
,0.35991968916416395,1.3518307166931165,-0.016312401112627207,0.41736193900456037,0.2711195657658285,0.23464433933618914,0.04035852817621663,-0.0486607635067614,0.15683606058963104,0.28512923197627044,0.08066546805844284,0.05150646519861777,0.4702034362250279,0.1491457519303021
,0.24088921465186686,1.0201213557446043,0.036078457098596646,0.6859978731457239,-0.01610945508121384,0.2764960583023242,0.17710385842469115,-0.06472905387706837,0.23891667421825102,0.5131040887707279,0.5743918501968601,0.08233739249406198,2.2388195873627583,0.30133695892938883
,-0.014552669372808262,0.9951963435630905,0.15963014205153525,0.604372330426671,0.027332695834032243,0.345459796336314,0.23885422529373315,0.05052961893465741,0.10935031353112383,0.3346680700310281,0.5022848577945948,0.24245903827058238,1.491374152293159,0.29596742120391184
,0.05155492782289984,1.1198005490121203,0.015656812957820156,0.030173766649557,0.15606414017727144,0.3805646837240769,0.07754970111150442,0.16259533482369906,-0.002509042489315205,0.27517659781477394,0.34491377376373483,0.24281351820545344,-1.2383343622747252,0.12367439992989102
,0.43127787787124694,1.8673841876549184,0.15223430700592905,0.21083994096507563,0.08686893594277417,0.47861366534852906,0.23165017154028902,0.07664919325902163,0.1363464275935336,0.329441769120807,0.2698366295857301,0.20190750883396463,-0.072611125065545,0.21354672179722903
,0.2937448313954721,2.241750628102836,0.334897865380582,0.5586295388237491,0.13109629273148718,0.28855741894102144,0.4174613853668884,0.006055080862126965,0.21161976427607454,0.1669595961224699,0.27675858366089606,0.05490100348506167,0.43415771794343294,0.35243941133121265
,0.008131866889632973,1.9220550466284383,0.10675972861308114,0.642271541504805,0.14651205460571645,0.14735435419740633,0.21019659441026387,-0.07387793512536683,-0.008706462422628382,0.08611866364552619,-0.25911648939745163,-0.06991672524746509,-1.401987634269531,0.23478248287150336
,-0.010241630261120136,1.2091622123224604,0.1509259363456019,0.49276590272623955,-0.04987871903093417,-0.03154053231856427,0.06403340925050748,0.013444186032072382,-0.18471801634490456,-0.05365219524997575,-0.5366909832519301,-0.03892818011271439,-1.3792571245049152,0.1321561030793982
,0.0265117159276436,0.6053254450621662,0.010565329104163473,0.3759415282452088,0.12671807817518513,0.14605928142704572,0.19324619401826426,0.12745636872858815,-0.20353482343995272,0.0003061053371943174,-0.27765831232961796,0.07804693724221261,-1.090216835727009,0.22077784870316308
,0.181743921494431,0.8208184129002076,0.08447578993594516,0.616334330494279,0.14423397762238305,0.17841158664227452,0.28896963174002926,-0.08422065094855659,-0.009802151294774495,0.17186232217652994,0.10162691836280849,0.14596257095610687,0.23812032034424566,0.2764241271196484
,0.13282016526196824,2.2749030771018286,0.02601197925651849,0.4481266468288381,0.18215444180993162,0.09950971481334853,0.20252664326433353,0.14707355530832142,0.03168540904264366,0.04521587224791564,0.23245666061437728,0.1668444251324145,0.17768801331568432,0.2916724174981788
,0.1525550867019645,1.8727526208245908,0.18143097078924803,0.5480955084457875,0.3507563548105891,-0.009400294901479709,0.09346741329430347,0.1859501257718636,-0.1986337590370247,-0.1460993008193035,-0.24329365743183215,0.2108319784412724,-0.5417772217542136,0.26138402933734667
,0.08559808920456705,1.570680249685722,0.09989897501016975,0.5236763231584443,0.2534974060341561,0.29311035490198134,0.2859947192580213,0.0683157787578205,-0.23644902734900297,-0.06484982190569392,-0.03608232781812439,0.02507789948707557,-1.4201015180913008,0.101563651848465
,0.2907852486330998,1.4825868570563456,0.17691539302959647,0.6351733551174078,0.12449679189161304,0.5840088220711571,0.3709665190596672,0.16045331007068525,0.09528164973164749,-0.12473108678390538,0.45231014378417045,0.18322764771258968,1.511694156782827,0.034257724558828126
,0.3674268166968717,1.993752273299343,0.309704162077065,0.6772033727157974,0.06961952449036607,0.39788663273241254,-0.49788230325872607,0.19220949080477912,0.19517145008149767,-0.2994458499242366,0.35712481595298845,0.35052869694121674,3.575626733438422,0.3130826013705944
,0.2080657526833351,1.0176946124020674,0.17458348079867594,0.6746388438128984,-0.028040518881215514,0.08119685366295588,-0.6477554947481451,0.30721019291025026,0.15253937064495868,-0.16250886396000574,0.07853271326507195,0.2392918519693411,1.4667399141658515,0.3204275005806948
,0.08863699703442182,0.1647333348873424,-0.049688936872027245,0.4710154149393833,0.07910785316432534,0.2653684290832832,-0.017379531674872783,0.17517393948208843,-0.13966796819887312,-0.04765790924194645,0.15576715462443133,0.1908355808350453,0.5220649232677658,0.058050540433393
,0.03958791781462859,-0.11386105937326874,-0.00481682416854705,0.3315560386829437,0.16774034504332852,0.29195105642719116,0.11871814931555581,-0.0733277237799374,-0.11500836725164076,0.3588914081636413,-0.027654202626336555,0.0041573532985814034,-1.1015609876541348,0.0707864524965349
,-0.18810177321321694,-0.2388061356369455,0.10066073629827271,0.25128712568938383,0.1934574504725326,0.1775256195728338,-0.0837397985757578,-0.14901042240307932,-0.1485622673087575,0.37346573443544273,-0.30409109852687843,0.03742389197549864,0.33562137309215273,0.26893543731631897
,-0.14611857647152182,-0.4711769868589647,0.07783552154841926,0.10412477240953723,0.001562309739955009,0.073740343091034,-0.13117604015114748,0.032671842678272354,-0.05802018162325596,0.33045387639663376,-0.5287223284593757,0.03138948497130248,2.4249230388468423,0.2849631637034682
,-0.18964699303444824,-0.24564716588489116,0.03613660248940832,0.006996150262103859,-0.22037398800387237,-0.061602408370920396,-0.12392879310094479,0.0467857081681301,0.09963503490781987,0.24601084201118287,-0.6358243359703368,-0.08576292439853399,4.457527747161683,0.3708038463779599
,-0.09497531681904707,-0.8970107745038371,0.07680348028450663,0.39615602601527194,-0.2843097068583408,-0.11859679667858268,-0.055298750609760895,0.04881421865190649,0.06480889231547575,0.3317945201715432,-0.39104656894434625,-0.07715691449594618,3.5926614403616735,0.38325418110198023
,-0.07373816174997541,-0.35788823052810176,0.1106436922799104,0.0646185944024813,0.05012185440131393,-0.19606795929718582,-0.010427506349289607,-0.07228167039523534,0.15858056663245537,0.3935586126771283,-0.05582649481082009,0.19689435581770515,1.60348397978359,0.2984256969863951
,0.18321943026009493,0.12426026347802548,0.050607870284460454,-0.3265700751123394,0.34400545469944827,-0.23458292593621,0.0036999033921784746,-0.1555658846036676,0.012883356424739529,0.4394513740470822,-0.19331143558487798,-0.0401961372846537,-0.17727787454648034,0.2779923361611252
,0.18366163969442428,0.9169692354051161,-0.011759255215418794,0.0007663115240311427,0.3660918496121806,-0.05258290477197426,-0.010801784277777003,0.01996425438796915,-0.011568308319971134,0.45226123782650507,-0.30664564203741645,-0.0648462596980266,1.3440753909794279,0.3050018064792129
,0.11020408119258186,1.0216801939985383,-0.10503091120507715,0.4305051529458599,-0.004406917748927344,-0.08833038793385435,-0.1015563660619556,-0.08317775865574129,-0.1157166219755766,0.16351728631688717,-0.19455877657850265,0.04418563680417119,0.976470308458168,0.17784927192649805
,0.08584425883568693,0.7403596714178207,-0.19752169134412234,0.46773392338059505,0.02269398128655501,-0.09302191481415137,-0.10359192211563538,-0.08150282354151052,-0.003671453842413344,-0.025182072496920425,-0.18056746667839685,0.06706872338113283,0.1137057112262492,0.2744402328469243
,0.028722023024741316,0.32245400679579217,-0.1344144510042868,0.7191280282546276,0.23772355939117806,0.024571460394883782,0.10297034723811253,-0.13775719522660365,0.10739267063856503,-0.034940379928375905,-0.4420553463278601,0.2939709822349113,2.3873632061712557,0.39857426236608234
,0.15627562658249883,0.1148966317613984,0.10702978682820358,0.526671403379446,0.07255199070779202,-0.20060746470109309,-0.2613868728394133,0.07633085125313523,0.05324390045895346,0.14831426304525216,-0.2053096452545958,0.12161806542869272,3.2764763985443746,0.2734825662850769
,0.31111487384528813,0.1296666192434508,0.2314568574089107,0.37217748150080154,-0.10691797323738807,-0.13375924965940436,-0.2213550248781865,-0.018494484482770412,-0.08990916734690073,0.3635033824478202,0.5153515185788761,0.05987221151654916,1.2246328850147088,0.14052900364235343
,0.10806176761568803,0.14636833973190175,0.10277406618368183,0.26705679527461396,-0.12572183260434552,-0.03190886259737039,0.11555205324055089,-0.14251538183865228,-0.17624862182983153,0.06329344266628034,0.12948372411200582,-0.04901204387198822,1.0733457291316286,0.03968564141096179
,-0.17817838140475964,0.7594580518339327,0.11250942486206908,0.47228995414977565,0.1880348439837518,0.18242398394051834,0.30256526620007357,-0.005676559042987749,-0.061893207452334315,-0.20985736270535382,0.12400862861984194,0.030070793087345647,0.6631032473858741,0.13250943977095145
,-0.14147822572669808,0.3436293795672826,0.06048109370166627,0.27163818073253143,0.2919108394127734,0.1696476220954077,-0.0006490046252301886,-0.07126950997108553,-0.12086772805142976,-0.17919275537428936,-0.5688476940951822,0.1361304519615323,0.057864933555232104,0.21529441834881013
,0.15267766254568976,0.6360655571149232,-0.010821404173987234,0.06208407174022135,0.287127274238112,0.2975809429689721,-0.12968544581532956,0.01827307739326726,-0.007176229749700753,0.00483198749426456,-0.5446225585737426,0.21272936643926407,-0.3000147771520061,0.1063650685971116
,0.2500480978662798,1.261245525368137,0.01913219780244112,-0.06189909397794033,0.10203200444041761,0.3919424370191445,0.16703688212760714,0.15766321919689108,-0.01891120622740156,0.06882453145653306,-0.0485826977250806,-0.1459462544412027,-0.3383005802700314,0.37633784906216605
,0.09605279982652626,0.5140930572740827,-0.08629914438663731,0.04187549132319138,0.06955096764183517,0.14582367713936284,0.4892755117675839,-0.050753082039710434,-0.08211879876662315,0.46734585217255625,0.3080840780467937,-0.25288937138050244,-0.08867616596748945,0.38288456180359726
,0.12671586021926637,0.9338469949071576,0.03361920643956589,0.12326345986366051,-0.011009891880899042,0.22914277201406041,0.2568831721423055,-0.029114772406933602,0.13470352623319007,0.5257131838651568,0.17146470214286622,-0.0005830257245392146,1.2088588209756161,0.4632970448636533
,0.20412910586127875,1.3417344119122194,0.1317928743362332,0.18465087824682944,0.016866403869718088,-0.08988361067958642,0.2938768986638943,-0.04076460987833397,0.14508652142022288,0.30568456534581756,0.0650225379611402,0.07792433051717466,0.9156535794464941,0.2693882900527442
,0.06409431311566746,0.8078224412641362,0.01862742679273355,-0.08675061883468316,0.04779851618836667,-0.021275322489373673,0.04379733246198104,0.07318156321158859,0.07823408136046216,0.41568480180754513,-0.16600076963342011,0.24380840606421209,0.42938121462113327,0.18768556479518952
,0.047045619471580834,0.6655328326893158,0.07508845672525141,0.13044412400431135,0.2254236131518004,0.24918989222291693,-0.06424472443485954,0.1713490703673331,0.05981826344886593,0.3263770832490083,-0.4255936508644948,0.0396753175936899,-0.5780940153945423,0.29823561573726504
,0.06323088312419524,1.154656618333645,0.1254762901630696,0.23004577958793418,0.36469502569358153,0.03194269976285311,0.060266127664394875,0.29299305602653913,0.11978507719003491,-0.017875310839590045,-0.6113413653511527,0.044908506466423845,0.8240869416474639,0.3725691119611645
,0.15139209790627586,1.1990305124015481,0.14989066483865968,0.209580437751935,0.27535868020942894,0.11357239986731038,0.21193391198686565,0.17529408477880026,0.06449743201591682,0.0723636888249641,0.07717356699975095,0.160195566141078,2.9786958446938097,0.36030185741813253
,0.16053228868509667,0.7138026412599932,0.051409665914381134,0.5083647710773487,0.13795288655037796,0.1090457026883324,0.26598706651062537,0.12785041023311428,-0.012339561857208697,0.049802272061998325,-0.17524954036245316,0.19280453808702233,2.0349123764084283,0.2500259572823858
,0.09592697276885442,0.46211236815486295,0.12427264808221326,0.14248622687389526,0.029601923679364896,0.02940865024767152,0.2014524124619396,0.248301073839693,-0.07081995656509849,0.07860369095211876,-0.09998302409149898,0.17898017977936667,2.5746362283790445,0.2652566182266214
,-0.025282007890439592,-0.020624754006707092,0.13284994256948038,0.05476172275695237,-0.05141069994531621,-0.02503107992149483,0.24993180463169193,0.1863544386773001,-0.07327420074770385,0.06485230012935742,0.7078493149095088,0.24703209564224024,1.3610691366282985,0.10397889988041883
,0.20349898706025954,0.12161534581237737,0.15422503854469685,0.46442606779144857,-0.07576006562186194,0.11593737655611898,0.2867411439624935,-0.025282170937847025,0.072174013089273,-0.22734297941563586,0.3516027639520709,0.13585866400244656,0.8866793008637534,-0.01703142510716763
,0.23671578575489455,0.225680489490005,0.08790026196860078,0.588307743476969,-0.027306866127001398,0.09895051217960942,0.24747802999654658,-0.035593225017181915,0.2399534277177217,-0.13194676757704507,-0.28648493858573854,0.11937352224279194,0.2743102756809802,0.21017422691720253
,-0.04419673767188566,0.33139616760510654,0.19447207566009322,0.5021773910363118,0.11495007203851075,-0.0969796935608839,0.07462927522439468,-0.05792860045023684,0.24521780666256351,-0.03752778875127198,-0.2701856396204237,0.03350772111299374,-0.735783506388791,0.24101423213174267
,-0.10602076673861957,0.4093631399156077,0.149005060652661,0.11556762055863379,0.12530758225325703,-0.1374975454513621,-0.038081167063630336,0.09774344485702832,0.027810390832760715,-0.1345255120761103,0.4876892845869918,0.0008116202882817001,-0.8789615875885917,0.25587551265578046
,-0.01634945659380467,0.17247831710430125,-0.09305218956229294,-0.06541396046415762,0.12109095106275256,0.0017950713376480424,-0.03428747315023012,0.1219426485670911,-0.10307137041586281,-0.20773279249664064,0.27522304333519454,-0.01457853322853104,-1.9814482405152205,0.1792351883259155
,0.03255909369365134,0.23678251218199972,-0.02759021512195707,0.2302324453545902,0.06918043800468955,0.06578733108839073,0.01773919533238543,-0.09755993763826133,0.022582685677508294,-0.007364181768827549,0.10118109384166084,-0.04961223753026056,-2.1919119844225383,0.21263852843468897
,0.12333110686015394,0.44537676711593227,0.036816988371632546,0.2214966213905553,0.0028259929414042647,0.2407116141759708,0.18222828822740866,0.09644551181059172,0.18342273591197197,-0.2816725217376325,0.6301829755552352,0.17166578422536707,0.6234272751152296,0.23095493695347005
,0.1158537678718761,0.4658647861984808,-0.057779349646994806,-0.02000949266081363,0.09336182869283385,-0.07411350061726249,0.0047074220470801655,0.003617844314320658,0.33225977178773614,-0.26755435249520415,-0.13697779964016565,0.014592423944455745,0.5567802041421226,0.21414845724179546
,0.06467606764436991,0.21631639642088363,0.10083318796228183,-0.17028224858735688,0.15154563179308406,-0.2398031230646448,-0.13469575569164988,-0.030233884255341636,0.3132066720495227,0.1650021450151315,-0.5145991066825857,0.18099384553662312,0.3709292389524954,0.10768984114246044
,-0.006313944707436118,-0.019314308801990053,0.18144821782552098,0.01861244301654982,0.04683793337668924,-0.016473477115944043,-0.03773685687679415,0.009885380953229973,0.16399258289274674,-0.16945873059159489,-0.5414300795719169,0.18640474042451502,-0.1882176060735173,0.04747284532731162
,0.10298599709890387,0.08437138978190772,0.19349500103521336,0.34982904263650083,-0.0006397343190401841,0.2823785190519383,-0.06491133152235469,0.002429171923661982,0.2712139359543719,-0.030526506030885782,0.22775061444767816,0.10103748684514949,0.1942168901706681,0.024257635527873717
,0.23175354419238398,0.8269098564221565,0.17804144819689394,0.5754341755838093,0.23404308740493884,0.011419769519025689,-0.14530590536474786,0.07459345289302607,0.10066031858236886,0.3795738744021877,-0.2666071864364774,0.029731399302522936,1.0836798382525867,0.12017265477885618
,0.28834665951868566,0.2149032921181039,0.11196279343131392,0.020694650387069323,0.15911605459245937,-0.21626321322412279,-0.20379137639488237,0.026635738866705186,-0.14793437122547964,0.40164811193217603,-0.3648544253053647,0.07471473683282084,1.5471098906471337,0.19707434730970647
,-0.09180023973729332,1.0487959469662296,0.0980565243001329,-0.3667149171808881,0.16106753961891845,-0.308875844725315,-0.038566301742512875,0.12845859669279105,-0.25521308072553767,0.11188857775049046,0.3708187325517196,0.23395438076884645,1.1022856387606002,0.19744653529505898
,-0.10706341795626177,1.2832850545227312,0.07261148495592673,-0.14487729221333612,0.17509492464670467,-0.24535311948036267,0.03503347729807526,0.1496277518022034,-0.21098183216732422,0.21285706401273105,-0.11660790635459846,0.16375624131044564,0.5095370469053886,0.1682970356976887
,0.09811395625925662,0.5418872529126817,0.11686861901756994,-0.0052808094416632746,0.2222952995158548,0.050594411460268086,0.002216949841358268,0.09819702017332944,-0.022279281199802416,0.4492613324064134,-0.02253893317994934,0.0933867634600811,-0.0670568439585614,0.14728698508306157
,0.10000638575360253,-0.19673764953795836,0.05531255967929971,0.3483042565298374,-0.0640225652426318,0.36705028101590353,0.22358403167485771,-0.0896851799192227,-0.037296701028827796,0.20994025935509417,0.2704937478954009,-0.10917972047587576,-0.31434818309810564,0.200697819116072
,0.08842573038308857,-0.10775124928382745,0.1017431613120927,0.27812657053774004,-0.22484414648033932,0.09998684684446328,0.31467806625406775,0.002308875865014897,0.07423026590942375,-0.09263978240184528,-0.12601985074957686,-0.08803654930012861,0.7710530006040428,0.23916363777382807
,0.21383471302692644,-0.09271777587953953,-0.047613506657118394,0.4690563214256365,-0.08174379666170592,-0.18242194806048384,0.0013276702666651556,0.06874440108476511,0.08962595111292175,-0.10668979705696276,-0.13127775277305287,-0.05651672575030789,1.7057393603254802,0.19855978089415519
,-0.032025480551615824,-0.14602784644334985,-0.07327468912434665,0.416131695369089,0.08892899250137791,-0.11827339332180495,0.08006263272992184,0.039174038730102716,-0.004545009828181806,0.0847149309437017,-0.08432530156056949,-0.04819737373364461,0.8157718208442766,0.045705370894400014
,-0.08092345481201457,0.6859005069086935,0.15960082194778283,0.24608948088293964,0.05975364523096346,-0.010035149317684901,0.15568941129216674,0.08228632508678958,-0.05252284103045282,0.3061503494982131,-0.174838068097696,-0.1368553307514727,-0.48987275040352607,-0.0015041704726671409
,0.3316790881275901,0.4789606321322857,0.1522181205959185,0.02863014369402572,-0.0001592201599387235,-0.20596446990677614,-0.13304157776593015,0.06364195270979184,-0.02937919921466867,0.37098323914657994,-0.23401038317417364,-0.16681326471585564,-2.330124319190854,0.10728327663941623
,0.13466964822588864,-0.1710236637655661,0.1605961048092951,0.022079333527479705,0.0029629819039771765,0.01592878117625842,-0.14973794068820945,-0.05158925800117658,-0.11455840933537405,0.414275226605385,-0.06716349954987823,-0.16244436927789468,-1.1324999274309633,0.06571152441720945
,-0.14914495903399097,0.027751688432649108,0.1330072831500547,0.08842632195508462,-0.013659068605673395,-0.030357047481960598,-0.008664560888928394,-0.01875315077580113,-0.017080505726936833,0.06280716284817621,0.056222997498684674,-0.08086187273479024,0.5257393562262851,0.1002266131577006
,0.08387373608822604,0.7533587643439282,0.17512298139994734,-0.26794859117276454,0.10460575098552569,-0.048793838539381726,-0.0658826168220235,-0.15204276095550442,0.0011591889709437644,-0.2643195524281593,0.286661115287549,-0.008362974977010672,-0.09924106828208641,0.3722028569587367
,0.27200098793164806,1.7287552436026425,0.12871251992264124,-0.08824391164231814,0.16495716604615906,0.08139749269589262,-0.12961958808075763,-0.17982463115629316,0.1182763250633577,-0.1377175874199133,0.27307011641465107,0.14443193483496553,0.6452299497683931,0.3034487271145591
,0.21928943429056275,0.49334619709805355,0.09947915713071798,-0.08204026997765503,0.005323643821058202,0.23830117643698062,0.006071514708393178,-0.09640485251581847,-0.03268847278574534,0.0193644136385729,0.5908744675945685,0.18716307983018504,1.2790553147626855,0.2753830902104399
,0.1277202831780177,-0.19946085729347846,0.09846954105379732,0.29643481686731976,0.08646431313139782,0.43923533382475916,0.3233162994554171,0.029126881278446922,-0.017038244317756374,-0.2121051833408227,0.4284916595545099,0.1373250488859708,0.9432796284178626,0.446227722091438
,0.25837054724359554,0.6287061631836018,0.07929129638024747,0.3835529780698156,0.3066850165940681,0.43155063613289485,0.1890027133504523,0.18064703111812408,0.10312752233407775,0.07476739877529022,-0.31401875745868235,0.252067997621389,0.43727163269629843,0.3513130545068944
,0.04664392006373324,0.14836610220557972,0.14758170791779132,0.32505650910472106,0.015249008590794432,0.07933489781404031,0.11368324959318626,0.2106803108067909,-0.020431028779761485,0.018936001974239808,-0.38175468923602274,0.24877528881456115,-0.6058645459824628,0.21041045068328126
,0.07327338036222791,0.584511712935191,-0.059906559181944166,0.6633400617928841,0.032728435461457615,0.03492009553984207,0.11589084340273584,0.22831955261041975,0.12725954424574235,0.0651640986553198,0.2689993454444648,0.02139490649287618,-1.0322709219419868,0.186975668717806
,0.09641120132944267,1.7308873142106989,-0.2736215920378921,0.22877667393817608,0.05905549076560693,0.07536493434738112,-0.071885180935328,0.07492662072068491,0.17593557676266638,0.5731909615447641,0.3157373919056163,0.10488645052312541,1.5291080753605861,0.22142546956089512
,0.2205585386162009,0.5239156111575484,-0.1952280641401509,0.18714779016429053,0.014055516239515769,-0.08326068235991138,-0.09883704918777249,0.04697579634122447,0.054342244069030626,0.7693603552371734,-0.09268093969325994,-0.022523608980057563,1.3746570643849032,0.2695220015370627
,0.2048913340838766,-0.6696985841088948,0.11951590282060184,0.07937645465787059,-0.12737845562397251,-0.06593661131315046,-0.16547379818593674,0.04522899907730229,-0.07358379609704546,0.23874188772574048,-0.2900339413353232,-0.11888167420946712,-0.9147026945916462,0.19717205634685633
,0.04545525554350952,-0.5940907743740598,-0.012311021422940441,0.11073137119918511,0.12051049865199812,0.062781133871084,-0.005921958278526223,0.05133302710227114,-0.18711640991981335,-0.27543239633896816,-0.10149684374181357,-0.13672391401643239,-1.7945721738838185,0.01740793860701213
,0.2230285251078627,0.3840206359864796,-0.1536254859757704,-0.0952328458437856,0.26121614813175625,-0.001596002241026915,0.013003194890747307,0.03656702336764415,-0.11544218045565457,-0.10454665820058318,-0.2751958489156164,-0.007321635149890335,0.3359819451412115,0.11739173746443486
,0.2546624796515411,0.45493756746552366,-0.10846827482537273,-0.08424095707690155,0.0014812647227773622,-0.028089988799722215,-0.34433773642773724,0.060879999676170284,-0.113028537545169,0.06505727852650323,0.12442106283616082,0.02838377509344766,0.7390645979682721,0.3520879097288773
,0.08652420455438596,0.38561843199301504,0.04109047410601688,0.2570865109543346,-0.000460133088689808,-0.042319931299407726,-0.23834196145834372,0.09508257986908951,-0.1409537198128072,-0.24020379136082023,0.05361663477984859,-0.058687060727661784,0.05674907430783896,0.2842607751260904
,0.1831848487573259,0.11588511342710232,0.09506015515305989,0.3990729566821412,-0.05168130239826328,-0.05861782448520265,-0.15326944926937047,-0.005320408026750493,-0.3081020100846172,0.025303431021487018,-0.3499430678734885,0.026203900622771628,0.7681474295351753,0.24430332190041804
,0.01124607003322603,0.12362677282977079,0.21388422747163346,0.24375833791746884,0.05881412611904292,-0.1608260225123624,-0.21456568723613983,0.06457239466738017,-0.10047890829109468,0.37387983855695867,-0.3476445366681579,0.2613053831551128,-0.3111598495119505,0.14842379716734272
,-0.058797560838913646,0.4426003087215028,-0.062323234352159605,0.47922530847717143,-0.022690261411183688,-0.05036477861569539,0.010221797864855671,-0.016759715582330654,0.19676696030122046,0.4613881856781061,0.06992263517184202,0.20123926867276404,-0.07408247609960132,0.07245305004428843
,-0.03628721816329669,0.3079760072687634,-0.07783702970013388,0.4754011907837371,0.1114903189671315,0.09085230681681047,0.11553544164009952,-0.14817011474165118,0.16442743367673518,0.5140326873283915,-0.3115341168816429,0.0605907090336755,1.643133644463957,0.10638713846204731
,0.1898465399417473,-0.11621179173850052,0.023777513203063424,0.42919375211695465,0.08555850599938096,0.09975677374862328,-0.04100969729952509,-0.05497612922169294,0.1440953448545084,0.1709908221000264,-0.3028978582286158,0.1519383647730682,1.6179659809250506,0.15756473915132163
,0.23121022659288454,0.20817730145410027,0.1226985931998985,-0.0064576415215924525,0.0262867560294307,-0.23100492780472975,-0.2530702302609542,0.01087909732845744,0.1895591329231054,0.04332216006106953,-0.2221708761693727,0.045951198932762415,-0.3627679390285106,-0.07950983769480831
,-0.1625509772322552,0.21619666376922564,0.15619907659921095,-0.2356392204014927,0.23217628074919874,-0.38307226708237085,-0.16163872550545605,0.028594188759014275,-0.028991509164128883,0.04786523151072689,0.06211237164979333,0.07446694617637978,0.6623815902465457,0.03970493990642148
,-0.19748360036780896,0.4880941104747621,0.014000384179473706,-0.0760258111369948,-0.024300324640803925,-0.4118143588041594,-0.12460662524187585,0.11658447980573246,-0.031232737827579616,-0.0350907606741132,0.2991713376593369,0.17975961515096583,3.556520627663989,0.13181435478046805
,-0.11236132852787817,-0.9712688017160999,-0.06890681298007882,-0.19865798766482134,-0.18047097224887995,-0.16006730521140508,0.11093074766265121,0.2468438446334979,0.002488511193260209,0.281225857997713,0.2191837878734737,0.20594177251902376,2.001812464220277,0.1499464115574535
,0.3463280255977538,-1.2346574484809754,0.12274076963029129,-0.25609010668060445,-0.19822246380629122,-0.128113325975562,0.1273087313388955,0.24893480952218813,0.037154244110721484,0.4203495474500279,0.01320895304241473,0.19510612489944598,-0.16079032521275793,0.19783622478769183
,0.24314949653708973,-0.34316077684952057,0.18992295872382758,0.09451622168298393,-0.056913335427307365,-0.055121051252911814,0.1912598682364511,-0.040485548642350946,-0.021711840229912453,0.22068096939159224,0.17972567542020343,-0.028849731220605527,-0.9273955792957518,0.3053009281021152
,0.15515337390917106,-0.2156489178279211,0.06490088878530033,-0.0006989712847985487,-0.32892743906170885,0.009119986498757842,-0.13862958423062113,0.016760507765783982,-0.07265816678264526,0.02586366381759364,-0.14382602416806853,-0.03378730143022672,-0.8988928479487739,0.2248167477812391
,0.15039071852016578,-0.5683391517435482,0.1051634067887754,-0.05339330544440872,-0.3374826268210866,0.006458970763867771,-0.2165151712400306,0.21403559913256573,-0.003355093333928124,-0.17736069315991715,-0.4694985600871929,0.044430265697648484,0.1048609307423435,0.22575223209534082
,0.04440175011567245,0.17055493030718308,0.163174975707715,-0.018115623049353113,-0.13710068157568112,-0.12429360014764107,-0.12001222556157375,0.3315477364114803,0.23653979508696796,-0.05819571085076558,-0.23332138700364316,0.020694842413215033,-1.2643392598856993,0.1815861427429136
,0.16102882099417898,0.28592958403900487,0.27074043527993635,-0.12342087958187334,0.05709957709935421,-0.22732600924996843,-0.12190740503657792,0.36423214749638577,0.29936370239657856,-0.08886835381220273,0.012475752988338796,0.08722338345130423,-1.8936893791632334,0.12908991488871774
,0.1894327002020316,0.1933667192406349,0.20306766985360813,0.10985644066734883,-0.009258323520268784,-0.09621888116254322,0.07240564713022027,0.24732099771112256,0.2406722483277583,0.1901519968430976,-0.25092779567606527,0.31540068281894046,1.339826808613876,0.26203775088962894
,0.1954605309274491,-0.1405205822465269,0.014046471738301642,0.05508943960473597,0.0807611036238062,-0.032766927629955554,0.1254750609848357,0.211145853320621,-0.053593281810277844,0.344465499335865,-0.24867401383408558,0.11011416677557892,2.0231431168327556,0.26171449814871506
,0.14996345286798407,0.08428351808577425,0.054102585895266155,-0.06962632028571673,0.005989859725676948,0.027863864713757427,0.22564427275792354,0.06870615223888016,-0.06046793104979094,-0.1063776939927048,-0.2861994908619368,-0.05656112160184719,-0.45599421726170103,0.24549766849479354
,0.03260226862731944,0.6516225152310878,0.11637076603260728,0.07211870964307153,-0.10774035461179068,0.14703227917175227,-0.02030734383583551,-0.08126070489949991,0.03839491170434023,0.12438435635554335,-0.12157417185487925,0.15856856877380082,0.24266945636098716,0.1490291808328986
,0.08326171275082114,0.5527296454134558,-0.003395481703202907,0.12308793577383627,-0.05885807152462241,0.33541052787669295,-0.021160311763024284,-0.05498751604862493,0.05747356283633252,0.3440791900058412,0.009912192833368702,0.03667430662385404,0.24726028955102927,0.09394838356381364
,0.165282267954339,-0.17081859533206228,0.12947517668395706,0.2985098813363939,-0.15144187441815155,0.0996832690511179,0.1607821619490189,0.03886366821399842,0.1664771944979875,0.028758707914295353,0.3642941974325997,0.003204563101858311,-0.7840151565130272,0.14403959291406687
,0.1754445429908072,0.2624981950830841,0.17375560122797593,0.07829663432038421,-0.02217827381707011,0.030096679408446736,0.2964502157790969,0.11387015112775474,0.4466219110948475,0.049331878614083155,0.19502877680926423,0.032604287684819565,1.7560573730582762,0.09970808572254959
,0.08771386843740332,0.7348789266475981,0.2541280518109612,-0.0649134164083262,0.10245329296667216,0.20053754535786175,0.04030954386325387,-0.04152611673831854,0.30110348912269147,0.05637853008015156,0.12980465091892585,-0.06669150774790529,2.2511382035145253,0.07303844284814053
,0.1455125693920292,0.11404163418658117,0.23747509100319933,-0.1305495285284421,-0.02966780877966155,0.22870082667809885,-0.08612618642790972,-0.016965655952737888,-0.055370214123950705,-0.15388373154666402,-0.012445968647310224,-0.05028258110813722,0.7796736846800207,0.06640159445277351
,0.2694554179980147,-0.20178896293690002,-0.02571953276225224,0.07911801408435701,-0.012407650778658574,0.11514428766129696,0.2976370941292847,0.09566579386303926,-0.17041600055335532,-0.2581494433345539,0.29794922994694745,-0.08213829916517491,-0.6418888874227237,0.17093406698182176
,0.06241305952373504,0.3652671166378355,-0.014143917331030233,0.11605268281827122,-0.10743250570021136,0.1809774665171186,0.29301148848459957,0.12949833165862204,0.043788157650522325,-0.17724385254887245,0.2073982793528246,0.00856845266281815,-1.1084447590568973,0.2422710307866825
,0.09172364970809785,0.480725812522909,0.20998543767028607,0.05027867142354636,0.17014037741284657,0.48446785234206047,0.34629608071639495,-0.06100310510599427,0.03342843331026855,-0.0017878472322431277,0.48267892569244325,0.15754789264495894,2.217323370727922,-0.07056006507420275
,0.2735844761316169,-0.16515699431266345,0.18912128316666504,0.21580320670023598,0.007520295806443574,0.19860245755758157,0.1811919745271439,-0.374589502626392,0.07404738883320537,-0.19307402216503228,0.5014457816555326,-0.018986020813394157,0.6497708229935648,-0.1655441915726768
,0.07934407422362623,-0.1904383169596222,0.1272325529396061,-0.11573615415745031,-0.04003237366041186,0.09512856373538724,0.19029599876986825,-0.2757865521300779,-0.1909163896477462,-0.2974861428546508,0.01905600401142936,-0.12629208313999846,-1.0965985600111972,0.015838907754340825
,0.0005515570241587015,-0.5429365684535892,0.013629626606585277,0.10840963732606025,-0.20991274024453171,-0.038321716498872414,0.27278951497800386,-0.02489676244043026,-0.1690725174886756,-0.37452025179645104,-0.31918278038103814,0.03447426788495278,-1.8143777059648205,0.04320360050569959
,0.01404254823463021,0.03860913728275626,-0.01426921360804466,0.30418594343603483,-0.14898071309899114,-0.4289699006847596,0.3643551536602295,0.08773597674761864,-0.00966129077202582,0.025365849959214235,-0.17888351628776653,0.2595228867195887,-0.16561333722997673,0.21564035321525304
,0.21050627062521154,1.6157575619179203,0.09555099936662838,0.32404599731888495,0.184178023574026,-0.3143537160648369,0.2283271666449704,0.1013233284784827,0.056662603031820864,0.06171345617409989,0.12578118405432737,0.09428094585600068,-0.10438294124152962,0.47522706808640736
,0.30919972279879276,0.8391388269148746,0.07856794922553276,0.06700856122095811,0.1936014089882229,0.02774741774452904,0.005189018205644559,0.12485456230195244,0.004568287483689001,0.0977870370408102,0.2865988522926186,0.10855696304766649,-0.43023610312045174,0.5723995141844
,0.16838814948427408,-0.3390504627154263,0.13862645137604995,0.27684453643220847,0.2301549335329347,-0.12625641420912084,-0.18209836481191147,-0.03961451935041127,-0.24457415085657788,-0.2574409683715446,-0.13226625108572745,0.10838569113807593,-0.6550467439721248,0.5042337930769213
,0.16057399550316043,-0.4267017156943969,0.010403791895819402,0.26275328069148135,-0.027118452060000808,-0.1791069300025017,-0.17920828783294254,-0.05004889709156117,-0.25694375967209415,-0.20203508080369265,-0.22698514057050478,-0.010655041917125643,-0.8027559415921243,0.27780644195692145
,0.1166111699737957,-0.4397340812699897,-0.13159739188642122,-0.08528171719293327,-0.2876889738619619,-0.24836161537215592,-0.25428203206391836,-0.02073453373016551,-0.08493077548357157,-0.8389481785686773,0.20871668535408622,0.015008944518002177,0.6396162636298454,0.1223329874383737
,-0.06926956955132074,0.24215619991525045,-0.2082086375015389,0.038191746362334855,-0.09994808826906688,0.06709323397339323,0.002845040391928734,-0.10609414643927095,-0.2673433998771749,-1.1084284459448188,0.415618794621616,0.13504778378658674,-0.0011937091421005295,0.13291490193638544
,-0.09922284979174956,0.3452036466493583,-0.04217085502735056,0.42848761460150264,0.044669903946933834,0.14108204050603587,0.32475984907247035,0.08183155769885847,-0.20920135285962962,-0.6117446194996737,-0.026740910104127272,0.2623116804583083,0.8925092167465278,0.1527144112708538
,-0.0893368293911435,0.06635951152603073,0.009557454223757006,0.46435346441575504,0.04710159515382463,0.14524158854351402,0.05460505152149636,0.17679411585424926,-0.115262525720523,-0.09799750902084486,-0.00516120365881865,0.14467232571508515,-0.09868427544842985,0.011918604105990738
,0.0014823213885927433,0.556319742558812,0.07855828477598925,0.14575354477346253,0.01115333934305469,-0.02483647912544163,0.06860508507374238,0.05922080835424785,-0.04603096381019246,0.12691441056977074,0.5594254700353742,-0.1141758684022528,0.12182368057422634,0.12934802514495133
,-0.1472354612465644,0.04859010208509211,0.10786363415825816,0.16298281295263256,-0.13805020567151255,0.015369752332325336,0.22540799975033113,-0.007728072932947435,-0.09385375138654417,-0.42238525026303914,-0.006634260431219021,-0.16559938106583855,-1.229427531279696,0.4269819439010867
,-0.053981935356501635,-0.6464706489621201,-0.014456264068101094,0.5643024076443195,-0.30966227640618044,-0.17789993662014697,0.053800435417343126,-0.059081062784711945,-0.09263786027377113,-0.7058962111235936,-0.41584925601932304,0.04430323274240719,-2.524064368760024,0.2795832264764962
,-0.11339648915288711,-0.5410157083009978,0.0121206840150931,0.09107375781332111,0.018389032344161654,-0.36396388217141823,-0.20105150288602208,-0.47959028196256304,-0.2687575035464531,-0.4323559305674802,-0.2094455416956617,0.03093984183117116,-1.3587027238985343,0.20732587563915247
,-0.08701304873057715,-0.2654409313363632,0.12746598371242457,-0.10856697296174976,0.015010780180913001,-0.014392910106954081,0.01408823752487788,-0.5410952599479789,-0.21673623982928494,-0.3325478555629309,-0.24790996694008566,-0.2312645231905922,1.16805938934514,0.23890975189866254
,0.12036192507288766,0.5549803443649598,-0.04855388380622943,0.11542079526352493,0.05750191553332869,0.2531198619542751,0.1957072978497063,-0.1344148186001667,-0.0990972477071655,-0.010246469940536332,-0.3558203186967826,-0.16857200276922063,-0.6549258538878585,0.13362616219026416
,0.2531004788498608,-0.05466803312302198,0.017703706770332863,0.4127221827156382,0.12572539863009272,0.027173769719294073,0.06525834358073314,0.02134442885731814,-0.12095989783249857,-0.05705185325830289,0.34603530991653986,0.048269519814994125,-0.6700438795201095,0.13052747967950623
,0.31169581830926946,0.09773498567879817,0.2911707129362231,0.17923246782468044,-0.0042694076667080865,0.12382858956964517,0.17306848529258062,-0.04933012177166513,-0.0867975739659681,-0.0809842105252582,-0.41479357414765067,-0.030860326752839767,1.7137552616805605,0.2904238067250611
,0.20376706396809022,0.7413878669521171,0.23524202109095238,0.11373507837482619,0.14754691501725992,0.2968438532446181,0.20733321144810785,-0.017132997181689435,-0.09798689673140817,0.18830614900170803,-0.7577798280918016,0.027367363491358706,2.1107935293648845,0.17480949067607585
,-0.12963295958423124,0.2221939543453555,0.0802907860368706,0.03692859256914702,-0.11092822922658124,0.3362101967734661,0.253777175424464,-0.11039632521468515,0.1522598019976593,0.27052408540714346,-0.3452727165569839,0.010500861747502682,2.436140208975157,0.1891417222775578
,-0.1150866078734279,-0.24755269420773104,-0.04729789502716783,-0.06776940730388983,-0.01160401894165765,0.12029482502771105,0.15726284741843038,-0.18593517895696782,0.22793384351026888,-0.09878319392743724,-0.09778960723560712,-0.1098682511566915,1.4471505597439447,0.3697044174194411
,0.2585904547617139,0.13836475236234347,0.009330878512042357,-0.0610226924976509,0.20789252431434832,-0.05984855571907721,0.009345916131187678,-0.08207432048588544,0.10434407192382673,-0.3671919512891503,0.15726062379126635,-0.05787562968855656,-0.09758699054874256,0.19381508976887932
,0.3602445426110472,0.7964748689127652,0.11029002971514816,0.1346034319043979,0.010517001896249125,0.13983115749825992,0.01605957720212835,-0.02337701139602701,-0.10988034567307865,-0.25310313947820223,0.33810169586706673,0.056770549477239564,-1.8813197860942164,0.32774812862424946
,0.115296778451861,0.8963947205907001,0.11100496084202977,0.23683621937275964,-0.011884733978226805,0.028382731345850797,0.022415133121632774,-0.10981846184090496,-0.07460204400675889,0.12225663930328033,0.558042871773003,-0.03371080497284222,-1.4820734458600588,0.38548929844827273
,-0.08177265602739213,0.6044083262961802,0.06175347941600799,0.06796617492158026,0.10845293771722604,-0.04120428577944589,0.2692609495057045,-0.09118524371392395,0.13187584934841248,-0.09622606293128179,0.29198517163934384,-0.031825685998045625,-0.8550506636463884,0.23754094686930455
,-0.21067333528982082,0.9454135217547237,0.07603347859046014,0.34205120923804344,0.040970952114627056,-0.04546536790711445,0.058504773703724686,0.11711751030013166,0.21446332877986965,0.05222746595588785,0.5323449864498874,0.09862576880037827,-1.3920806016287957,0.4050048003747848
,0.0056661208999796795,0.4641598605418521,0.08428018973874139,0.4461973247784978,0.2990108171094689,-0.13344063116715588,-0.14700126474848244,0.14137332888696916,0.04413877506070761,0.030572864246664177,0.4415712411750547,0.04634824851256732,1.2481832937720585,0.31406659160084366
,0.08345701761535355,0.1698338124377534,0.18463782837408962,0.2202396784580156,0.15752039286648498,-0.09708619537340009,-0.02617292866759771,0.12568301317709832,-0.05215416412585105,-0.010921736929899556,0.013373465129013893,-0.00045740340473254554,2.1298943619852038,0.3158148787128797
,-0.049372333738888136,0.0686693835348095,0.20953936490790392,0.09713011481844372,-0.05955887417562781,0.24717301315403403,0.2352913268029808,0.20123546734709932,0.03868796835174235,0.14372033275962437,-0.0909919955627304,0.11183569046192757,1.6636610948903623,0.4524969724585083
,0.1713664025304758,1.1836713209731358,0.23295781952782296,-0.08184136386655223,0.1573140113552795,0.34973629556598934,0.3420119619355467,0.14391928241806287,0.08899753714510264,0.18895670315074456,-0.004674049653534337,0.2771618636750417,3.429732817891924,0.4420999893102047
,0.2858934967562556,1.4276786470299734,0.0834667071488052,0.059840921851966364,0.15721411446886996,0.19605809226304555,0.227599915223887,0.11372718949975653,0.13462975246915934,-0.15038979117136958,0.03782634661620398,0.20285516605342907,1.5127722912849508,0.23667485358504883
,0.19528963496294235,0.825990887485711,0.25024109181394016,0.39616710477582956,0.17059810832682257,0.046559679884626136,-0.027862350528130648,0.21686945204907782,0.17036864263442617,-0.08358019817418659,0.4059708208785604,0.21281648771961542,1.3206271998184493,0.34380166595552303
,0.07763359489549873,0.43061595783495554,0.21437852960636772,0.2544871289166299,0.32398062465958355,0.06471350023179663,-0.1271631101901505,0.2761028465863035,0.06658994714299143,0.13281185081185234,0.47904852440674817,-0.012995415659808296,1.0118663988785617,0.3487090479850558
,-0.00758856451231728,0.030414236785337622,0.07441124667244345,0.31864049387897286,0.010439645256943736,-0.13493630311316995,-0.14541879760775706,0.09317784204911903,0.02405570933434424,-0.07714738606522917,-0.03310548541733982,0.21932628069854726,0.6209175519984137,0.09974815670491098
,-0.2204547859810543,0.18125240895156527,0.03483863992630418,0.3081704411604464,-0.13504867759388228,0.07477503947902622,-0.02694378339081074,0.0395482086921277,0.11138962245609288,-0.019177764461906537,-0.08545362575478865,0.030684192700659352,-0.45719071779388826,0.11499930228731808
,0.06894475724941095,1.0561915487096127,0.3246120031095614,0.3084231331969214,-0.1044451322482812,0.34967062315318365,0.239251015287096,0.05005745324846986,-0.024327445866802033,0.0227845080416623,0.1864102442368247,0.09722917248202717,0.3711609408753291,0.07105856392767843
,0.06388174067208896,0.6709187670816581,0.10703922559488119,0.5380132363781037,0.23823968363205963,0.32668639069721195,0.09343151388452513,0.13131856625224694,-0.014518969329037101,0.11990388805375048,0.44539921898721446,0.06711561022572206,0.28473935498698383,-0.01619447240967494
,0.024061871524438762,0.19941848023295503,0.07159071965490306,0.586587673907732,0.37030117625988807,0.19053528026957953,0.2418958832454612,0.11193206075874895,-0.186820500668937,0.2868778787118434,0.6334167886257863,-0.07468748968825034,0.5599620829199553,0.24360247423109221
,0.12254242739469978,0.38123223247851273,-0.1561964927249162,0.4462244150293182,0.17262236572272618,0.15836746653840544,0.1752871733897022,0.045171009442527305,-0.14578280939179514,-0.19470363613515493,0.39635943800069323,-0.005081977932862125,-0.3466527953388881,0.30793073778152413
,0.01724824760510235,0.6354712854706367,-0.23974356758026583,0.07103302683554445,-0.0008551242118426056,0.023949221887589005,0.10170282942249549,0.15743535672589426,-0.09248815893450689,-0.2936793331682129,0.177175590324112,0.015282716708749568,1.1827837360654483,0.19988739781573883
,-0.07805200379690717,0.5500831654178486,-0.0844779827726963,0.129748290071801,0.15368399164968452,-0.07755620226199916,0.02411294812270852,0.1519678550530596,0.02737074320028366,0.10133176044190868,0.057871239366481406,0.17515342176692106,1.696583933645898,0.20007513658300682
,-0.096417475766276,0.8347178106516245,0.03423790873744461,0.17677327446609414,0.1497916219076268,-0.1388233277713483,0.10738188579348694,0.10610875303934435,0.32382537742767575,0.30068144877601904,-0.037600413594731354,0.09042358356656549,1.4644708574124101,0.29042963888424234
,-0.008378547383106639,1.0381250704568918,0.17084470994103185,0.17116531785131336,0.25417341081942446,0.009809631612517118,0.0016949569309249006,0.14166601907306273,0.14829886999588077,0.05165411986393157,0.1483544920486742,0.16620137857044195,1.9870700255787808,0.18947005606291378
,0.3085598068069473,0.5554856646054966,0.17238110392829148,-0.0071001358388953295,0.3541910675934625,-0.0371617682636215,-0.05548890163098183,0.1190903023772377,-0.07669994459054794,-0.047850841320927685,0.011328339645469145,0.020729302807666904,2.5474538716549526,0.1750928986165663
,0.40290664958220623,1.088657807566328,0.15788135279805934,0.061754759322638464,-0.02454816257914199,-0.008508646373216334,0.035334289172315674,0.17553011891924514,-0.06590237593496906,-0.006447031223586521,0.14173059693871617,-0.07307793239568129,1.9917437512384981,0.05151204566945715
,0.06130243966115636,1.1718590699087708,0.24698251592406992,-0.03951266780139567,-0.040573030079616865,0.08484930635820034,0.10356279969874498,0.03866498922729372,-0.03772413473654974,0.06692798137516977,-0.0868700302495105,-0.0747067013536399,1.207181558763962,0.012783679314736295
,-0.06791192309336676,-0.35139006727648264,0.132817747037681,-0.13773854771105742,0.049306832863015806,0.08342857357497216,0.11461469711976023,-0.11829684040620804,-0.008709723832200708,-0.09903482094470314,-0.19915009748090645,0.03721407944904059,-0.7816783492713686,-0.01593920845536104
,-0.24597871404615468,-0.662259305063656,0.003865321231726882,-0.038402154435048096,-0.08194229522097513,0.20473288244721746,0.15879794867571084,-0.25295880479107274,-0.10631994825599027,-0.8068325697890872,-0.032126589782780136,-0.19182184724788068,-0.8421271270050523,-0.19044540953399264
,-0.16331827063427828,0.2579154907688434,-0.09922467281190162,0.40538483171161194,-0.193623440866283,0.07541426903803779,0.06434768871019451,-0.03827837214089812,-0.6806559907020551,-1.291715141988082,0.13270122724039543,-0.09555989109937855,-0.7643242937757991,-0.07429813137183033
,0.2491749527422331,0.7211239084592138,0.00875245214511337,0.2835148519180642,-0.19143327945493957,-0.231930759433214,-0.1500011907943121,0.059096848441404365,-0.6979932926752349,-1.065116519799788,0.30874970893548676,0.023729989400646887,-1.4791311010607597,0.02444437285122828
,-0.038420078663269165,1.1791269704807643,0.14572434175691082,0.3291280984708128,-0.162859139039703,-0.2798116301591175,-0.16549825180835379,0.22927102914963698,-0.29158745420982657,-0.29198717163196647,0.37316506599442695,0.13222907485648305,-2.046231763425613,0.17069441325290097
,-0.11157696080521788,0.7163681744226751,0.14259817594887522,0.23996193593976162,-0.10364458432828969,-0.25269606336887446,0.037164754166121944,0.11916958768476846,-0.12766499695566866,0.15172126893754473,-0.41314693600716496,0.20974766241769166,-0.40507360890324273,0.16673383539200917
,0.025167647152275784,0.5811217936971547,0.11369866303709661,0.12947196100875724,-0.1575379730510109,-0.190951042638288,0.18973517143162852,0.1943164779837163,-0.07257733870923391,0.3198238123356494,-0.15112457392231685,0.07431045142158073,-1.7636746064609374,0.1705086514227265
,0.1744661348230612,0.9268363339206489,0.08404424123864233,0.31734312869081993,-0.37055399068243405,-0.04454495015936684,0.22324420764570382,0.19021369030800364,0.09217500241339666,0.22309756634013275,0.1714379398807367,-0.09253826864374652,-1.2479928668474254,0.13036883216421058
,0.1565378225491674,0.37011370765841306,0.132518203238004,0.31124227753040706,-0.13864941908847034,0.11641136505914891,0.17103829768679232,0.15157988817877602,0.19838941790659403,0.27228823681601566,-0.08397204413314335,-0.1570071387174352,1.894100912946026,0.19350066074812924
,0.07582268940399117,0.022532943148196705,0.025910678772844538,0.3751140492977026,0.12921842486026147,0.11381300043823368,0.005324356890023557,0.007157354791679441,-0.1395513605795533,0.13242327527027847,0.46702904159792274,-0.3202441920425097,-1.7663945127834777,0.15217749043970788
,0.300482557303052,-0.6705332856901877,-0.032563029476780664,0.42432553842919546,0.003455853053110798,-0.05259555369783396,-0.14585955020695207,0.012128775529298402,-0.20428680006526992,0.1792803386344634,0.6291348918015194,-0.23875285648226596,-1.72931224133367,0.052697753135039486
,0.3128955773134101,-0.5952447247704501,0.028224315193236083,0.4630078550021047,0.19856791104600333,0.009175397581098902,-0.17436884912285272,-0.08016828988252563,-0.08564389823500114,-0.05421308574650215,-0.15410271159672878,-0.07737181618075988,-1.6519509726624444,-0.05372110061625594
,0.053040872220834354,-0.15170031372286014,-0.022566667708794712,0.2874381428212925,-0.08053628170978594,0.3287608472694231,-0.11592735664685086,-0.1817067461327638,-0.16172617042018936,0.18400817777190293,-0.3199399737719112,0.06072321494179076,-2.6832190574325256,0.12676750611328497
,-0.07230305692980728,0.4793662016407915,0.028039034369914735,0.38522605199591303,-0.21788519922252544,0.1064772822512107,-0.1388861637139124,-0.09418286668399062,-0.2333870625774244,0.13085021363256413,-0.1282386306136324,0.16262081617678295,-0.9958114857368211,0.1635423159319615
,-0.0005358581631605055,-0.3688207055430567,0.06580404603459722,0.41881912855077075,-0.06491089036298604,-0.21006590883915136,-0.19624968131068798,-0.11742842503089486,-0.1271422665155101,-0.0899356539790785,0.09311594478867968,0.08503386856585808,1.2404304168229163,0.11665419659637248
,0.12445104631973249,-0.5469238362359659,0.18441106104444294,0.27598906629827125,-0.08187512746876889,-0.26696729312692263,-0.025984094303649192,-0.014697172524362354,0.014933715723659067,-0.1603989166613476,-0.027025200754536682,-0.015910545405470468,-1.6141127133594642,0.11847664764609925
,-0.019005844117043435,-0.07854650674524832,0.28822230447050523,-0.0104557613585987,-0.39555687762519015,-0.0032040447030735157,0.11309060035366632,0.11724672207863102,0.025253794232671496,-0.24577657920606624,0.11213523976497546,0.19939685381343905,-1.971518521628527,-0.03760815353851114
,0.02663724779759278,-0.4312467358217389,0.14973340948395877,-0.002544005755037566,-0.4297845733078067,-0.029400385444858228,0.16876834729173198,0.086039480753668,0.03734187727140538,-0.3493343559169648,0.14690930379667377,0.23586644074699167,-2.1536521360466305,-0.0018902091983094514
