event,eeg.af3,eeg.f7,eeg.f3,eeg.fc5,eeg.t7,eeg.p7,eeg.o1,eeg.o2,eeg.p8,eeg.t8,eeg.fc6,eeg.f4,eeg.f8,eeg.af4
,1.6559565152294524,-0.9171071039434036,-0.2686317879189475,1042.3254651627558,0.5203436170053908,1.3510038115938214,-0.3135466784996145,0.3810465067657733,-0.06815055881739379,2.1737056418940752,-0.7759083542738614,0.11835189383543432,-0.372385472960168,0.5178464661472422
,1.318709399915276,-0.5944111556047923,0.33214871968448184,1005.3477308490002,1.3255626142593189,0.8256182589930615,-0.44958189485858835,0.11690721871960806,-0.1690767960285753,-2.6109425453854076,-0.23014450853335394,0.6095157103100259,-0.2941287080510977,0.4231309855053085
,0.9025159731348589,-0.648738574538934,0.7481717423485318,1174.546966761961,1.147764425267616,0.5761701472863145,-0.7468638125258116,0.0145143588390628,-0.08141252985776468,-3.290879857701454,-1.8936726939253208,0.8917777391820878,-0.6951175179856177,0.5149248712475918
,0.5037482052611771,-0.41645318861286496,0.7834074194230577,1133.102064388243,0.7838361117644256,0.9663665592854296,-0.35107000859668464,-0.4057730773414596,-0.32750252806604047,-2.841551341761414,-1.8420890399267402,0.30234789957837416,-0.9021469989276328,0.0430503002314631
,0.5284467449368487,0.03525631819861433,0.2928243369592684,1283.914972236817,1.1661311882752807,1.6826167339508917,-0.2854238599767286,-0.07007478877742611,-0.47162688110862433,-2.4607519572816545,-1.8098907537354785,-0.30419921263230154,-0.5894517427783554,-0.2519938233572051
,0.7939412890822383,-0.4052009859048434,0.07887408525847038,2317.291877297313,0.723649822842855,0.6871469560436307,-0.24093876464775577,-0.09095194124427622,-0.28394374558122676,1.7522031773007376,0.11886979698047895,-0.013926100827151757,-0.9762970169740672,0.4140325191835605
,0.7492544851064472,-1.2476386169615796,0.14668938325148928,1743.0795997783375,0.5570313902169831,-0.22359306986791275,-0.2479380536107671,0.25664437229224524,0.2506060551413007,-0.6414043223330704,0.4464607233677215,0.069350085466866,-0.3303194583831201,0.7863868922831003
,0.7076525602541501,-0.888904430143951,0.23151544146173222,1372.148160377614,0.7164319580028069,0.41871398720909103,-0.1419131592932198,0.1951609238399571,0.013364664807771858,-1.0241451920226636,-1.7493469323973674,0.2645483179956879,-0.18768005870315593,0.3630766285741599
,0.006291100783773198,-1.212667061610715,0.2993556131534276,1449.8898420633975,1.7791010256306203,1.857285267876576,-0.1276531544073893,0.719663680782287,0.7470831901958226,1.863722525534202,-2.1913197093388628,0.21344171377164806,-0.11378115062009654,0.48091975193946523
,-0.14139475961788586,-1.2013300768091402,0.09584471844342901,1759.9644080557994,1.4281296925114562,0.5320093576305045,-0.23648949536779607,-0.16185004074375461,0.10145571586944103,5.044553892730275,-1.1620279060270353,-0.02278297209732121,-0.3996594269250158,0.5685028138617234
,0.15437815298877736,-1.9947972305962298,0.26113750494594457,881.59469816664,0.8453445727725188,0.09577053502747172,0.03185368133220885,-0.19986390101332818,0.0008336348711470121,2.024260044620911,-0.7953730893032402,-0.4070064647577327,-0.646262142035728,0.029163009270223313
,0.7381531014981372,-1.7812132776439473,0.5313830204698328,750.8032703648109,1.5172123649063762,0.48520875771312005,0.33382796323329383,1.0284776087109082,-0.012180651909207692,-2.3920554627581834,-0.6376357710219578,-0.28898895745765224,-0.6885408057329896,0.4824144375212221
,1.04407736853452,-1.3136440541962162,0.26021658235503003,910.094926473576,1.8946439211542507,0.24275835212958555,0.43242152488513513,1.170437104343808,-0.13610367207744442,-3.456686995318732,-0.024030474964895628,0.19124959508582737,-0.5631726700126307,-0.14740434168525648
,1.074267546626044,-0.9077170051334645,0.5799645016656751,694.6388939602551,0.2659489909705553,0.13408125889857145,0.5325040268137313,0.22914852099826188,0.008460948284519355,-7.925518067025432,-0.12717720624811135,0.8456288387854638,-0.6738121674554127,-0.12140132336070245
,1.096252244512056,-1.2423867326663007,0.7819847353988945,684.1448973903865,0.21933795759047534,1.1221387941488667,0.3832400287403132,0.8455777360960184,-0.2157513583711376,-2.912636974723896,-0.6428682626940828,0.5658754368784076,-1.0923728479501615,0.7864711242146716
,0.481552791356802,-0.9604702381403681,0.6775552505760812,1754.2286644543956,2.183118063008748,-0.20652323644946186,0.09143193367785919,1.0500736120241225,-0.18824587197592035,-2.8254827377742937,-1.1210192898173303,0.09222875320397247,-0.49088513531523875,0.7723595473330274
,0.1294683392262137,-1.1713494468314032,0.879541230587721,1484.6948680420564,3.4828761491400835,0.9105742614969513,0.7597506543111773,0.12198605671135837,-0.3532370204899255,-2.4042848974542594,-1.3922872084082276,-0.21213828830622858,-0.08725714203997526,0.746275465807647
,0.0119188315213467,-1.6922462238226983,0.3628812779255269,820.5053707266841,3.4935801567637794,0.1988762011135094,0.6699595382585788,-0.20278005976565538,-0.3912032401842976,-1.8013978723085817,-1.3608175506051163,-0.46519386798604917,-0.2313577935782074,0.7067256970519327
,0.46523528136981496,-1.3610117358768892,0.41469986833485184,1059.7013723038037,1.3377556538624453,0.36008745739395626,0.5485435287851705,0.22156094943095941,-0.16310763752779334,-8.361458527021243,-1.280380504599861,0.31593014756370874,-0.5986496074498231,0.994648193127777
,1.6248326305777192,-1.0774188629494161,0.5669499492138244,974.6590484223633,1.0656688199409632,1.1034570584128873,0.23931696087890766,-0.023612641224212822,-0.6463999399629778,-1.3058471884449523,-0.6741718764893623,0.43401569517444105,-0.6894574602197102,0.8495048527516663
,0.7764426215298553,-0.8148844108750419,0.4536808167930446,800.1322796144694,1.7124535250549926,0.5156656184237024,-0.2523568474504827,-0.08021496737010485,-0.5353334112186957,1.2840379596266662,-1.5629292448948064,0.20672923037004862,-0.5852154154907157,0.35368911191144925
,0.6425025622895768,-1.0658863302533055,0.4840026590037549,859.1565033996521,1.290864488317247,0.5940084127951093,-0.5313347718885015,0.4856728958362473,0.16848848265654695,1.3563483717892935,-0.26287949243845044,-0.3489529065962629,-0.6158548242219304,0.24697867525852957
,1.0249198460537623,-1.4306306306474663,0.2630591928165289,962.1252439150661,2.2717288805032245,0.2240461206947255,0.07803247426118921,1.3207078352728032,0.5630600722187098,1.2261558650220474,-1.244726254863936,-0.11069971474002739,-0.4426275158829289,1.1511505095670254
,2.032485689099485,-0.9015984224224776,0.36307572374138014,589.8638916053499,1.250943993824115,0.05079851679232095,0.1012461640416567,0.6499783610180857,0.9843602595275434,-2.1028211349451573,-0.9671012741185013,0.44112068040189717,-0.14999311069766066,1.2096326732704605
,1.1929407354899506,-0.6519775082889024,0.34352367725433475,444.574107140963,1.01441924790799,-0.23867755201879312,-0.1288463611891849,0.36019352451879605,-0.0607849592582746,1.5394126837341513,-0.8988172971224893,-0.09822097696817514,-0.5130584678082974,-0.05006030128968745
,0.5838398387311735,-1.0372650025069732,0.19978823959540845,101.33023429189635,1.155546391797783,1.277879593666802,0.7696011018773424,0.39246240933135984,-0.06538454321265942,0.8869147568551605,-0.9822401791615889,-0.04572859832145794,-1.006515938774215,-0.243335804132852
,1.286544720421267,-0.6555360088355603,0.7901377957002139,610.7357660376249,1.1573104091691817,1.9501735356619772,0.6746558635474033,-0.02727914668098124,0.02531140407899836,-2.1613202200696087,-1.040075005690284,0.5603158011493765,-0.8935818173700714,0.619178391126156
,1.1568715484950074,-0.4535360024149111,0.5081642958443585,658.2951614211391,0.24388450417708563,0.9925145051155372,0.1287725933155534,0.011467240076647376,0.4875282859315377,-5.189928626665958,-2.268377797668583,0.20521054315074627,-0.5161773285065377,0.44243331543443076
,0.2274904314863211,-0.17868992505980166,-0.12248631365205763,533.0167737306775,0.0072592836160084665,0.5010605529725626,0.10266436747617978,0.1869957973941313,0.024926190398577627,-2.834890300289634,-1.1031920763124101,-0.17539989115951923,-0.2201347747418397,0.24021048790876004
,0.5741380216255902,-0.8679791926788681,0.027249971273347964,827.6567186520471,0.6486865117054519,-0.18210525446719186,0.059009391106850925,0.12073384259285132,-0.3950358386492264,0.5808704297048942,-1.0930113113079931,-0.4051033649952079,-0.36761657319098695,1.1195317483487766
,1.1866354675982396,-1.8913183814694372,0.688596488519306,855.6699939305638,1.2515738146186977,0.9742075623555992,0.2138533129616605,0.34960732755951723,-0.1475813886877551,-0.9748772527714592,-2.3120342314674347,0.01675527080714881,-0.7258650220901736,0.7525071453405044
,0.5765069400226845,-1.4974967132220252,0.838060209520254,814.7643549919208,1.5063096516106045,2.243235688105847,0.3028498799806113,0.5942629855510412,0.3342788312473423,0.6148292098547652,-1.2086760228345765,0.5668370805156344,-0.5698079171316288,0.7709068084082933
,0.5338546047977706,-1.4857746512342074,0.6484740901775721,736.4907308157505,1.5399277920235386,2.5875225072871584,0.8064789106320243,0.40133787851184727,0.20050101462079745,-0.7529770445145489,0.8055857224127395,0.6246359543225323,-0.3238903325349892,1.2983386492927782
,0.8976679900709917,-1.3962283790814212,1.0266649261832947,1098.9052464584056,1.3183624449548474,1.087434641434908,0.5135618358975165,0.026626361696823503,0.013331048922934009,-3.3444718557685302,-0.1270227984644511,0.49093437709893584,-0.29261538331319253,1.2554938447104125
,0.7423090812619331,-1.1596327957593424,1.2574416420085575,1226.1971696503626,2.0520956905703613,0.9215796524301162,0.8812100621658355,0.024639017587098976,0.15146307325815148,-10.105696572008858,-3.3249626809420554,0.14616156910455144,-0.7744253363394032,1.7638468613536427
,0.28170405179710034,-1.4192657977975907,0.6993292233994249,739.3108980066952,1.7425853118249341,0.9142917718038693,0.3872327732766887,0.6601454305957375,0.8174802390861328,-1.01903812225975,-1.9402889297330859,0.6127261748464325,-0.2549099630487237,0.9613580857985368
,0.3333161431142034,-1.2269703253475681,0.48339806655114836,1174.8554575667367,0.9758845397271225,2.395077600306737,0.6495958018062771,0.7347603474561761,0.8852761296077448,-0.6333896266212321,-0.9695193170865313,1.2200965461358035,-0.3402709482470033,0.840189729163729
,0.8546884823502555,-1.6887956510564288,1.0223469660437108,419.56279016266126,1.7089806192514962,1.4324920386739282,0.3599011086984475,0.5092712307860344,0.5981684533272744,-7.060493410507581,-0.2589627624782068,1.1968228120301703,-0.2921078667350087,1.0903206358060538
,0.6832553411571309,-1.0693961649934374,0.9333092102249573,854.2790276042579,1.6297809002233024,1.2847085539026373,0.18812583907508293,-0.13279370383532665,-0.04733590952657036,-2.014669114048637,-0.8030645026700656,1.1521181282624824,-0.33472759173918337,0.31859012752484483
,0.834716888193705,-0.8389369785471605,0.5535766282753081,1151.744145141581,1.4808653087611647,1.5032289319579153,0.0428142553147975,-0.4198335988637879,-0.07855121131213934,-0.0955077583492189,-0.14122012988445315,0.9955437556171345,-0.24133430865260452,-0.0334088877872632
,0.5877695250544793,-0.8899164312426906,0.5809590740286664,808.4975662859456,1.0417782723863318,1.7463778999271984,0.6093175448783584,-0.06842791716485433,0.3275092160036512,-0.20072949396732437,-1.0543066914336259,0.507070119015069,-0.42463883785343554,0.891282384022432
,-0.08202866868927174,-1.6947403766337386,0.45038479625387945,836.192697413034,2.4111593924845067,0.5554076355566849,0.3119197263867606,0.13340840670082643,0.08985569863741857,0.7064001598714854,-0.5776862442940653,0.08694826532143218,-0.2846331471326032,1.2226609708768899
,0.2219174839172971,-1.6022054236221752,0.07410936986451519,1295.0165739554914,1.1877738251061634,1.4770739521129241,-0.06098604871471918,0.03284194719120911,-0.3402394296132038,-1.0302278437332426,-0.8480494452303746,0.011960896632194662,0.012294586863374028,1.2849094554240148
,0.6216507861732534,-0.8643685681159686,0.31345764750189603,575.6375001380917,0.7729043936174238,2.3369086135568415,-0.07057038857353698,0.5691167032127863,-0.03967241107860241,-2.990185744542331,-1.7142611264955019,-0.15359861613446263,-0.2999382734356562,0.7634103480766365
,1.053275693972917,-0.9278953375038891,0.6143432962457054,648.0988903108523,1.060229695335646,1.6996636997264576,0.19595841668922775,0.5005368878551814,0.061541401998897544,-2.9335175368504833,-2.9367651732359588,0.2689256701711385,-0.6258104921044755,1.0091584759845582
,1.8618557785771006,-1.8675261658702678,0.8712847383779876,687.5469606273367,1.4003634976038941,1.6383645014041563,0.3242744499531439,0.6918272559495112,-0.17167385127038673,-3.537690546891322,-3.141466961873599,0.1469743849599302,-0.281519825153412,0.5934204637559534
,0.8004120654505021,-1.887379192126876,0.3880312119059806,1115.2703865716924,1.677001182847538,1.2517914389894806,0.23336509383190795,0.5253091841247106,-0.4422175197519181,1.1963725019571152,-2.4696310975089517,-0.11490936334319514,-0.03665833617505182,0.6412212841328062
,0.574396126727201,-2.204938424848317,0.7875208314634292,1861.3472209522945,1.9332402413374674,0.6074987873768651,0.2981708172801095,0.32331936387850047,0.06010039495315521,0.9309645159535349,-2.0378740825048385,0.08653107870500458,-0.44873569786039413,1.0994704374207873
,0.6633472582815376,-1.811203923996285,0.36218696695220054,1234.689046336074,1.4574100657731743,0.8401392647148626,0.5308284811180561,0.31305512609523006,0.6324998218460658,0.1922038997881245,-0.23411306102173293,0.28355506192491775,-0.7775622635567,1.826655404402125
,0.48681813276318636,-2.037982820812975,-0.020977225523155108,898.8886112159848,0.716835601614086,1.8931224025558187,0.6576738357720082,0.8356705291659878,0.39344269936418874,1.6394189885512196,-0.15330754727633847,0.27710049507213674,-1.1363739488718632,1.9313684103456126
,0.6345047251487481,-1.870363133774612,0.32585852980086205,1105.8062342739377,2.6292757512349683,1.6186380469097827,-0.21274185379391072,0.803868596856786,0.5040833436704428,-0.4732922140919557,0.12554619338106407,0.3073291135462763,-1.3401230168182618,-0.1572750902586076
,0.28764491572073003,-1.1463007957388434,0.06853954740071823,1003.1449047889464,2.5182368879026953,1.021192047716387,-0.3878052615414325,-0.32585517002360703,-0.007386717856112033,1.4386248997122875,-0.831832639137925,0.27239698085810116,-1.0359520159436686,-1.5799218185052095
,0.5076640150164415,-0.7745732792196983,0.45457774431538006,344.5768821890188,0.6974559357067281,1.9255458837420993,0.023392756112747076,-0.5027698871984149,-0.27193132357806843,0.158066205266358,-2.216387055251811,0.09063148794139313,-0.6344031155825737,-0.8497427368487668
,0.20908144598541126,-0.46776103095405075,0.7771577873511627,498.01470538336736,1.351171398744962,0.8599598513679169,0.09637344346615283,-0.29891881183476193,-0.05965390785637459,1.400620460563253,-1.9272670141705066,-0.30022344215593133,-0.18080943129692537,1.0178976897223821
,-0.06024544023281907,-1.1835870179485,0.9683944263203889,775.0583601281317,1.9267838581907146,0.22652552302627468,-0.3593902975904807,0.002001275702970593,0.02735566316686365,2.8411898780726825,-1.683145152652716,-0.012121241408525413,-0.24769245300038273,1.181870789090434
,-0.0668223629298491,-1.9969530387920802,0.7843048424612931,1288.4392416488079,1.4977778036591927,-0.35052549072965344,-0.7251527374903307,0.6315413095602183,0.4093344136103011,1.897474670291444,-0.9548491841190843,0.9965009808842715,-0.49926666309971846,0.7473679610661429
,0.45071011770095054,-1.3885424992369892,1.0104481469449627,1740.1364238696647,1.1052689727543645,0.33263987894870606,-0.2159733700497426,0.21337526501304463,0.5218804194523088,0.651560157860829,-0.49205362769682753,0.5308851937076344,-0.6298321136398833,1.1365892127774626
,0.6796921077393272,-1.30997946869915,0.5149153560106959,1392.326112806976,1.149744395052232,0.8265095880887204,0.42777142774555627,0.18942172711932248,0.4709322177251726,-0.05284639234743247,-0.5915734475267419,0.3233890220537413,-0.8356444543008418,2.053463147809068
,0.32387227688617964,-1.6835304406467555,0.3284228225704406,1712.3047402287204,1.1956866843168366,1.1349256441437352,0.60635693949037,0.6650197945025736,0.6326293960115975,-5.309420879722806,-2.2843352434030613,-0.06904389963318222,-0.8985282803735396,1.1778244798901787
,0.8801575146299414,-1.376748492203838,0.1861605562132534,942.013295163448,0.5468255140702803,1.4405753141056141,0.7155062983903381,0.8023946041567993,0.5191115316843046,-1.1816017509518482,-0.0664268294675445,-0.11979659145415114,-0.6921351652611317,0.26451782157183595
,0.5991704595846701,-1.1669585959915878,0.15251329430112198,344.04103530361334,0.5681225897614998,1.230089186317799,0.54938316099233,0.6575511398325368,0.5945177426938265,-2.3449232369087443,0.06435959562513005,-0.03015277575776925,-0.3791983443664357,-0.38199368803233447
,0.6231136666164092,-1.7609527295023029,0.6883033817686721,856.133691594625,0.4380971908825096,0.5711315666888829,-0.06466776923803297,0.9117068057804373,0.5561106708180581,-1.219376327557003,-1.7634865704534666,-0.040447971570303484,0.0341737327078464,0.5164525128798685
,1.0414909989406327,-1.1748354877577054,-0.11335665181776908,1048.1733818112054,0.5458957429717454,1.3274601256407554,-0.14573625959661432,0.4781003317594214,0.13135701195760596,-0.9899801040283153,-1.3156474221306311,-0.32899034670818694,0.09938686735553583,0.3796465056093231
,0.4540597387432893,-1.0508864315463766,-0.29704535547472555,1506.34832958027,0.811636274801819,0.7501401530995354,0.15821141565951305,0.005222417751970577,-0.2805144791215085,-1.1912146851036558,-0.8878306270514768,-0.15046845436304343,0.011285338915765771,0.4366397636736824
,0.9845155054359835,-1.3352061098218397,0.0885874412926929,1150.1795096549663,0.7644512600098541,0.7246275697776113,0.5628569385549897,0.04474659968250182,-0.11462566714728034,0.46646906780660746,-0.8019496881852325,0.29148601532636775,-0.07194042965059122,0.7426148027789297
,0.8729947470271697,-1.254564109300216,0.46473314148428774,929.2136957423023,-0.18264440868833148,2.0888643059438974,0.12207291024249763,0.8765079057922993,0.4156972816987954,0.8707307480350701,0.5422928854646144,0.7353916846551144,-0.1528905624910705,1.2338627905768758
,1.3753241630379536,-0.4301614796011203,0.805503178808685,870.6821632523528,-0.17454972218486672,0.6756480914881707,-0.08974746801001642,0.3281907277950508,0.22688407853820364,-0.4559730481222818,0.18998858115570713,0.35861631019158685,0.012169110027755533,1.9338520830003112
,1.0659891651981925,-0.4833973708785005,0.036018052677370294,685.390160232338,0.8806889341516546,0.39213552498398413,-0.0743585567906744,-0.20083847757964457,0.11051427887788431,-0.8058987838322583,-1.2754016018477135,-0.36655251244523346,-0.07219707799320846,1.0235558391166377
,0.305290689054788,-0.6431112316191946,0.0590361370892936,58.25835038100424,0.18971987756644762,0.8223525910748261,-0.15055148950298017,-0.07269494846852297,-0.09700687619651643,0.39426497810088906,-0.19341009433467535,-0.24902735565395825,-0.19943583584646218,0.4380637463461878
,0.5276453873518132,-0.9195129413675492,0.5740291787216695,403.02293011787634,0.675826004828049,1.089199589687465,-0.06504793129090894,0.08655345757527176,-0.0566969250175341,5.178545172271088,-1.0074800001877398,-0.013668166342629214,0.03640568821253882,0.35691442306916565
,0.46299292834395883,-0.37217596874304054,-0.17824410097181193,843.1890313284584,0.7272697887437316,0.6170862620329871,0.03274913065497801,0.04171721903541109,0.018514337066341594,4.0179721680733795,-1.5152308176997578,0.19050816398270742,0.010169038861761534,0.39031191841474405
,0.5968498055942416,-0.21336391283955788,-0.3351772902118709,993.1833156647234,0.6726904410419647,0.6545859226969487,0.37077365498833925,0.32311754259695874,0.0002289189914190386,1.2303967578552035,-2.0754403547998463,-0.21476757679415995,-0.06575358024528109,0.400087243339583
,1.6044494193620162,-0.6552349464771027,0.37164640962900475,1419.8936290949207,2.373087732999492,1.6491588352267077,0.9837245390370748,1.4917463410663037,0.015401879996519178,0.01016396910013555,-1.2614488554724266,0.04408775702850642,-0.6357380986687173,0.05502793320092927
,1.0645552202167194,-0.6199030039428475,0.3449667509082533,676.1385832388696,1.437528981717953,1.0801189950035581,0.37215939535859593,1.2314736115386606,-0.042460532086855025,-0.22641363287268276,-1.1639577068500433,0.2354226885556847,-0.7593763150347007,0.28333297641457733
,0.22023750213050863,-0.5912386992032214,0.11615573730037904,202.46657057709788,0.6213415355386208,0.2715583178860419,-0.22698534137125956,0.3114533368139209,0.10169178894895606,-3.555365648907428,-0.14641908112961474,-0.15070130492393963,-0.16757478762111858,0.4376220693912814
,0.16126642225446164,-0.688650218004566,0.426069617762227,1143.7372874451992,1.441019258280674,1.5812651885301332,0.18018131841642232,0.11168261977142163,-0.19570836425916538,-0.6598074588846361,-0.24449197341489534,-0.2824219652677924,0.09061054617324024,0.768841103410397
,0.7618280120030687,-0.49950134038480287,0.6598333816904443,1117.1506298191935,1.6378327881748809,1.29629869415076,0.12556929123710564,0.30105362539872704,0.13155743958030885,-0.9215547797560769,-0.21551670870691894,0.04308417610177975,-0.0522676662311514,0.7718453240976952
,-0.22840291153360867,-0.6432612475306624,0.7601113369631435,596.4040402207856,0.5688415211013584,-0.22926292541963386,-0.2419745850546711,0.9421132350728788,0.2884470613588333,-2.969441902418795,-0.05824104329727858,0.14427910419701828,-0.06529070466293058,0.7728515181474291
,0.025402320043048657,-0.07734606798068079,0.20487066065253717,729.7248299348629,0.1465908499949012,0.023719629168561955,0.10921104039773509,0.6537050527206227,0.15253289196422487,-1.4171283247691084,-1.472132378553595,0.19397039917002057,-0.3297734525181069,1.3378313238231883
,0.47888352906396847,-0.28217783967043486,-0.06474216353453348,231.6708543526403,-0.07563875121987573,0.03397134601758984,0.03195352545724896,0.6299137007723337,-0.10653530354895085,-2.8196143948102472,-1.2179662918371605,0.048336604334303444,-0.2212490291701098,0.3443139154423516
,0.18256835746992414,-0.45553581067944354,-0.1757768865393331,253.39015780883182,-0.9348174959614037,0.7841063680631685,-0.4157079077332732,0.6817507052797164,0.17438189758269376,-4.311076050651257,-1.6769852486325494,0.5984149797679732,-0.4289020260149896,-0.09973836362652554
,-0.21347228857954081,-0.38047826157413916,0.1395837381373568,583.6530284345672,-0.373902411680859,1.1220677385935434,-0.09741750132304638,0.7349764915751285,0.12120330582509356,-4.5484236149115365,-1.6785930981178585,0.09535047148104814,-0.33516098089753255,-2.2708736311858417
,0.14067674135884148,-0.7739821949110243,0.438178148373808,1113.076707653087,-0.4631443051736733,0.7567886647583865,0.056726793666978956,0.12881143937922945,-0.40138004994366744,-0.8728329094851375,-0.9633113256677523,0.062379034548089775,-0.11758428203749594,-2.9535759478927086
,0.29996359011384177,-0.5892374769691495,0.1517675102674969,1113.097951771495,-0.3869643372221607,1.1056250675954913,-0.020551478590010407,-0.2961092872219097,-1.5367047915453333,-0.11957124578513278,-0.7937200983396963,-0.14917168863469024,0.07725494587989658,-1.5063995673269597
,0.3705827917380426,-0.19703854124609405,0.08946613776766885,780.3931717365197,0.6706200711695507,1.4368562321685516,-0.008684004917021544,0.4225343077246965,-1.0317568849453669,-1.021817870635824,-1.474886171728161,-0.3398097506185281,0.2281396858150141,0.6474798237075622
,1.113754676547486,-1.001081781689537,0.22713823144223233,1446.894104144355,1.0725460784167224,1.300973745447573,0.3788675624458412,1.076707867595215,-0.23692947849522858,1.0378476923882975,-1.808056874355688,-0.3610941810176328,-0.1246016933688413,0.7183783474088501
,0.3118800581956457,-1.3263455880782142,0.20872151868457903,889.93965490487,0.7094345229624793,0.9361617740305027,0.6157311072604614,0.6349799580881768,-0.09210922670221483,-0.48098811863553326,-2.0377941093661867,-0.07049909595139169,-0.2893603986744879,0.9986543988208932
,0.07400173333403705,-0.9150109969156613,0.45274847367183696,494.1927462851069,0.42172496682717536,2.239088204544706,0.7494595506281209,0.29079854395267984,0.10758414573518149,-2.841630583295886,-1.2896474660123838,-0.07585128789397229,0.09260720567540254,0.9811496463420911
,0.18410326523654819,-1.3886110143903538,0.7225335418910535,555.3106514164857,0.730214208163236,2.5156615758192316,0.22205833079599469,0.19627044736534419,0.2532743431591833,0.072572773745929,-0.8809503943809053,0.39018499507443205,0.12205805296584686,1.2848189666179217
,0.8987614289368454,-1.5921667863828814,0.32426015236232736,565.4662647147994,0.6719518449415465,2.8825134848496847,0.19109229513666487,0.8691448591593878,0.39265722987392354,1.697062594447585,-0.33300610634731764,0.27999246106952425,0.017932642031711514,0.9144099278869603
,1.5280848691541127,-1.4206366552710807,0.5375678406995297,1423.2852083023631,0.45641882264255634,1.1531077607501155,0.3828091497503763,0.9706373050296874,0.8115188603917801,-2.3056843894244397,0.3459901545596883,0.15413676690488942,-0.23651053472817612,0.516940786049913
,1.1950853039608569,-1.3159203350844184,0.368968924529784,1681.5064206332945,1.222026644420069,0.25067234650634546,0.08139295857866324,1.3606771033913985,0.3108301626124348,-0.2369653344693748,-0.8696518557562133,0.31865583285522026,-0.39603437547314263,0.740912321176373
,0.3789577139840659,-0.9347470875853646,0.028032438511723982,1672.5178239242791,0.9319578224942744,0.8357265117069481,-0.2295349941051085,0.6429838387305463,0.48037918793839135,1.9583233140760368,-0.5510003703485156,-0.03288632082819664,-0.1562675942471361,0.4126784092347918
,0.7745793624798041,-0.830810038506553,0.32492460616311636,1194.3285865649616,1.240312359194847,2.085200722515829,0.06917610199873374,0.5107742272045019,0.7473053807417401,2.705919045754014,-1.1946612436782802,0.5249387487476868,-0.4364653908629364,0.5940217564510514
,0.8652868132270954,-1.258981037049268,0.03129311518649125,944.349550029421,1.0302584947760502,1.8584301922095658,0.0647214030757161,0.2774562380689044,0.06750295482289703,3.353967553178245,-1.4939867169507863,0.20359840847929803,-0.459282832668664,0.0716061332750416
,1.3084856581393989,-1.2666533644052171,-0.1769234603917867,2139.0294885037024,1.2281112680660309,1.946579373929787,0.2503166063134467,0.6692571371346823,-0.2668505204262465,-0.06034494556018325,-0.7742025991989161,0.2941343178185641,-0.04772204160694972,0.17424441521947698
,1.2588560921466827,-1.0616838275295442,0.5500258953463469,1341.7510652513308,1.864003021503263,1.9351168307944806,0.36955566285900393,0.9812835161159054,-0.19084826471210115,-3.2653103477019925,-0.6424694875848956,0.35976699710493454,-0.18065663380129282,0.9631269625317632
,1.382179765386029,-1.2183471619612973,1.1855110450851853,1349.9541760687937,2.2421321463191983,1.907148513793317,0.6927238895877544,0.4968391296923011,0.43575922814614126,-1.0573608567522028,-0.8606160879589488,0.3682259155038419,-0.33365914414476083,1.0630239086563353
,0.5337222927400165,-1.3438561041306991,0.5672003863052758,1741.5295744988973,0.7626253733706679,1.8624286020685328,1.0285772424165498,0.33070249962307224,0.27982656538598333,5.841315615733561,-1.093194938303511,0.16916841787060002,-0.600844418017541,1.3555766471336945
,0.0865146169413141,-1.280404643917235,0.5006437913626924,1021.8997049798098,-0.2518249118632945,2.5049625710540235,0.7378319027186654,1.1192391160015873,0.0814244844247449,4.685845967169142,-1.1098348985246274,0.2406975487105745,-1.2955817137430388,0.6755887846594004
,-0.09761070824170995,-0.9268001682523815,0.7697411874001902,1039.6839828300344,-0.18250957497771905,2.1190150214289054,0.2825598703668698,0.9998321819580416,0.3444814407648967,2.382245881150582,-0.02938081493768555,1.2710255562055959,-0.8653477522197046,0.0238803186244163
,0.8212785630944779,-1.432587298095998,0.9870896701003176,1007.2461781600817,0.5015624208318646,1.4045016649936988,0.44437694066769223,0.5501969728753102,0.7052407325852093,-0.30766050920059146,-0.4895446307520298,0.7435560597040717,-0.46425067324381736,0.712616366247377
,1.4030096002099217,-1.6446510261476186,1.4352537082304855,1405.8465992407469,1.675698920740671,0.28972373114780603,0.2037117686721734,0.9124071875828013,0.6918670425086421,-7.155315851238388,-2.0134353170356767,-0.2851339749550482,-0.4830954835099849,0.9975669139189337
,0.7841969890044423,-0.8639075182314442,1.2250498992447885,1901.157750100642,1.0291291419302582,0.5876625601667994,0.1847233610154925,0.498168284215161,0.5758660311110384,-0.7156116443451213,-1.4121154482522227,-0.24656881910521614,-0.599893566443067,0.5446551535906446
,-0.018870072556492964,-1.1066690606978165,0.5665737484894509,1664.1097225139983,1.5949356894044986,-0.151420765392879,0.4120918579542487,0.18411698876743768,0.3687954758685642,2.9217502899266505,-1.2361760366360242,0.07331143868978139,-0.4376528353008705,0.7487096695041143
,0.8225628885549985,-1.101282009091671,0.11822010662605881,1106.8137172277027,2.754007750262841,0.5581576108018302,0.8047397932098656,0.5286124481096337,0.342170731089665,0.7100120583427326,-1.8542994302723537,0.26061955118112184,-0.17194762299861613,0.8288640436855359
,0.8087472843797691,-1.535791496948089,-0.13245145040832995,488.34725555084503,0.9909475264314002,3.0898881045418953,0.5124427372658816,-0.06379521435324144,-0.12517393050172165,0.362848034517348,-2.262794537339239,0.3869225580889386,0.10973262009682352,0.776140378567833
,0.6433290319851022,-1.773930980752339,0.044767581613275695,948.0785811758315,1.3323192530969044,1.7728422817151213,1.1318614543707335,0.11867500739487805,0.20711409132926561,3.159968752390677,-2.5378190984836646,0.7306775829794081,-0.20222142117567143,0.42148294922470764
,1.0175118563214531,-1.8445888896886868,0.22753572573076952,1477.4304200927495,1.8399512874900847,-1.0094895342354726,0.811349766857097,0.2930246685973847,0.06948174445289096,2.0268127980362,-0.9293712605185169,0.46427259850725777,-0.3016988840802718,-0.097131399298957
,0.9816947745664659,-1.5884653215817397,0.5859236808617749,1143.747830944565,1.0473708668818535,-0.5656727202798195,0.4048063352458975,-0.06468483037197165,-0.3611554853172272,0.14530609684727996,-1.9118185177423035,0.29922228941224843,-0.44906999687112514,0.3746593991761543
,0.5158039934483208,-0.7824144241080735,0.5015159642689089,596.6701307442988,0.5583423060552049,-0.13380869420616784,-0.04252716692929489,-0.1300985700472296,0.1815169206766107,0.706640348769352,-2.1798373831619444,0.25629518441968135,-0.481346775938555,0.8450588104920849
,0.28408305441223414,-0.9730249470432928,0.4465668128704085,38.34622473256187,1.125475957646028,1.6699356937389687,0.3703683276306645,0.05554066188213114,-0.1873476118096453,-5.659686574677186,-2.205392939891119,0.7691979891677942,0.025228486946740986,0.9576518465664186
,0.3310481747899516,-0.9964613032056955,0.3507180287251912,552.1752271630235,0.9741987517247372,1.8046750873445763,-0.03496317244213581,-0.10156706625480277,-0.44296054153378256,0.8479828697299961,-2.6021514490168407,0.08637624906744207,-0.059449145618478826,0.26107283829914446
,0.3950890007594504,-0.5159023753854729,0.17172247152504086,616.2643489976938,0.23733767406834402,-0.19748143401547227,-0.516274868488689,-0.5116607671068722,-0.01594327417557802,3.3734586509617763,-3.029673459342616,-0.6759841739750752,-0.1959508461526167,0.024323200390972518
,0.7112853692906558,-0.32425382640942196,-0.07352169237450688,478.4504326979482,0.47808122251861096,-0.48800065541743143,-0.24082850242100684,-0.3773643536753719,-0.15732788827571648,-0.9703516218697498,-2.758860769410101,-0.4545919478726834,0.03487458084731893,0.5483674861945393
,0.9589938212569532,-0.2964022656067728,-0.25835393800528955,602.966509173975,0.7205317026973583,-0.1292565435986364,-0.38909895093818553,-0.4089004200513104,-0.6589146130330409,0.3954840616320688,-3.2975722532962926,-0.5769042643016884,0.3902304506744151,0.8265130534049846
,0.6534101791683045,0.3757944309861496,-0.2943618291509789,1484.4240292524216,1.0835778243034548,0.6767072064062593,-1.573147811512912,-0.1555677238585095,-0.5136963590443359,2.1929404996608692,-2.0905595062343605,-0.6263688108128748,0.13464224044653178,0.5784448817271293
,1.1111408316898275,-0.12709858144410868,-0.13418580093819615,744.9081494407405,0.6959628844597531,0.33067430666082887,-1.9278726148551817,-0.058566978876841716,-0.29576481190861903,2.4924954927905976,-2.6603791585029133,0.23824716753350741,-0.11778422426596277,0.6881814677358965
,0.7256141130612763,-0.8291484853522423,0.0960900650644142,678.4217851353822,0.6377883792712165,0.9253959510110978,-0.5665172972820762,-0.14832953230132057,-0.10981634645711875,0.6054234372689723,-1.6605422968892467,0.378657659115132,0.019164814829775327,0.020433945798804126
,0.6768048734456521,-0.6866721239740774,-0.1333280188999926,791.2300349463567,1.070357849192544,1.0256891643935242,0.49672978632042886,-0.4267699540342404,0.06028953947653282,2.2428394983134363,0.10214016839328223,0.2919562618524157,-0.06679341909872838,0.3375474582770399
,1.242837072184709,-0.443109978876726,-0.07302255410854398,220.68620147022017,2.0842440610029307,1.3050831628826378,0.21624220874206418,-0.3254724323789472,-0.20689598654616717,1.8415927975457809,0.15264565437181576,0.9981823054655193,-0.32254960436662394,0.3028458764441935
,0.3331468075430662,-0.6240638571334284,0.06166272133386128,-48.4410959388697,2.4627282175418057,1.6392563145774968,0.3653252220178941,-0.17709654781672513,-0.28912352788909096,-2.9661155634639202,-0.8073724530183323,0.8303005507271843,-0.5222717042197975,0.6314040008318414
,0.3198399541807603,-1.0020072185262165,0.6030568695949088,-27.597783356721607,0.8449522868823103,0.3987528421374525,0.7653229871716813,-0.3870690224913336,0.10686750733642483,1.2564901894853482,-1.1496602702109973,0.5194828889196849,-0.33455816060698823,1.3294131593720446
,0.16950494330721186,-1.0219751637636574,0.7246430433858658,659.1363101571606,0.7669453323575586,0.1701499071442616,-0.16080196182565565,-0.19753368171269842,0.3048333692031407,0.2445710390716849,-1.0453790851335805,0.4543024026748139,-0.18472274274322525,1.8307149483179752
,-0.32041658143157636,-1.4254953231315832,0.241981917276844,1176.5625298316647,1.137312596929386,-0.4210952137818133,-0.7751152335332842,-0.16749530867937973,-0.19218953827507673,-1.2892935293986525,-1.8821282055306987,0.052028844882472704,-0.09833658454986595,0.4298164408992431
,-0.16413493802440082,-1.2893910170990555,-0.33874104335878996,1179.759833785753,1.2041647229021495,0.17335069789627344,-0.424944340116172,-0.2936773954162042,-0.5135762647092948,-3.339002697010985,-1.640005464129574,-0.08439327389437815,-0.076264110314848,-0.027408976400096745
,-0.2001600616139358,-1.1248921404142707,-0.1228092240800039,1031.1545655514458,1.1605763381161602,0.05750294855895942,-0.19589585392879916,-0.9823499179579487,-0.8223347125782734,4.754994916237438,-2.119025164899364,-0.6261349145408456,-0.06537286716688691,-0.26939252121959584
,0.6981046941070213,-0.7913931354513218,0.020407776987813864,512.4232199916597,1.5041644916738082,0.6179667454226135,-0.1919185303831648,-0.9779897602955633,-0.7527730237521423,4.582141721831612,-1.4396799710524157,-0.8220441129643411,-0.24968867853609275,-0.20981873034832252
,0.19536740837128735,-0.39347634144290533,0.37426043259753927,334.7718270596577,0.7390984383129274,0.4652968521680063,-0.552131841153545,-0.21072800504686304,-0.6259239920681756,-3.5427671665967044,0.16025606507750795,-0.24963237210596076,-0.11316205170894565,1.0389275858850182
,-0.23428211760971748,-0.7898680251057106,0.6199561495945579,1148.2304780079967,0.18889506095272393,1.2379619356047313,-0.144477935229271,-0.04744795216515541,-0.272012789524885,-1.2863588434199087,0.5480965549310393,-0.08178658565388217,-0.21786466015446676,1.7198894964952824
,-0.27753859501220696,-0.8896222844751295,0.33707892670065487,624.7720874994999,-0.15029098522538106,1.2904744294676354,0.1576060868692443,0.3383536045593756,-0.45020829265056056,2.113854059483385,0.3872298952034942,-0.10035478240432852,-0.3865352124197895,1.777446590377554
,-0.11304102477805428,-0.9206541942851526,0.2898378657660925,537.933496553534,-0.35407150321239933,0.46615595607414134,-0.27440461558756685,0.18435872206694767,-0.43890322552073757,5.764630714931369,1.1562751386539543,0.4901289767291875,-0.29072249833056923,0.609035463857848
,0.03458437527355636,-0.8073140649953089,-0.14180698550539955,191.63309787433215,0.17947496722076303,-0.25479205325743043,-0.7381904305808016,0.16210137557771293,-0.6149811957507597,2.8007926198149855,0.3336355494173052,-0.0672182575317376,0.18817952426738538,0.2951322134844377
,-0.3792383476799684,-0.6685861903805964,-0.0743480129787168,-418.8049137471909,-0.5340810714662265,-0.2909898439707898,-0.6546270178722807,0.47003845084777557,-0.5402292204824621,2.183940500626951,-0.053649328955580666,-0.28428319966570553,0.3964293294204447,0.07037661953057796
,-0.3474580793504504,-0.267140379150742,0.31387379375283364,-84.29308805243677,-0.3071021903758359,0.24719133324863943,0.04400668300458469,0.0381277542192773,-0.5586469103295392,-0.10278618712033097,0.4457627464509703,-0.015519973492815819,-0.1299147326482799,0.5581253443465581
,-0.32922019666832253,-0.32083613177061615,0.2613078652680664,354.0561156114484,0.38708186005213646,1.5728152183102095,0.36845627435854045,-0.3383397616266228,-0.445184534374598,-1.0876298846786565,0.6082472707116565,-0.4082515051074136,-0.14565429498588758,0.7365834605964385
,-0.5332804204740964,-0.7537078475988255,0.201681828925169,1105.5080708485204,0.8899396513460401,1.336647269962918,0.30771258842261523,0.255253243536344,0.04948601338406484,-0.6261183150917367,0.0473055414061775,-0.3703799130519308,0.026314940379168855,0.44825731504165195
,0.24005564486367348,-0.9148677179363965,1.0065618851095675,1771.4839318257173,0.7317485424044924,1.0766634032590823,0.18622823249084358,0.29348449697636037,0.7714900319849464,-0.8060530668977823,-1.2932850782243797,0.14192266575953652,-0.19707739025460305,1.2005153334520458
,0.055266043236962284,-1.0752439617214649,0.3948155430630302,1746.749284895389,1.0707080672909077,1.3850704171908694,0.35747437100906243,0.4574988955669725,0.35834962489554045,2.489597077299027,-2.0335229630853324,0.5838463349448019,-0.20421883655462766,0.6563627385157298
,0.4281449889552133,-1.4719869508217394,0.13684852991969595,1741.302156081625,0.05578526152645186,-0.26613503987528464,0.12304086743626497,1.1428239964407745,0.11358630511822358,-0.19222295584928314,-1.7606049432243718,0.2902043826198157,0.10747835121558136,0.7508311641616642
,0.7540453204611095,-1.2013606878370047,0.3470013794367551,884.471703287978,0.14931317825582266,0.37917664214359365,0.21959703853037676,0.843045232384424,0.06379523602633819,0.47220957526253543,-1.4689767880331452,0.2897000305426611,-0.21969327126931784,0.6908973625844727
,0.20251997804158306,-1.1703114023005887,0.8233956156955522,118.4958584578381,0.4871372434455298,0.6145749542475194,-0.02078597004239693,0.12101525818339012,-0.04529229098043443,0.31496130504703324,0.007553038365256353,-0.20363165645421558,-0.44364435741782365,0.1985807646354407
,0.02018437587902538,-0.9033101711844688,0.3387143097768513,-364.8384002095714,0.044767588084377336,-0.2876333634939079,-0.3815776102416387,-0.055840476271641605,-0.5722316931650925,-2.5613075301622015,0.3398553225697084,-0.07241619401905412,0.03228622408004411,0.08389669023667415
,0.6262666219062917,-0.564087672463299,0.5889317439119318,190.7684846335226,0.06978374411706387,-0.4698438346024883,-0.49823621243543365,0.34898287919991555,-0.23545763081460877,1.7054642209601547,-1.1675433524146763,0.1281014954876792,0.08741469110626245,-0.23443174995974742
,1.354635188839984,-0.5460661020202824,0.4190531196055908,740.7900545309421,0.7293531283284335,0.5881295128335741,-0.26743104172959475,0.6339825471219257,0.32529766574791674,3.8015668229743036,-1.260592396408151,0.12317205796276842,-0.16005818765060145,0.1653349295840636
,0.43500457284431504,-0.471457758888944,0.24377654946880106,644.4278504407996,0.211288802163586,-0.29039239161263936,-0.4797868990693209,0.05446329850543329,0.13756438621025488,1.4476176907360794,0.07793827199386406,-0.22799842076809632,-0.14764923172018962,0.5290492551615079
,-0.634110757046205,0.013279652581762414,0.18035122589190164,588.3705841686977,-0.9540948337083168,-0.8653388447253519,-0.8429488550882034,-0.5376691883118784,-0.07223067312359077,-1.0568097505723184,0.2610213012382217,-0.843361370774697,-0.007790161601094156,0.7680872416047194
,-0.13096736968984812,-0.04378135615845391,0.25989641685766274,492.595754052019,0.08842234711782845,0.9675829629994178,-0.08443190399559634,-0.0849280911576806,-0.28569881749532944,3.584823718189574,-0.0516274404038898,-0.19311853628565487,-0.32656716888166804,1.2352308763400608
,0.6402139422006495,-0.05090572002993832,0.009592614727664095,850.5752247534818,0.34958861503096617,1.3697122928513534,0.2427443978128428,0.39640390016733007,-0.2374409374990036,2.561994156685381,-1.1111508668517283,0.46663560590280956,-0.39578683723426494,1.0412178135897359
,0.2053685214018351,-0.3257414249266561,-0.32544175092215605,621.2855146477166,0.26928563990307985,0.959061463745566,-0.12648793823312457,0.2006397889010924,-0.6735233243230169,-2.1097745248449042,-1.820042640744657,0.22278595014946065,0.13153519187479176,0.6045494460490477
,0.11165784480557475,-0.22099694622602523,-0.11900558267404689,198.10077930851608,0.12108376225467657,0.17272155331741487,-0.6600856515053996,0.6548719680455954,-0.09540686077131481,-2.8389528115302647,-2.21700820367952,0.36970976085038587,0.24770933472576265,0.7051447258764295
,0.5515859190336188,-0.36210659331186296,-0.08356227396781775,366.82169882427246,-0.09977243101733774,0.47249872341191945,-0.43754251318918536,-0.23936017729737433,-0.008597080395940633,-2.4550372903602775,-0.37744436785396784,0.3764461108118909,-0.09247100008450987,1.110846923922155
,-0.6909187770169674,-0.11098790768494564,-0.6159794493495869,-170.34136725561868,0.1430685917842497,-0.7635302055415653,-0.8705576686891745,-0.5349639531057554,-0.1577277365449212,1.0818477419988817,1.0365234136652555,-0.6653930736664712,-0.096870933665672,0.21836601656398713
,-1.2710549610106796,0.29673612189916854,-0.4609179474050826,285.79122857554233,-0.19279660480033856,0.7223390946521379,-0.2771451500454196,0.04832498665058037,-0.052296467355696576,-0.23063225094722944,1.249222832829975,-0.7594075003746104,0.16213784296287143,-0.06692585029318864
,-0.5155903852583393,-0.08039340506109871,0.23231090949576133,657.8274800331417,0.07226840654697358,1.6608744803303033,0.7613638429545,0.7800195237279938,0.23203666785200158,-1.029817919840865,0.015391395100604244,0.06276006902795729,0.26125714133401085,0.5121112363772217
,0.5793087701573171,-0.5005909308292498,0.19667576597519987,924.0793445187674,1.2059582899547183,0.47458304162947157,0.6926006510739747,0.8435695628698626,0.8270401410216476,-0.2523705229237731,-2.1958208764186105,0.3777541982534382,-0.4616345212387842,0.3578713345036132
,1.23830464184143,0.11401342937673975,-0.018727329866778095,646.8671569874598,0.9530049594660686,1.0749123908678455,0.10706204681345663,0.01506905133374455,0.5263690349980107,0.6270188022305385,-0.3311129170584632,-0.04171844146811505,-0.08036918713120794,0.7128746346676212
,0.3130102730774292,0.1260857261393189,0.05504579703784427,-612.9611892643183,0.5304599214958623,-0.007242676213074921,-0.6973734974661745,-0.3929189449108367,-0.011169690641913765,0.4755968097332869,0.06925638067326245,-0.33025104579827,0.27294682238189644,0.8475725607454188
,-0.4237378977994239,0.3246589509177545,-0.2093497006080649,-940.1538270752321,-0.0370707945448064,-0.5904137143063848,-0.7287465981723892,-0.18516640211071725,-0.15047634030778345,-0.7856127860780354,0.6003318126403397,-0.3835660563252549,0.22814960201347942,0.37072378992043536
,-0.03209304056422692,0.44007844230619264,-0.28779634291134654,-969.9354257236909,-0.18265382945225206,-0.1203290165925316,0.04310807297943943,0.4379645184917413,-0.2692710450828078,3.0778569286927344,-0.027732360091625198,-0.23107279545165407,-0.07051406099702509,0.30290131443130003
,0.39190872326940446,-0.07727543513387931,0.14898814094196,71.69479848199022,-0.4540020432585994,-0.4153456882829401,0.14899455966808037,0.6076625969800364,-0.3834931610271492,-0.8708523691006822,-1.2118814857176123,-0.09338881295328778,-0.2770289681292216,0.38034247613449296
,-0.1460349114537167,-0.1924688007975567,-0.024618415390139824,-88.98515368027489,-0.5202564921397974,-0.3432844322218876,0.2039272620216408,0.405891052576381,0.27908103920887617,2.802562902108474,-0.8893055458955248,-0.28675250482651765,-0.22152412489250412,0.38258658244526317
,-0.5327468407317253,0.7155255049993394,-0.2549063986314021,-610.3472788395076,-0.5366173960011935,-1.4453636488989638,-1.185974634605844,0.22987295444451855,0.2856111054096727,3.9343765815031877,1.4464849620656974,-0.3792610857180881,-0.11547662079904053,0.31895670126093273
,-1.0268712912657967,1.3318767464108805,-0.5374326771416084,-825.6998056328646,-0.5521412645846652,-2.5314184042466024,-1.537165519460313,0.04773465500008252,0.43306238234641675,-1.4902108454779743,1.2881345895198342,-0.2854891617890722,0.13129748801856753,-0.015394150032583126
,-1.1098068654604947,0.9142767348835141,-0.5681179056896893,-233.5780062052043,-1.2689625203301862,-1.8696715766627063,-0.7682410044867393,0.18221868564799393,0.024797768322298103,-0.8728405585404359,0.9809947262578416,0.3723380385437207,0.3913929933646187,0.06076394936804358
,-0.44008824476074004,0.7426533370955839,-0.22677641905336,829.6909154762961,-0.8851160064486642,-0.2425494056889566,-0.28277098682116464,0.30759137782697116,0.21801564792632477,-2.395688894419085,-0.621317199366901,0.04129476710714672,0.21438492297146644,-1.8773850601962603
,0.1270357532290042,1.0298533904353218,-0.19145804656620222,884.2436111617163,0.034212247222229056,1.593116956459181,0.4505971688174347,0.36969786915052466,0.6170644094208694,-2.5301785621189534,0.02361535748843535,-0.2509419445685733,0.05153960772940544,-1.8064507894198707
,-0.20957722376712307,1.2542792148085273,-0.5985496406949969,1370.174235841194,-0.8964266920826424,0.5593045625207189,-0.07421693084856663,0.20860914430692482,-0.06845634113006158,-5.200319423296224,-0.22307858251248402,-0.5026282172960524,-0.0634990923182865,-1.026044161604089
,-0.5288444265398616,0.9377722214108302,-0.46270777075976993,375.45302138405015,0.13322554518382873,-0.29846649513980306,-0.2077598351201599,0.05507591941684093,-0.5895839457864147,-1.2723097945721,-0.5777420565211406,-0.3674132104391319,-0.15619588528420142,-0.529391446963119
,0.49208638838562774,-0.32908690239836735,0.055613865476117234,559.2299174042097,-0.290104659447792,0.13864283088903703,-0.2721297019054372,0.1291357858628925,-0.40453563129856135,0.93357966297533,-1.1807103798397574,-0.10046434331202642,-0.3366294279383332,0.19893297769942306
,0.0332776323916335,0.5846827119008221,-0.4355328102537915,349.1516923880699,-0.9381774994552081,0.013589926430374672,-0.8272611986688246,0.07205894559605368,0.12569085814163802,-1.1298286116627898,-1.729322223805384,-0.35305206447954557,0.051563176280127965,0.4182172111231147
,0.26464804084061666,0.2676554751080157,-0.2902352146605075,423.7847810696911,-0.8386194336360651,-0.2898004288115615,-0.7420848062214507,0.6090000608095233,-0.15774994199759906,0.22144358376267018,1.0693479287741194,0.2705072305850803,0.18622942625043695,0.9101542101369549
,0.12812675857836242,0.22437938847804295,0.028292872726251826,-516.2654618009587,-0.5179513791852737,-1.9032517476287798,-1.1482382793698493,0.6586823387817315,-0.1426200161918263,3.901793509006858,1.8973565743499698,0.061503974643797796,0.1429707016574638,0.38346444716761796
,-0.5923888305664349,0.7768214574581319,-0.27056703621533945,-390.4192694533712,0.1242894407139813,-1.5502165419943643,-0.8431019098256554,-0.13308305005681445,-0.27286552964023486,1.1130327617365785,1.079900667716691,-0.6421605039992629,-0.20253904389958588,-0.02646726866419178
,-0.19146627614229494,0.5725753586984494,-0.0458329876652324,255.3910159554249,0.08478863746666682,2.1868337163845215,0.5933429177036322,-0.025973835164633065,0.03141561627385058,-2.445145903786022,1.5179458262296812,-0.6779360229481809,-0.22514362662020881,0.17122912090831094
,0.6633556898091163,-0.08180239475293907,-0.04057028335944797,40.86486907705196,-0.1963320638978659,2.988854955081385,0.3269645235979934,-0.0053994037322788145,0.5905722821553381,-1.5719041378883023,1.3071853455057447,-0.614984193671423,0.0899344560365413,0.23278314368354144
,0.17025046172160158,-0.5230507458356008,-0.2858381218799114,227.7118485606445,0.8386764645120975,2.185053039684596,0.23730884625922885,0.3941417231758377,0.38039527325784145,0.6897519304402134,0.5866235948992622,-0.15474631465743433,0.5354439890315275,0.6350637053445487
,0.46634032230678985,-0.36686877294939646,-0.044674963482954244,1008.4531286059847,1.423700747751542,0.8075104284904006,0.2996036672550764,0.34838940191381323,-1.1359512878682465,3.5891073088413656,-0.6987246908902376,0.08199737597348881,0.18815793666365666,0.7542804443317187
,0.5274634661663056,-0.5851376049306576,0.038669264739654916,1197.3474057999797,0.234509782318273,0.7635749481809833,-0.025071736026573612,0.18581509545227118,-1.1948325753051376,-0.6996441057929427,-0.7350720700528341,-0.042027001628046755,-0.07112011145903126,0.7973437170823771
,0.05448353773068786,-0.7512301639166966,0.1552915448663485,1453.3847490684159,0.18010190604163576,0.9961658840365675,-0.28744050158891754,-0.1900229057551262,0.13576847222346672,-1.817151191988173,-0.3970287074368482,-0.0438321872493401,0.06902720216561788,0.5665364569672289
,0.25193962475720993,0.21301556526819734,-0.1253051867071953,362.46080022003366,0.15133130271838802,0.7953101610336274,0.203633773618435,-0.3388888831520145,-0.47102809530982787,3.478591210611839,-0.16110161506704698,-0.6268489813037641,-0.2608297386582717,0.03587614986565513
,-0.6141203381274999,0.37187755557622604,0.27091714512567766,-260.6731177204485,-0.8156746760013694,-0.8178578558493048,-0.14892103710378696,-0.0912529850179448,-0.5114050409855823,5.036295636224512,-0.06419659253819963,-0.4996673469698455,0.0015750010875862184,0.06017301017366453
,-0.2640246304067875,0.47286539977034986,-0.2813628480806829,-569.544360845578,-0.4063494891003355,-0.3184597792858945,0.4303916796144501,0.6984944392686762,-0.37863445465140605,1.98291640914319,0.9100233827747217,-0.24836874381545537,0.022345736591721753,-0.03708872856356851
,-0.23797569326086462,0.5606283467285949,0.1490060666490178,14.98467495409722,-0.17344038242658072,0.5908035072544217,0.0945786282848493,0.8226571277021303,0.19066796778896264,2.0571164024237065,1.3856219840014397,-0.19595367237723868,0.07899769573948233,-0.40536603772511653
,0.19354346873886316,-0.4053365593378581,0.4970866444907459,667.2489643975719,-0.25107202250778193,0.008146807690067441,-0.5198667526343786,0.46303204970298284,0.8062697232062205,1.159702804661894,0.21260555738759498,0.44984739922746897,-0.1774199581519799,0.1414111059110595
,0.8493699075814674,0.21739601095672745,0.2342553007962023,-24.455790629364905,-0.6384983187072731,0.6372637157569507,-0.2407935714565886,0.12154368572299748,0.4065759635230526,-1.6916258733710363,-1.3656670917416456,0.5313203040320489,-0.61853502141708,0.20277865275231977
,-0.1722971890488453,0.18897791439906658,-0.21315286922681523,-810.3298936917298,-0.6435807038952646,0.40633532822769675,0.01771633134360195,-0.10504881024289563,-0.16234267266828795,-0.8531043819021263,-2.5371819372895765,0.15910536360698097,-0.10599681758897245,0.625552703018542
,-0.5013013550659462,0.3228630243014832,-0.4602036943480163,-901.7059255441252,-0.9826615232475145,0.6093135341309788,-0.36232742426492476,0.23750320372896563,-0.20769172044479192,1.5303444828278554,-0.7109580881964548,-0.3450721668985176,-0.011647019319060623,0.5508412202864624
,-0.489823485842145,0.9317196638292591,-0.7602313766024392,-1133.3416688598054,-1.425013434936186,0.34257004027422083,-0.5634059462431246,-0.06165674741446573,-0.4927753319396802,1.6296269227513878,1.9055713204973883,-0.5867845652146368,-0.15678960616936247,0.20627318959964921
,0.027957035506474225,0.8589185208861073,-0.23383163190678866,-367.87031418449004,-0.3573074391648434,-0.2067472697866315,-0.00996712397169689,-0.21828245415216385,-0.16600299641888855,1.1584002589817273,1.470357534339594,-0.048390606770979644,-0.16858089692632644,-0.15089810746093618
,1.2422877139143789,0.7521914807395057,0.5773102355268291,-700.6805560828851,-0.8242969968344783,0.3760824195821988,0.028554665339344032,0.04611303041339761,0.07652920667726142,1.1352093015833677,-0.14768971466601413,0.24686422463569965,-0.21885651084776536,0.3382703445491135
,-0.11333152310558453,0.41733035054078793,0.1733378493430664,-97.73408103903203,0.6286239995296244,2.221525212437573,0.6684734445791594,0.5481723190100982,0.7052116541229485,1.3808891898363491,-0.13617201926212646,0.12098363228311922,-0.11817518201647913,0.037303926064225716
,-0.9214537548567319,0.4920235550508561,-0.23846078782422012,62.15043441959242,0.37688969520810933,0.5402668019739741,0.07865281876695387,-0.015749801820379456,-0.01446716579045177,4.4350364591127684,1.523401307939286,-0.3821378950636535,0.09677917236121104,-0.1565632240608281
,-0.17058689784209122,0.9729857999509507,-0.3939254337342303,-778.7927212057909,-0.3516660048449596,-1.26901733138517,-0.9233169048135396,-0.14507286650366932,0.29088301796445754,3.832281495028839,1.3904774466636995,-0.5512415077653887,0.24487709902032684,-0.2795072209298022
,-0.7224281389969728,0.37054933100330384,0.03021597315179105,-1240.7018439795422,0.4076219946679121,-1.6690391241566755,-1.2345159399527625,-0.27085428632665537,1.3771772267118116,0.4838184644504985,2.1201736925788937,-0.48061985373799027,0.3252418539664863,0.32477196913426104
,-0.6908709280537699,0.4536801390288026,-0.10614969715003175,-575.3515115462344,0.051177783152912874,-1.1688174865971293,-0.8815339919386762,-0.5339549591101422,0.33067318659393724,-0.06319904764366063,2.9473398091798804,-0.7266581178223992,0.355935332782737,0.5825731120810158
,-0.2775640481728948,-0.29896093819966885,-0.5535413263857222,413.7827210332471,-0.04452170485829669,-0.1070609078063187,-0.24998980596593443,-0.6891751468843459,-0.26185398360199247,-0.20752572459356533,1.978900378901826,-0.7217292427263492,0.3149868123514284,-0.2652402435824525
,0.19437920817701776,-0.09596689893827422,-0.3612530737385015,778.231822250151,-0.5176958032469453,0.13184347850831435,0.20703080711820956,-0.46193393090092216,-0.3614672500119507,4.545621994972443,0.7259041823647706,-0.23169192600314314,0.08291431200084783,-0.39286226885714043
,-0.09200258532363356,0.44844114178990496,-0.06754732406502913,743.5373528288195,0.0653394965278455,1.0239984778825424,0.5390052405525866,-0.06696042136597805,-0.18032316787219255,2.072257233691309,0.7557713710223036,-0.18411686099962926,-0.4217292042167443,-0.009061440733220412
,0.24248084635918066,-0.07417992936306304,-0.31860427380163076,1301.3172572205015,2.116492672993337,1.3810021312901357,0.46246567805826216,-0.21313682573541876,0.14841581279096983,2.7349283019831927,0.283234448290056,-0.1234975586202415,-0.19073417269850956,-0.08726572843186871
,-0.08835022410934228,-0.4315970204991471,-0.14589651037563933,305.9656905396412,2.6348030310269976,0.9879565366828886,-0.12782322323654474,-0.2059122504097021,-0.2742479087876152,-1.875393156855249,-1.2219866750921993,-0.38395582274863427,-0.18693586288449485,0.18479548169814736
,0.05599933560076234,-0.3856506846585372,0.2282856067627122,-12.612282970315425,1.2038304613364352,0.43306176571942234,0.15870359357320074,0.3073305290416219,-0.6738352154806961,-2.8294690609162267,-0.8246799344644996,-0.6158044774993975,-0.3358539718805107,0.5389982587790038
,0.5298930497260274,-0.0647027052344023,0.3378772751930125,-534.5401211119311,0.15499931612855172,1.143112015509403,0.056941578901994444,0.13000101220382376,-0.18745199246362193,-3.008358281693025,1.1892800660191452,-0.149204855605881,-0.173750977190194,0.07431313197464265
,-0.5931692210333808,0.4887857207794641,-0.06649213980058802,-162.52080733320108,0.41978705905041924,-0.24830757717757918,-0.6093017305030135,-0.11213674464367594,0.11073314287157751,-4.62125523726536,0.8345448017939798,0.10721213839841484,0.1461200524636931,-0.07579848439988827
,-0.922954804009187,1.337799080712716,-0.3192756561586615,-392.85835172099485,0.3385894300944361,-2.28991425585578,-1.3338679848068342,-0.05384797746588929,-0.0666630192582764,-1.9994979948794405,0.9240810325692641,-0.28849905825328076,0.2137192275719173,-0.059986513149752625
,-0.7569228517733784,1.2258572740816396,-0.8770106136171408,-616.0861244308965,-1.1077248033801128,-1.638041887051665,-0.9943115006942942,0.06811866571606777,-0.17072993577931284,-3.5173980838973438,0.3898715568391922,-0.14046314438289284,0.33306691254239396,-0.701052546994973
,-0.5481064381011301,0.6607125200166953,-0.6307929826270801,-353.5880204585404,-1.2865472396368973,0.3471877988783055,-0.12450899653683047,0.024229887085976985,-0.06271305683468839,-0.42698994277610924,2.510537425958337,-0.06006531691150616,0.2863841242995672,-0.5306902684390994
,-0.11148832482009302,0.1757212564041633,0.10403715481343583,283.9110739228675,-0.5445988587765234,-0.16218928708237149,-0.15966842636310055,-0.23730379562179182,-0.11285144706501161,1.902208252583525,1.7110117085324235,-0.09072720294269038,0.1685700691322289,-0.15936795035173534
,0.17377404200341537,-0.031142295853958828,0.47664301478937093,613.1039869524803,-0.5066292076197227,0.987625227165401,0.4385725627408085,0.2896351480218821,0.3057784145821357,1.80315632366795,-0.981310727292565,0.37243587355156604,-0.19134012501963238,0.5566069981251099
,0.04709413964966697,0.07018331833750158,0.4523535856947398,933.1286490837032,0.5308981451861184,2.1930227245622302,1.177831858195084,0.6972245050690888,0.3459332292173295,-0.2615347263569493,-0.6813869921879049,0.5488302545321041,-0.39431269379296424,0.5160191981899567
,0.5336302425974727,-0.010075190393798584,-0.1602230395617505,284.20332800467696,0.181888506918759,0.5855233539651824,0.03261109322994606,0.09953681798285076,-0.06228407224531512,-3.127456049253783,-0.5402050907748185,-0.165273011788242,-0.0023590603455522687,-0.07332610043842708
,-0.3201175230052254,0.39008708846254375,-0.3148145000321482,181.03399359360225,-0.09649570664080344,-1.3697550739447735,-0.9876593126132376,-0.31274014212382695,-0.32613424495764837,-0.41619777477437314,-0.7478661833236717,-0.49645647823848665,0.3808253966572831,-0.7155747066343658
,-0.6181783729181226,0.5220470656662581,-0.15563132148512446,788.7084386406256,-1.593667856010332,-0.9225972213037934,-0.6551138598976178,-0.48847244714444166,-0.47980435641337704,0.23359702601910795,0.12648939170177445,-0.1872911048049837,0.08661067304032365,-0.13452669841356074
,-0.07249750118350509,0.8960841949661824,-0.010745956584250262,517.6790038995567,-0.8343522349194862,-0.5672596769831444,-0.269165079913324,-0.6653114201951442,-0.5478120835255551,0.14237401377047293,0.6414649987983062,-0.21758203751475513,0.0069792483406188755,-0.07085775564455321
,0.5649359768424973,0.44274506047528467,-0.033730262892031126,126.01360734875384,0.3618879841048228,1.1836150042498728,0.43916182663288633,0.24305088284379972,0.1699175652571073,1.842291038789221,-0.8989843954339071,-0.062184032547698734,-0.1615415382456609,-0.870122695913461
,0.4275488193889432,-0.17233785485542794,-0.057371326807431344,-459.2949833454719,-0.19517629716933554,1.9673302681012195,0.6867392908161477,0.41808899329620974,0.6564928571346107,3.4927625285480155,-0.2428315269078183,-0.08178553814096093,-0.13913540428572546,-0.995722550472305
,0.29385141694426475,-0.5813463084618888,-0.1491621808439134,630.4480723468423,0.09460506221925315,1.0242992630582606,0.3393173040522536,-0.12481820941864132,0.22666456428690965,1.014584996961,-0.19655914644949585,-0.05882044189768022,-0.20785159453911933,0.6500156087056597
,0.8313592427733743,-1.3970395437977343,-0.09892134894425969,-531.3533198494636,0.36334490357412175,-0.20372623741051063,-0.08575540966141808,-0.5403656798490217,-0.16979520208197182,1.767062049192693,-0.29302557965411113,-0.10978703293415602,-0.012940783121159316,0.5333502895612967
,0.7009265877822243,-1.0615472149752152,0.2622738984403476,-1111.9221641224374,-0.03198508655425793,-0.32174068236935915,-0.2717359901611576,0.38267343009056265,-0.10409690965642648,-1.1817960510039611,-0.06006795021131266,-0.1718005163177852,0.20670514516409388,0.1967025455281792
,-0.45047389498694185,0.21390870288138022,-0.2631655876392819,-471.70808112580664,-0.1655732252415666,-0.31577376820751163,-0.15500561215578795,0.37285127501352405,0.288416257570963,-2.2610807161693796,1.4540715980703922,-0.0019787271138873683,0.34488549903144355,-0.3490245791243752
,-0.8226764396067998,0.18441860348147965,-0.2574116357721838,-792.2451082363565,-0.0043183653963593535,0.40096436263713303,0.9486608628988464,-0.5382584560934295,-0.32619565416475316,0.8961416479778764,0.7382917842509454,-0.018577703297092824,-0.07870586781058984,0.37079610226267434
,-0.240803371081855,-0.18905050812544952,0.256836879855812,243.60212310769592,1.049435857974805,-0.6450465765185834,0.07677160827874444,-0.6330960434507186,-0.4147094254919129,-0.6530390692431709,-1.2432824711188855,-0.030208170984715853,-0.3532447549404617,0.8154597420593913
,0.4934586868443523,-0.3515687466013188,0.5918392544216283,476.6942397589358,0.757846944256746,-1.0802160841817547,-0.19492418205403145,0.05944423181253018,-0.1427417392841516,-0.49641083964283367,-1.0472594140236338,0.30713197318875884,-0.30473855095571356,0.4619230130926691
,-0.16881224082594737,-0.6241633211407351,0.41863813628267055,-73.13318442751216,1.4321909431623487,-1.1233495412180021,-0.1991182947482399,0.7650523846423011,0.6131100417485779,-0.1647795278028435,-0.7303387121132571,0.3767933194812004,-0.10176920462724443,0.036599605524454806
,0.04349780347678365,-0.36349410056759934,0.4463588325085884,-669.1955306632551,1.5949705339484248,-0.3398719663461319,-0.04269974204567623,0.12045997232222148,0.31355519770249013,-0.5874950965891158,0.09137972534000692,0.28780903906389915,0.13391250947586844,0.4627927493774619
R,0.1394479288566157,0.7208825733367155,-0.26652351329345686,-991.9868094137681,1.3467250248178027,-1.3417278339806553,-0.8529221153187411,-0.8372777296534115,-0.38108655798234997,1.9052059358307425,1.946449434663606,-0.4198346579400117,0.3524036131414874,0.14907667493919027
,-0.3256267073092705,1.3371046363756476,-0.9022578090302195,-1055.7913308771756,-0.097305641461315,-3.375038111662214,-1.7858884031397053,-0.7927638547011823,-0.6227347223978249,1.8859642990555892,1.963915029692125,-1.2015399029306215,0.5777863929250121,-0.6878004971668688
,-0.28143682599427416,1.289079900510308,-0.9477919114810106,-1262.3355531251593,-0.6856578952244042,-2.1463022492526616,-1.1788633678561455,-0.37492197692514423,-0.2292303126054749,2.2972140608678018,2.318096145481253,-1.3545514880236145,0.5110507311878599,-0.3060942555651639
,-0.5282782928211135,1.195709596294008,-0.9695671646832247,-964.5728352945092,-0.7458322156300742,-0.8198118010170747,-0.6562087689207584,-0.1454499504449544,-0.23493384033723355,-0.8259168658355936,2.2474468271419736,-1.0562657590243918,0.7080574355695883,0.4496759062852058
,-0.6421151296769888,0.957412019624631,-0.8678648352804941,297.74318993406774,-0.8434737187443715,-0.7849107625235582,-0.8046053584708156,1.0287871554688792,0.059413846528790816,-2.464559307430074,1.6744612879528562,-0.6391266998211864,0.6340923725886816,-0.4795002692849797
,-0.40321860632319056,0.4565661917703757,-0.479873875429731,706.8840333443394,0.5903043354772071,0.3552460079844933,-0.23481371941175486,0.08034642402711677,-0.1486011689276655,-0.6743458909864742,-0.7131803838325914,-0.5703861487345214,0.06864682645734488,-0.27021957887925996
,0.17391796248795482,-0.3485905235232505,-0.09307486475954545,32.268246810408314,0.7886294006647724,1.5656248218502724,-1.1301066183256732,0.36707974181016473,-0.26590382891345776,0.6480707812958793,-0.9002329674712385,-0.10490150573460105,-0.12970888004619852,0.3896812015968766
,0.8610534810487808,-0.6378051479807816,0.08686640719977794,3.5022840868501315,1.5447112058492405,1.8814280764947733,-1.4814608490146663,0.17773188321330818,-0.008322022789346777,-1.0849907955952507,0.1787586758694617,0.7007239339256189,-0.17341619856939863,-0.04562529054112812
,0.8494167491309801,-0.7115597870293652,0.31001768462558243,367.92946075197153,0.9464069358010087,1.5454865618812559,-0.23180008359411342,0.2964410140027614,0.5940729763915054,0.9692883724409893,-0.20465934290755008,0.8167980964693516,-0.035865783398020164,0.6200689440916405
,0.7918432711548721,-0.5656518352568914,0.15388761681113022,832.1944108551988,1.044490609745478,1.3013920116055937,0.25879590996383045,0.9065333650986295,1.18239286892288,2.923394088448545,-1.4672778020930455,0.48543277409946023,-0.0004868723197665808,2.124138653002514
,0.39494926347505815,0.23342610151617818,0.4746602381363266,1276.2394532888577,-0.072490164102981,1.2782660856780448,-0.41364498969654623,0.8569577538747785,1.1625215007129122,2.100021015066797,0.21852327545264877,0.14904751791180357,-0.1552180153405307,0.9530763151230128
,-0.25286006519886006,0.3186979845864392,0.6348126155537824,1047.183671169434,-0.7147297198964697,0.4892532700642853,-0.6084305023978721,0.5246499516983651,1.6012192084162769,-0.6708046657905703,0.4966123164886723,0.14074053723154586,-0.3930709745010527,0.2922261695035402
,-0.4371295760575197,-0.018527001438391873,0.2805845892801519,333.30249196469737,-0.5032089959448236,0.6231884910167155,0.23260628849320006,0.3357298191564779,0.26047352959581344,0.7220516167232885,0.6956245862279026,-0.10624693868999517,0.14353364477324326,0.8844880806190754
,-0.18604321981404637,0.04507153170153205,0.548256778284512,725.5640151655303,0.956843208432231,0.7718632548093487,0.4630697751626944,0.013945454109250258,-0.004586795139369658,2.539063171929759,-0.9433610721097204,-0.10796374817032033,0.327530811096694,1.0293495713585779
,-0.12617549739581344,0.5838050802518204,0.43784503761092036,2078.341262501197,0.7693164284719907,0.6283150775280806,-0.22686429463108018,-0.36671627085633934,-0.45167124789721014,-0.7145389742185033,-3.137033708842928,0.025887971197094885,0.22022661671161134,1.0662292097125028
,-0.03629243947769334,0.019138131434783896,0.47200037768673553,1356.956268180498,2.2960919094581502,-0.46420836316848485,-0.6341095524292815,-0.11039462332495252,-0.42305132751501745,1.8312244821372865,-0.76272353364918,-0.06010350263833749,-0.061146711504020304,0.49757043538144186
,0.5572777110068833,-1.0302805198418035,0.474037252093751,1328.7237855770197,2.70632348199852,-0.26602951948301845,-0.39822648118200954,0.27903597172333167,-0.16916935391900528,5.8321816180875725,-1.173167595572517,-0.08622178406177368,0.027032453426354592,0.861789644438006
,0.7883384499812206,-0.5825975949303593,0.22375992369806127,1607.57270452249,0.8998254237146329,0.7860543180399001,-0.017725003519896407,-0.08847058812720916,0.3725462164914996,3.35424637555221,-1.8845652110428244,0.19929020275183243,-0.1742387239595961,0.9899481767872206
,0.9318806463852871,-0.6092593731534323,0.6214197483068208,919.4659513757825,0.4087510948945909,0.8299184891957763,0.1769697812913941,0.6701206028804448,0.36268446867272947,-1.41171678934667,-2.0798750578082252,1.269519426467167,-0.2953461962160073,0.37987862390890703
,1.1223284490994785,-1.1547163592379155,0.14153675891059217,911.947479448829,1.1860364629273608,0.138747920984841,0.42298493076946764,0.15234395183604094,-0.270619551672219,-0.5192103981142304,-1.7457260736378093,0.6051138916586138,-0.15317108942279586,-0.07955264998156557
,1.2027343202981158,-1.5148032704724765,0.26840018321021464,1489.4237946063286,2.5048876637393547,1.1308160127222102,0.44400300105127743,0.24210255049787277,-0.05848361049345646,-1.836039208946989,-1.4262150648321184,-0.09547175641096065,-0.018086880227706187,0.30544169390937725
,1.1198250545061863,-1.3062694027284323,0.18765668899680432,767.118242347164,3.098429345250325,2.5836113918093493,0.5885506355542381,0.4594859026816185,0.2916890071780665,2.456333908240454,-1.1265155266680018,0.09296903112452817,-0.12307624594071438,1.8950351306814857
,-0.005828623129090879,-1.3403759051960995,0.04104074533457684,742.2095646224136,3.219499666670767,0.3174527157823137,-0.00013934423192670526,0.31691831723842523,-0.14591419259014343,2.3906182722059737,-1.6506024135805812,-0.19118576750109256,0.35025779076752517,1.7787494367955587
,-0.11785933407040225,-1.1044320952277593,-0.25611849772192585,1134.3768164087442,1.8653545185397267,0.23482677520126466,-0.013584895856376514,0.10292219946274327,-0.11428300212276263,0.19959177136203285,-1.2579038406872378,-0.49803362571596005,0.2700318127899751,1.3364147338788797
,-0.32704951102368285,-0.4892864223838174,-0.1421662737660784,1415.8087160574787,0.5680108942231009,-0.4576260198213094,-0.17158908086103086,-0.28042854078859514,-0.05464382416969396,0.4892635990444121,-1.043611596317956,-0.28500071149872724,0.20521198605924554,0.8326211417753184
,-0.06396417365363904,-0.5088769710686408,0.11553302085742517,860.1649918561433,0.41771841070292026,0.3540466582521171,0.019391352392778696,0.08643300399403465,0.31102196958944484,-0.40768344174709226,-1.3742078111741722,0.14232372811876806,0.058050286129887975,0.7167166458531116
,-0.10038983177888401,-1.042459236038929,0.2833344486821548,1032.9554640198503,1.847117007274744,1.3520298254822025,-0.10385963497085499,0.09675030738897458,0.3643003092653831,-4.271523741260658,-0.9606899555300437,-0.15928012050546783,-0.35893206605227723,1.1355486860523296
,0.1839444628748875,-1.227986790659692,0.050900342938354874,1130.147128531436,1.667832199478887,0.9778885838718501,-0.5331082558346127,-0.31432693018156116,0.13657531379715762,-4.048800703896384,-0.24305132269993443,-0.38036341515887145,-0.4299967802707964,0.9764439474279453
,0.3920327689321615,-1.250205756567265,0.1267706386348057,493.08529739654836,0.08714247485273129,2.3345176789490156,0.4059004347412977,0.17835680552013228,0.5055296282956695,-1.7144087645489288,0.08534483243902562,0.057013688585949046,-0.4948499142126839,1.687686545300004
,0.11609659851555977,-0.8902495100135323,0.4029878647864834,600.9447717039964,0.9545199561330344,1.9399295815873487,0.8182006063844413,0.08227541635878956,0.7002629799119533,5.1645012606109395,-0.46989016661019256,0.07686742583606472,-0.6006714200075797,1.3816795347667499
,0.09344098374036237,-0.9325321422826225,0.5351687045218008,991.4139846742094,1.4951480125865089,0.39015233229936463,0.2745775794621571,0.2795248136351701,0.46669978891020375,4.797688996946445,-1.4408185579615918,-0.07587572762303667,-0.6019955263842647,1.0942455544069654
,0.3459246951721623,-0.5434314477980988,0.4655785673006708,1227.369260765715,0.9207582402145174,-0.07322028087634334,-0.17951080597956945,0.07789462465041073,0.057043422418700855,0.1318019477980349,-0.5520051218094376,0.22766425315861588,-0.2364444813322333,0.8370126259454376
,0.5999826221142542,-0.765004363546294,0.6450617976176231,1453.9795407351578,1.1502235790357793,1.0739309829847485,0.44967453713397654,-0.4899521309892601,-0.07767318512367784,-1.17720672356231,-1.0768488661573412,0.9967445891932509,-0.06198591129003761,0.08053125248635563
,0.006929239407070479,-0.8872710128729805,0.3905713255388884,73.40825800146257,0.8948219657018922,1.309408407646661,0.35209215185451875,-0.26213080239908987,0.027836323089688544,-1.6120274572469908,-1.3862381855824426,0.0843608652965933,-0.14585024376462494,0.4025546447678066
,-0.08715813676518318,-0.49748223237110106,0.09511730787850783,14.419185810291882,1.4110219603050047,0.9181401866527837,0.09230445346073073,0.12236807627880086,0.5173490948075433,-3.6607129327713595,-0.7140419078944127,-0.284312588791814,-0.2744332791972384,0.3775393631509938
,0.3539525833676326,-0.8438969456456061,-0.13378675427416115,896.0495689789017,1.845767247998743,1.0454249665967779,-0.1207570314861013,0.029046478826558433,0.21559925694381413,-2.2274979164707274,-1.023155219036864,-0.42185342542908877,-0.05412002588180994,0.3135675221211002
,0.6618067259197908,-1.3349770147080122,0.0033781138200814835,1071.2870903046892,1.535410925397426,2.2204504281066724,0.0010148012812016475,-0.046150896049067226,-0.1216905251108963,-1.6605950825692173,-1.4044433407078132,0.027586010913877496,-0.30314897207796143,0.9071750988242423
,1.1070941414197573,-1.0142838527211089,0.06595577423202867,1202.0153456820813,2.384483083488821,3.4488623905659552,-0.045173100443133114,0.004222590630379846,-0.1712332370454138,-2.8855575659588784,-1.4469838237498,-0.33544269521323367,-0.36641731809232136,0.6630930142639149
,0.4769480342799414,-1.0625193598847522,0.6035416284291699,1257.7752093593235,1.081763761475771,1.0002963242981118,-2.46512100197366,0.4791480272937806,0.04139218786118516,-1.8673082019552358,-0.666204252222881,-0.21532545634299136,-0.3964671396006653,0.5794000416196883
,0.18907810968514188,-1.4154077149265012,0.19665797723510453,1433.1251436115,1.1175646101208772,0.3729771379468172,-2.7199953166396162,0.3863075525130866,0.2833261718631428,-4.014409347891612,-0.257730363933071,0.2552920018528841,-0.3341804762086202,0.45728112806590177
,0.4553453280670186,-0.3912573176359774,-0.12103282109138745,757.2639874202598,0.6422971362836967,0.32368834092019383,-1.019530030462379,0.15260591680685004,0.24078456665103248,-3.817627142227897,-1.421261872392296,0.08994371721997814,-0.4160840125834423,0.41667314019219587
,-0.3021590497427162,0.5283820856761638,-0.0011890812990992669,-319.3258624896254,-0.15054463028435894,0.3227427761763001,-0.06896058389129775,-0.2498795286828994,-0.29466656763998816,1.1405030196828068,0.44686578476174915,0.4832709454280866,-0.6382121831756609,0.327673270572074
,-0.126928875465367,0.11436953927827695,-0.07620852764803983,-496.33006505109375,0.7009191933845063,0.8713916370675988,0.24605688264652634,0.1818861182360031,-0.21542725344442237,0.6153733562707996,0.691995519946907,-0.14138674519252464,-0.2914574463501865,1.3089420347653475
,0.7030530003295281,0.2081577749461122,-0.5631885852948714,-307.9331625874779,0.5263256467397376,0.15592499375463498,-0.23967306005023079,0.4372155197010926,-0.24120132373277545,1.3195528000921628,-0.7537628520371414,-0.3968802986518134,-0.07307737531381495,1.1854589255426145
,-0.07554715502946782,0.054397198403471826,-0.4014441042825304,-198.29700148257461,-0.09783993606630259,-0.4024014012152703,-0.23826859071150885,0.2059251627674263,0.11623294266900897,3.8891390430533876,-1.036588395006198,-0.21537941735637664,-0.07900936248543954,0.8654650084821356
,-0.15340923090226413,-0.19972383925593395,-0.21026496234170927,224.33426079350693,-0.7294682440064212,0.08868166339736945,-0.3987278571034151,0.35223035578757994,0.27048852797091777,0.07747014595892823,-0.8530521424064735,0.008622565070818662,0.037270975412718434,0.6684210080715027
,0.0880781185980403,-0.8395266763547403,0.12312880079350998,37.417767274506204,-0.028193775778733145,0.050077322611657024,-0.31299561138587534,0.4640303584520665,0.39398115904822983,0.36827988562731295,-0.8531760988776145,0.3832403499866866,-0.1600688236664709,0.936730720000393
,0.43421804531889097,-0.8526039061672912,0.26136516570750373,302.19574857803684,1.7735581906408875,0.3149577087227034,0.04998522155421846,0.24343157251014502,0.27840716912087005,0.7421312811911953,-0.06421202664756454,0.5576683617967864,-0.19309031084761483,0.637391317291438
,0.586884236235285,-0.3389618895502994,0.7015080309301108,679.6122591358787,2.3134220607595517,0.9765123202628015,-0.0243957472611359,-0.009326965636117172,-0.3711737841764327,-1.344331434218477,-0.14313534124923916,0.4561840730046126,-0.254934487964148,0.5919578017526509
,1.1863897354846074,-0.11944852933534443,1.11321825372493,1415.9714326849248,1.1100692349698988,1.4129755801612145,0.14378046572987424,-0.3963703592851737,-0.19487802448137156,-0.6682326717189394,-1.687037420810963,-0.16879288848534227,-0.6285369862366881,0.6137550153378057
,0.9365966118344325,-0.5287476953493453,0.9660426472192848,903.5550980881385,1.3981556077130612,0.863395072410143,0.3900071688049502,-0.2707688530464144,0.17060128836249155,3.178709321848993,-1.6125150415480758,-0.07041754526001175,-0.8098569156102932,0.5126111661738475
,0.9590052255425391,-0.6875310982460725,0.8236991915406716,74.21320323645106,2.420140046554098,1.7199883973594632,0.6606803410845279,0.357682369375483,0.06396920539235432,3.225413631319487,-0.13555856369126953,-0.2787312514206972,-0.517339549874423,0.19531546696211807
,0.9858630147154048,-0.43175204893059116,0.4895687317334586,526.8535970723124,3.054432090379461,3.311585406920515,0.9073128945878614,1.1336548520805816,0.03518595828195828,-2.898602926370661,0.1842320798776002,-0.40439652082540456,-0.5111805626685529,0.1696124287551588
,1.1702101364088675,-0.13708854597573694,0.2563121143622986,729.640839790941,1.0623745027775975,3.029159194670913,0.7551049519337868,0.7335880279449746,0.0673103745198079,-3.9869847164886463,-0.06829419032276374,0.17979279547989435,-0.6373630977471109,0.10767792185899157
,0.8403532188066579,-0.1410632282808612,-0.18107005728414005,915.7651358108087,0.4171735665367982,2.260474351864218,0.4670387453848723,-0.3371020319263086,-0.6808051022594349,-2.4553502396635247,-1.9731528838642793,0.23841536123043686,-0.4405562758158233,0.97048558752402
,0.47204763015928775,-0.11297202443716826,0.13052208722863545,819.3241724356504,1.5111690129891346,0.5724864204812644,-0.13192391382457458,-0.3673577617192958,-0.582411784246815,0.08036860975098332,-1.0625012872703399,0.0011913632922215549,-0.205666008670174,0.6472551573540629
,1.1344739115152438,-0.8455464029681893,0.5430802517833181,810.7928678604885,0.9981564780054075,0.6962073693444852,-0.07373456146332481,0.3378621384453409,0.3985730572846072,-1.347767739911827,0.052924974437591844,0.10743372448373195,-0.3096792079381097,0.3524329471537582
,1.213694507481177,-0.7777715768952469,0.1600381794097324,774.3788528467812,0.2722354972080637,0.9198330539124747,-0.07143334039396333,0.7735910684861332,-0.08630074041260012,-3.754665025001817,-0.9154232646055904,0.021696858802128405,-0.19038096311215094,1.4643632207225874
,1.3053205941713288,-1.008722038535913,0.3060286796749109,664.9131565702448,1.3878412335066241,0.8002073129388128,0.1706031227982815,0.3449738331512357,-0.020709843048055707,-0.7777142067699049,-1.5500579648533925,0.3125631925239228,-0.4218210156093948,1.7848094900857971
,0.21473888326653304,-1.118182660863368,0.9927884444362897,842.0609759760937,1.479393416422958,0.8742922979243265,-0.19287366586840923,0.44453971813095516,0.3346644288510484,0.7388494578302477,-1.5195021637021442,0.7816490920954035,-0.10920714399924593,1.1569460146904011
,0.15962474217288838,-1.1813964556693948,0.7619859321298412,977.0322246304254,0.1550578855506967,0.49560446659362645,-0.225831930088226,0.26488689620456796,0.6360901779210693,-1.8518251229640799,-0.30028427935917346,0.6839764245971724,0.195047018668953,0.9325089943716514
,0.6197329692465328,-0.42866443119213915,0.5682474660534573,267.3669132491048,0.8034023226550161,-0.148910725955746,-0.37945767873974956,0.5534682924753298,0.5654068646143876,0.6277818037323308,-0.12218016210354968,0.49389490381797874,-0.20900036837818514,1.0322422847625055
,0.35122470730366667,0.06031543697899998,0.42294163463523493,495.83940100166916,0.8807713546406835,0.9222247273859105,0.053640081996636536,0.9299455747424241,0.20981745124387866,1.6313760928271577,-0.3801237887031524,0.08467851703622009,-0.48430885941237317,0.9924051912849348
,-0.07644127124224497,-0.11586672954218154,0.30610153763130915,1282.649478811468,0.7788939570893819,1.7440153490087893,0.5997563856464562,0.36229942083361055,0.22705798971812102,-1.15873834585146,0.41457530136602805,-0.27702199493497476,-0.3119838217375005,1.2287251904536993
,0.7187829069057098,-0.770041848914907,0.025069685007101487,2169.2835673064783,1.3966383839369487,2.110473780890832,0.7369368940882484,-0.2530506897205493,0.39017200693603155,-3.4093997395864655,-0.27918764488579745,-0.0996156324548473,-0.37002914746348475,1.4266649389755073
,1.2294148484719718,-0.75326066615376,0.4238235124109642,1797.3850777900425,2.264228159513842,1.0460059261483718,0.4522873894573681,0.1924750019878541,0.338294054631527,-0.6849920108169927,-1.062074147197019,0.43976720117193085,-0.5418143281120668,1.2304141086172924
,0.694576577945701,-0.2671559580398952,0.6580251180694034,551.645366692826,3.666956930504676,0.17108012787468768,0.09575122748060846,0.19172973742545302,0.3597351958396347,3.3344135699686315,0.06246881847102642,-0.036388504923616526,-0.19479192390527822,1.2804724461317731
,0.05978143320375852,0.09679243377602055,0.5381864599981586,139.86710685388718,2.154869785336373,1.0118146274226258,0.015322249218110652,-0.4983300445045082,-0.25134265413940055,1.0665096768384266,-0.17839596029959084,-0.277509491095953,-0.18107225032358518,1.2612430999483635
,0.4454936057127287,-0.36035585400121295,0.36354820485957845,451.968362036752,1.8976511651890666,2.099556297619121,0.2759583760036124,0.08247771343407277,-0.3029997260785938,2.214681920497544,-0.5445576474164352,0.08081218423470266,-0.3252486421714295,0.672262989535754
,0.5084489767379672,-1.3495058732043368,0.14810341453859416,976.5889020957001,2.245016996964156,2.944784890471518,0.8337586324793324,0.10866809213554633,-0.20971075600950528,4.6994041703683225,0.8078288099698189,0.44474017953795186,0.15016667634990913,1.5699215566604596
,0.41720482546747917,-1.0835108067575394,-0.043079699584129515,815.8401485965154,1.9450753723252114,1.142374795353116,0.3455540626938817,0.17501153994157956,0.44261148580600146,2.4961970674507654,0.7849270505906767,0.35577132360089486,0.07764670228149008,0.7570298475056131
,0.9817687165054313,-1.4221880488837457,0.0011106765805677283,684.2956561496837,1.3843267157610615,1.6500041321789545,0.46758899647277413,0.6080903296460937,1.1000059059290643,-2.153884096541558,-0.030566311975974036,0.5803028585504276,-0.1680171473840087,0.6282145008113043
,0.6736662006881766,-1.1773950511574842,0.16907611290040356,512.0265499153276,1.12506340458828,2.907268327013549,1.1090587974978805,0.19841602782404943,0.45400865905982357,-1.8731883328457977,-0.37556041332297435,0.06493508693466703,-0.5281383356450298,1.3158403081463654
,0.35978832625743323,-0.7945095148439324,0.39907892997648975,782.4537126706234,-0.2241586628466346,1.4077933977336934,0.3172097507075207,-0.0516177357089684,-0.2521472805670639,-1.6124779220886798,0.41521628603965316,-0.2441501748458972,-0.4186040325511628,0.8834345974659121
,-0.4800657932477891,-0.6946547326646743,0.3977086040371337,477.88444470401686,-0.3656910917381885,-0.518134523584048,-0.42559413820320485,-0.1911001376238843,-0.24908275305208252,-0.586821561041522,-0.06249360008380173,0.15564100274920806,-0.42951389296266823,0.991359421144363
,-0.13850614784481613,-0.8589063674805076,0.3502183343451051,140.11214363222305,0.18264221305784115,-0.35005981782357015,-0.10002930694278633,0.5057077055311859,0.6513271662997596,-0.32994975644761876,-1.5331294473470014,0.21166869641585964,-0.11069572656045232,0.33152372316033496
,0.001405337965886201,-0.24389222174802547,0.11012832808291,-213.91823726339803,0.34483399115326585,1.0701711832232403,0.24031636988900565,0.6526887576527343,0.9138001257990369,0.43263860229716133,-0.8503987665419283,0.458539494146859,-0.17044521619329867,-0.24938714049815836
,0.8500626210102797,-0.30328892829682885,-0.033488389610880374,123.38932624258086,1.311282529062291,1.1870033670931233,0.09190234204404005,1.0658476746496648,0.4754206079863029,-0.9477618390881956,0.36099888303414696,0.6182119205878251,-0.20274709804473737,0.1935544202766553
,0.16568168220861146,-1.0891769556598425,-0.2056339526877436,300.41515447621794,1.357923965570509,0.6078256777099107,0.42617150080746086,0.4863671191746024,0.3082014985764344,-3.8323852814886092,0.6719675758136633,0.14382421075473312,0.030680911800337586,0.5659353374758479
,0.5154365858101163,-1.3148373701696805,0.02637111561942804,503.6769666649363,1.2327830875188712,0.5056783592852633,0.3124659242681734,0.5873192085854445,0.49442580385392404,-1.8739904201914592,0.10456412584237969,0.12089779479732886,-0.08972980699620334,0.06894232012566012
,1.5169075572927917,0.0744802299158914,0.31426101057808814,662.4955690085413,-0.17472260489807045,-0.3671938805499307,-0.204108457300053,1.623984886728835,0.5025822462506128,2.316133670934973,-0.9007716640806623,0.19886335561687557,-0.06554495193570367,0.04436072906256697
,1.2035557573858544,0.19367871337177056,0.49058377969234984,1104.4637404659998,-0.20483476130330663,-0.2715897624790865,-0.017782227582834143,0.7122558649631298,-0.1215560630338112,3.054262402911022,-1.5024855334816,0.08917787789717395,-0.10042761372922075,0.30897539980679745
,0.21621807694401926,-0.7276610799333774,0.8856268380255978,-270.8445191086579,1.0923499857797214,1.0704802776696296,0.8703087575281169,0.5203097217070539,0.30764180090447385,1.269830547876668,-2.152128567498415,0.3381867350589956,-0.017363904589223093,1.0861955586521914
,-0.5001053831364912,-0.12490577392215448,0.15602341836569697,-1062.846370000779,0.7593744095379346,-0.5903932720327932,0.053159141913126255,0.7039639856153205,0.3774002521535851,1.9530199910345931,-1.8309808722055556,-0.20236875252799622,0.03208099346891832,0.28018751820840115
,-0.28039535381951697,0.0190710441051684,-0.5457351492428446,-719.9560218947897,-0.376035023065681,-0.6237663063840616,-0.318971391736896,0.434515921087314,0.09816085626598756,0.8615302743998354,-0.6570493022346316,-0.620812122208454,-0.08786959313479634,-0.1263910070570351
,0.0654505479750042,-0.22398952828834393,-0.4475029359062648,178.95100902070394,-0.16893424317403216,-0.3420804406245411,-0.5061014957319492,0.05238676163554065,-0.2577499719160631,-1.599796488395954,-0.3514362811110933,-0.4559977100702098,-0.3131479135995089,-0.15593949086870437
,0.31203755088595314,1.089394376405098,-0.6927873632981517,-302.45243231405,-0.4740232843763774,-1.7228863869331215,-0.9729171030343615,0.3682917532975217,-0.07153635327799494,-0.056377045282471595,0.7716970551002292,-0.017145481000706324,-0.18681020614526245,0.32826488059555164
,0.06819254158864826,1.1123831200154575,-0.5276235865776703,-84.51076397947271,-1.0740998469934757,-1.049980322335409,-0.765161004081149,0.05065948161067701,-0.42581856121683476,1.499017236532369,0.4583187737755171,-0.1328601338022679,0.2171938529895508,0.18356441976018803
,-0.3976979677623981,0.5429551436422785,-0.2586482236240358,-538.1812494783221,-0.8353513582264064,-0.7218282954901266,-0.7057922701083361,-0.17409557456798652,-0.4643321852315629,5.185658613311991,0.14107939409305323,-0.2906429249603226,0.2893740533461628,0.004853129301045926
,-0.02424374253419682,0.37519815911274185,-0.2417202136504345,-274.69442041494295,-1.3171527538628789,-0.9278887346152738,-0.6662588574855106,0.20290487167198146,0.379333335374698,2.8566033541018174,1.0850833944659608,-0.3524393787727149,-0.017646663573838726,0.3886674656480774
,0.6312941020840894,0.3790458847285396,-0.03676388961554892,977.8291073219721,-0.5153434507579894,-0.8259526033896053,-0.39915257026204176,-0.2217348029723028,0.08519775187935913,-0.9874434240915928,0.9261233273122171,-0.11087331981414339,-0.4085512205200674,1.089719290311601
,-0.2682309323392377,0.4286063286346886,0.8523322132071254,1374.036778866329,0.6877851195749639,-0.9761980272145532,-0.13330784949312147,-0.5203604692123832,-0.34986970232187115,1.19021597220192,0.18301270468796413,0.31895706117438405,-0.3128183098019726,1.0775061678205249
,-0.293583658083666,0.3208261734862258,0.9961372173960125,-245.4195206751076,-0.6833031001437326,-0.6948302732131394,-0.5137698709160498,0.2716494316340512,0.6015767877861199,1.5570550062910806,0.5300918682721885,0.5940686304249916,0.195519188846663,1.6296581343828194
,0.05146743760390932,0.9270058669631976,0.03565413461415479,-872.7992755164814,-0.23565084145383447,0.5617599728457964,0.11900618801402921,0.8351500562073844,0.20250446838616026,4.384458533789602,0.3827489717839841,0.26343406517310386,0.3353315137523599,0.7942035922967129
,-0.4507595721450959,0.9164403671476926,-0.005593576156199024,-460.0085179211297,-0.1789386869989388,1.5516354528328289,0.9437516291649412,0.23641413897580288,-0.20500417659796505,2.5496403377489867,1.6813363675142874,0.1390540560786123,0.25583636774629437,0.5443879859029702
,0.46843318927310273,0.23857024860405707,-0.3345068274696487,604.2013129221184,0.5018249434227608,1.035918181177312,0.08433312688189594,0.10711971575988391,-0.12506215101933704,-1.545627834236009,1.565614902531318,0.10711126290311436,0.29627681577152015,0.33642983091188106
,-0.0547620394635252,0.15337251781267394,-0.046661721928984906,-68.30146214731438,1.3178610350438487,0.1883485251712134,-0.24003024475156232,0.5856084543602702,0.3730582316730324,0.168978858777381,0.29010899228257464,0.38177161233622253,0.33521912628680484,0.5761122994247733
,0.03909274734545267,-0.11439125414543526,0.003636133471056928,-90.71659572554684,0.8612592510726562,0.2249026390989503,0.028276626916774048,0.8049970971825098,0.21521049395159694,-3.926837356411765,-0.8698309243036347,0.14355301183280175,0.13320349861326417,0.7589416898691626
,0.41368156735784306,-0.3043069497234193,-0.1283603515473359,364.5715829138164,-0.2869493561153178,1.1914403466675818,0.4843790479122071,0.004503921812715792,0.05074704551291516,1.2939464846385313,0.29737810354383826,-0.13884044250832864,0.2394086715895975,0.4422294794228928
,-0.4716171356885183,0.5730039078147414,-0.14693773033138582,180.23404209096057,-0.1225284234809265,2.131403551952,0.6152258412300986,0.015630500932927675,-0.36428675346539197,3.1469751855470918,0.15649713715625335,-0.3100463088955399,0.11083545836439307,0.03371563291588384
,-0.5224392123802803,0.5331358244606894,0.3108425805072418,829.5097488388449,0.7374217045429028,1.118726359629761,0.01475369793066618,0.6744282255482383,-0.046703113888829625,0.9899144022599948,0.3561565859081139,0.10651808207266002,-0.10850923774959569,-0.5860502044006568
,0.19535236663763159,0.20536548875288788,0.26732412488786067,-34.33485910440535,0.03655122312163778,-0.15669857788446243,-0.1978564854597592,0.012177372498154848,-0.07073813362316882,1.4500649627046787,0.13509335997610064,-0.11959290369435434,-0.05947788411754234,-0.02191743371712004
,0.1684412283763461,-0.059844996681296704,0.15551424040716558,-677.5632123120147,-0.21619475036876531,0.9600310264634794,0.19710702273750885,-0.5760033306144362,-0.12180282642077485,0.5101780155128075,-0.7515449202648582,-0.07500901400004681,0.06679558238938918,0.44400515987759465
,0.27721548879251534,-0.11651508899883262,0.43860643072094174,357.65424108902926,0.11775804150774134,0.6340780348158658,-0.38143772251284835,-0.43217829303967353,0.1122372367606874,-0.25767030993555734,-0.011113985385415841,-0.09683694849872555,0.5106840578015734,0.2843885753927662
,-0.16629833415586537,0.19760453966784497,-0.1757809688130734,16.379475491199305,0.17676837895610045,0.8902506045357573,-0.2028951926778986,-0.5019977936486834,0.07276446007326902,1.217949690301766,0.7529126176770129,-0.3508558347061712,0.49055932197481456,0.05805286849364643
,0.4224030437095963,0.1565160954023314,-0.49068453724143035,321.1588762792767,-0.9551786197063361,0.1371058998281691,-0.35140107305389295,-0.28523968188590304,-0.16381828480940921,3.763152605381937,1.6092938124886955,-0.4280435116321922,0.356420488589257,-0.3447985360244083
,0.5137475032394238,-0.2951347783620938,-0.11118427325461357,196.77802713593752,-0.24258519777993515,-0.2217254470996815,-0.13399832567110465,-0.47069946448369393,0.11835082305596292,2.5487521210749295,0.4195608127103913,-0.29084341478427267,0.4238076353947885,-0.22108942075008894
,0.35559440310523127,-0.03443503340656275,0.558057510791356,195.46650643513618,0.7624801851655745,0.4238145529577418,0.3785268155960071,-0.326303614079871,-0.13219647555072278,-1.3423832770598667,0.13088281301479673,-0.08157782186146273,0.3089467238990544,0.12981230479872
,-0.04369408211934409,0.08722409385882447,0.4923975676595723,445.9777256346562,-0.25770873242284265,0.718273082984273,0.49730494219784355,0.3396983588722019,0.25974127322800483,-3.1685738524451814,-0.4704696101862311,0.42479164795267754,-0.417741848510633,0.6163128340476609
,-0.15461492650510533,0.7905895262992316,0.3417046958536032,-183.89956121897265,-0.13606459440039256,0.014444431985323813,-0.15623577736465352,0.31934811343278663,-0.10948448446999823,-3.021748334861405,-0.9594522856830738,-0.04647969644410845,-0.00400435779690156,0.7069045666090622
,0.33139677666126177,0.7861030215600998,-0.042651592675822324,-57.41428454906328,0.18801577473718872,-0.4241969439784336,-0.6358238772689334,-0.22589774652457775,-0.29829928664775507,-1.3807055681176583,-1.394555938503631,-0.2548153770102143,0.2222627094440231,0.7988401721172846
,-0.24322774497489572,-0.82907600156466,0.24849206883270816,682.1237011389206,0.13941877603223465,-0.32310061626044123,-0.37256564578928497,0.016135269522306175,-0.2851742308036103,1.7490946493201616,-0.6950076823230367,-0.26455117501063474,0.5935792111165419,0.4178935684641542
,0.14873212821729645,0.01654792045243845,0.2819989540385602,271.9111902926717,-0.3222234779259125,-0.7193890709057873,-0.37220195644892107,0.7494597698860938,0.008331290122987164,0.9942218645528917,-1.005174536727531,-0.2614141439742018,0.41980746673407454,0.09239115802893764
,1.2724512909288546,0.24661467777399806,-0.0763535742401308,642.4589230084612,0.5568878545681919,0.6371912105738018,0.26140526411428133,0.536672550845796,-0.28484895712468405,1.5541124861733357,-1.9185596525231978,-0.1474952077261864,-0.057324745498206806,0.6138491650912276
,0.4820102607571513,0.2657393806700193,0.010193487899576798,846.4816856943035,-0.5104549391143632,1.4872925171063036,0.38716448512501983,-0.00172641110344968,-0.3914885094257231,-1.1921859103359245,-0.8175248066477998,-0.24338565640943963,-0.19185096413703406,0.827766247798416
,0.3362235977539967,-0.09782742753924832,-0.026269008496847632,-20.7596399651621,0.17603395571966407,1.2762794622136437,-0.07348677197050829,0.09721111487451899,-0.5673507188352858,1.8548828192778963,-1.287408048902962,-0.30519768852152285,-0.41264659825202765,1.7758887594102812
,0.0647182328730785,0.1391181872456753,-0.2526241477663406,-384.4099658927043,0.7202157699281796,0.7760534986134879,-0.1027167878288475,0.8962697620339091,-0.37562796429993117,3.018314825232011,-1.2400429839093503,0.08439664625440299,-0.4210674298936544,1.01074558095209
,-0.0756414820943245,1.0499953436541132,0.04367105657305501,154.62179312693655,-0.4394536344064803,-0.1497712944890994,-0.20226402643482225,0.014376776711675976,-0.32741892925698884,2.921257413863668,-1.0045825811373057,-0.14461100592550552,0.0036990745453715263,0.19530924818801543
,-0.22782411089464297,1.0489294127851982,0.09528669168349868,135.13800334264383,0.5859203877131561,0.27354334392757423,-0.017284467335112286,0.18377143147295824,0.031217540575381977,1.4815638844726946,-0.8540723703893921,-0.23353544602138593,0.38548133757654507,0.7445367884539632
,-0.07357357556551539,1.1079137439694655,0.08383734443854428,16.198707814804543,-0.0018160991659023407,0.44646587428218826,0.19730125165357035,0.28169634325622767,-0.24974393823227,0.8183515346531453,-0.4325277881570836,-0.12437728508226373,0.11237814529340104,0.06772521768661789
,0.5896855327811641,0.5052183279302459,-0.38365689747184395,-47.23410042963051,-0.4625118233277034,1.1927073987551107,0.10592462358011671,0.7118332388071448,-0.03133405670636171,1.322562255986934,-2.1267805302603993,0.41072631494326345,-0.605547146469882,-0.1276558275622986
,0.21956775524314523,0.4768469572641139,-0.45953932860803637,682.9226466065993,0.16903250793210897,0.5115933662339552,-0.18779518926851838,0.1377445521665455,-0.07805802010381353,-2.481425836965762,-0.8738156045262346,0.3324502437397743,-0.15778182584667957,0.23349840440273117
,0.35829315910050324,0.5646885991706897,-0.011546387829220973,167.70035698470235,0.5923073251869018,0.9337416318399124,0.12320949043921717,0.36310309362047094,0.40243006775339046,1.307625124399259,-0.9133253509533897,-0.0042052018147151725,-0.15663172142765283,0.32453936169225006
,1.1751184811159716,0.44166635260875464,0.5573546731669308,-112.33646784093857,0.8854320482533592,0.20029409574561893,0.4277469970308117,0.7138791825969986,0.8797528979228171,1.7497477703922173,-0.9510026753129304,0.2961323519276623,-0.004679181388270542,0.14211046772868166
,0.7563872855393327,0.10186425264920701,0.4354024228975266,735.411722276666,1.5882966317997538,-0.3050142895466163,-0.2562623684152764,0.5529866301860938,0.19770082696424338,1.7580603341791716,0.5451170574930156,0.577339551040643,0.16627430534841026,0.3673083598343578
,1.154460788582743,-0.03022698156112772,0.028317681112826835,923.5714939813191,0.5319569900893254,1.1560722311139102,-0.0867809306399775,0.6432127485609338,0.20211480524753864,1.2564327613097857,-0.0972006862469491,0.11523809849675586,-0.3744455506914075,0.5454321795435559
,0.09198209609429907,0.011187487344595222,-0.21388538364159662,593.347034142372,0.8041623908348295,0.9528250465400895,0.15461328921926973,0.3102799127253676,0.23393584451784377,-2.4739049183782003,0.18502148903810012,0.2359237761688568,-0.3036249030401093,1.044680512414082
,-0.28805748652923907,-0.08428191537003424,0.20632513388121237,1017.8910842987431,0.7339427134198574,0.3771877275151255,-0.22911943037028548,0.464735847363634,0.1002477341092846,-1.3225816454878605,-0.3873443570401497,-0.09646415219364511,-0.02306951800095628,0.785623468211371
,0.002290807361099875,0.4523164923101575,0.005510384632185718,964.3442347929564,0.4860852193142801,0.3643127054049947,-0.44022266246958996,1.234401903904409,-0.22939283516616468,1.242164036353794,0.02140256686188603,-0.042166682324135646,0.12765965020460057,0.5808512088142578
,0.5187891838058043,0.0664871459466654,-0.09592515002165963,835.109262313912,1.0695583001569682,0.6467365988639943,-0.30611131528859203,1.305857826722286,-0.08352721030659178,2.763970247709339,-1.9730873359484682,0.353518261415259,-0.12753784822028974,0.7094505780638747
,1.13646833627597,-0.3176604968660364,0.16557591199236932,724.60911903552,0.3656789122260032,1.2901537600589115,0.10783022436786652,0.9254972912571562,-0.3489379445452364,0.9891761143597274,-4.002160700754832,1.1423857722909916,-0.5888828324699671,0.7230537692512166
,0.448278620679707,-0.3100187244484433,0.7104587360423616,962.1149764240594,0.4427151299568655,2.85391143917445,0.34050706153840204,0.25275441753649197,-0.20303357848678172,-2.0902672989735014,-2.370452940578647,0.2204939371467059,-0.47524113910432075,1.7674192503540578
,-0.20256281829411224,-0.18544819163409065,0.3517121469684797,938.7571258437929,1.212118474225983,-0.47816292028421564,-0.50196627656734,-0.028695975533624123,0.29408860597234304,-0.6403627707582125,-1.6055219045218792,-0.11106316340191269,-0.13397158336559375,1.1440107389692655
,-0.42815565101500225,-0.24524095534442442,-0.08434269417884846,1311.3563833741603,0.5634368001425384,-0.5234386855799454,-0.7143350575084878,-0.6964443991479597,0.0008474746350569214,-0.06728285992926855,0.470734120930727,0.021865129341514033,0.1584155942498,0.20905626415467848
,-0.3340980635620424,-0.3952355463030065,-0.11596621458306648,1375.0993453382619,-0.022803217491061095,-0.5771661645935012,-0.5764262888354242,-1.643998011147378,0.2984799130421313,-0.28697742491125666,0.4750755751089366,-0.21275616431990213,0.15677208993203978,0.19925596526703127
,0.25701235966839525,-0.38156823532872053,0.324115798202544,1727.912246723021,-0.6896079262016709,-0.879532620798499,-0.5403781457966499,-1.2140206764077488,-0.03380012463648746,-1.9271095643092708,-0.015088441785926368,0.035461983846472055,0.1051182399344296,0.5854698238609002
,0.8652274128176224,-0.6141452654732003,0.06349423671737119,1210.0421733715432,0.4736546873921881,-0.1906451664289881,-0.04306368820881033,0.07496733169295429,-0.04386830820498285,-1.3927533781462356,-0.45025592744609794,0.8538178524053527,0.07051684664513631,0.8273589009234872
,0.917403338572042,-0.4995206713242848,-0.5084551832365203,785.8330766049205,2.1470966966222442,-1.16726003682144,0.11517371005145736,0.17256015209025533,-0.36005517328934944,-1.0454668154122684,0.09005929977350884,-0.2535793756234901,0.2000465133960375,0.8258620395559945
,0.3580622911324803,-0.36281682281897454,-0.3744384635702263,753.5640404384751,2.031323660299467,-1.7993161445497359,-0.2971531744022319,0.26249958900916254,-0.2018145783121345,-0.02246026951825258,-0.7821997312657435,-0.23033014375551808,-0.0015735093231480147,0.76558542678294
,-0.22032974047423823,0.7509483698222928,-0.05523100814817677,1069.132466078042,2.126101554557337,-0.7711019778227544,-0.5057722480811006,0.3702396535974828,0.504118748746633,0.8316290650367159,-1.375324427014375,0.6662752642012243,0.03992187421579406,0.4200875550687874
,0.05761617750600739,1.2451942607233653,-0.011376421686514948,524.6204485807315,1.3677791377618833,-0.04763091372506255,-0.22783260210165257,-0.48276400099253935,-0.3094228758981946,0.4354053088482371,-0.3064587997815826,0.7143439324430173,-0.24663207794216033,0.7680111390559858
,-0.8164442753863936,0.08104894506901725,0.09971422291074136,437.0285669016167,0.2991913038219315,-0.26109892293638454,-0.41912000861848714,-0.7444168448710775,-0.5373780040610644,2.1187719274723484,1.2797356908074333,-0.024807199981579996,0.2353093041549642,0.8295269738566781
,-0.7306247434736459,-0.44758155045150116,-0.1232811790143443,1145.21617418886,0.03780160268548653,-0.3030477081433339,-0.6072170728955163,0.044881680621995636,-1.0077445649594554,7.5996807394892825,1.2359778489644884,-0.2883933092910293,0.19476654161241116,0.09233716646690059
,-0.5143681516874431,-0.1311614625132552,0.1512506475628,1335.4126451033526,-0.6955728741041171,0.01563537788592847,-0.5522407689596116,-0.2734567383275945,-1.117809090544524,6.7017858267285435,-0.24478868958448793,-0.20238115491113048,0.08704740462416823,-0.015116649782798617
,0.07211359179514816,-0.48318417742518294,0.24306611301040376,412.55539484592424,0.43800832668974526,-0.5359019371847191,0.34143486496187536,0.15537838967195478,0.14941654215623468,3.481997670223265,-0.6462050912371905,-0.1835266820898682,-0.3020973276395263,0.3388798086169792
,-0.1602191091272124,-0.8253205074619022,0.4968774700952519,260.3753478364966,1.2965578233563886,0.768638764125149,0.48580083261364276,0.45919416627731263,0.7005004020514819,1.0811262884874027,-1.1013894295053206,-0.19254010511827382,-0.43099184678638397,1.2038518379313667
,-0.07063802775052343,-0.7302673342980783,0.7899971428850643,367.6241282518791,1.145566540910005,0.9560420969957891,-0.11061299784667562,0.08337610218718844,0.17144522199074289,0.09514515217220833,-0.0696014161246797,0.33173838742394124,-0.2325167218845799,0.7152804974325694
,0.513984955162806,-0.25222295921678783,0.6217543779737753,-141.16499419097164,0.18816608185227973,-0.06266879706071969,0.22723065730905867,-0.06108448616219803,-0.4603101255523203,1.1801345421616272,-0.448926559000004,-0.12550434023237214,-0.2326807368394777,0.6987031061498568
,0.5483382839888834,0.03819201827128367,0.75010770269249,460.2783819362819,-0.2385827974027436,-0.5414932749821989,0.036516701754121125,0.37577672480741336,-0.918497653496338,2.8497564615763498,-1.5720844995942889,0.1453527445453705,-0.56933829916878,0.8837497717609425
,-0.08030845284200806,-0.016457002525880633,0.26717745093661527,583.4408157380864,-0.7072109559369768,0.05414666877705026,-0.27596187865600574,-0.6654519607349346,-0.16013134512839092,5.169008581304573,-1.2045691688373783,-0.12276089365863208,-0.37371694708846204,0.8393844378698907
,0.5774619224147858,-0.5970080774122555,0.5867283909830354,475.968048048516,0.04204662873117827,0.7816996923833247,-0.04730426065473124,-1.164455856406373,0.9306603262734706,1.6682393406202962,-1.352105274082208,-0.23855301717648564,-0.11674036906618951,0.546963604181446
,1.203090451907822,-0.7257795699235761,0.9141438406625125,459.00334648399433,0.683812484185123,1.0359481136375646,-0.11676712431628934,-0.13464651672740122,0.7397619759736256,-0.3410893531963043,-1.875465731151975,0.30728625216800826,-0.2734153761463629,0.7364100944589783
,1.0985550321233384,-0.37206512963260513,0.5118020797362846,905.3626482062455,0.45460295823381214,1.0914412297608445,-0.07856295415294899,0.5113880404120619,0.7687915820874004,-2.5248520916683774,-4.598844765117285,0.373456009728833,-0.3486055590108367,0.7249175445571522
,0.5574327723162249,0.023540204743095552,0.18090211905281228,1485.785071446813,0.2548127769803792,0.9765146396923653,-0.25908263236839957,0.4514148695214821,0.04654484910521599,-1.2445080953348944,-4.351579296600836,-0.2704584919952739,0.0707002983758219,0.6549718735549149
,0.09249945197982244,-0.10808046282898522,-0.03427175418336184,1625.9701518017516,0.10971571706426392,0.9841187456066705,-0.10622667766069108,-0.18166682118170263,-0.5604317579617422,2.762304678176057,-2.6049975364666893,-0.48900317655520864,-0.10907523906502056,-0.046653328687206154
,-0.0009218424071111959,-0.21772640150042985,0.23284161798437752,1268.7461375104654,0.7093309106466716,1.3564197557314206,0.1348250088603763,0.09747098690546538,-0.7528973609087297,3.284765649506603,-2.592689079260647,-0.3709628947852496,-0.3073696427615125,-0.3169397531208967
,-0.4301018615523286,0.051433612001377776,0.15400385819870016,1650.9371029452143,0.2697212738915417,1.7603061798191137,0.6712193927207429,0.33724796854029354,-0.3759695730139476,0.009820142970681024,-0.3073617288280366,0.1099811594845545,-0.11770716041127613,-0.2739995390921954
,0.01781711273332342,0.01776440283065742,0.763842688860053,596.8871042804369,0.6905254692667491,1.995280656822991,0.46529331220581527,0.033664699404684285,0.7275909653868665,-3.521807929519399,-0.36037876169262395,0.2726242764849644,0.024010140208378265,0.760511470349499
,-0.14690214646553817,0.13479556263724904,0.6638904970790341,183.74137770394057,1.1942919154294882,2.5892706839590636,0.24638730672446335,0.24432223094747857,0.9944366309562771,3.4260181380074943,-0.18300537268554254,0.016305773158756028,-0.10982249877498497,1.452069010065196
,0.3762449985916696,-0.2593523063670141,0.19506739265477535,504.6024721252091,-0.21912440393039692,3.862884545364598,0.332400369115902,0.3092063461139788,0.24561393143822152,2.7197579155636316,-0.2905692435252632,-0.3710061633683385,-0.16161063020326455,1.1364809073585378
,1.1162001049680936,-0.988901389675582,0.15835031830054425,711.943621918177,-0.907490395491026,4.540597566801088,0.20901126968270178,-0.0717585092166154,0.02845807617950234,1.950153337593665,-2.054231999209762,-0.07279488077334943,-0.17613748715073768,1.3845396970043535
,0.9498834066246427,-0.45765938625899133,0.10699507366049071,-250.6709695200672,0.48921495440822615,3.025053668007164,0.6252020732569261,0.47277080667321814,0.3850687583576546,2.8319734559366863,-2.341262299370354,0.38317272204718356,0.10860159461491373,0.44606664898477827
,-0.3382440825028981,0.0036306135588789036,-0.09944394830749066,-203.3520105960073,1.4497378993703403,1.6211498598590897,0.4432816319087195,0.6682147137125511,0.2760158718360695,2.61898550391492,-1.992315339684162,0.9019246101078695,-0.03861669409690478,0.051242167811131285
,-0.5303998710798004,-0.19183357568255133,0.0768106354961311,178.4678460773088,1.4300581055059571,0.18803667848994013,-0.3712255567924512,0.24947483898063574,0.01778323680754457,0.6085440171889663,-0.5008392169002723,0.1367811259282609,-0.20582706484226324,-0.1012057503128808
,0.1509553618263752,-1.053288835680526,0.49349909200009817,1246.8860335328175,1.3158027755697657,0.3510835722570378,0.19013969163809472,0.08213907618216448,0.16140993020886324,-1.4582791057310787,0.8401185978039368,0.34043935199663583,-0.34960339567846305,0.27866721725737903
,0.5979063501516543,-1.3658137630609546,0.48227114121883374,1353.4034003042007,0.1844425485763456,0.13075101133120456,0.8121488416705832,0.7206673900855676,0.35825675332161544,-2.8854282750997573,0.5482964993220585,0.5445109043809033,-0.4228274147704778,0.7528364382157379
,1.1933605539608976,-1.2499362981202518,0.5588321106104638,1001.707377041385,1.261473549677094,0.3631777706154759,0.3345445096616568,0.7734509300342448,0.6296721924445887,-0.7435569937986647,-0.6742225975082875,0.07451492107574054,-0.6066681471761417,0.7813047797091199
,0.6205704145475371,-1.0113461064554081,0.7147262950514198,331.7145765888579,2.819397482624127,0.4495453076928745,0.346050945691056,0.19471248243558945,0.6492211349101475,1.5393491601851506,-0.39755154561201117,0.29594161949486203,-0.5618942246913046,1.5938087820856002
,0.6352031060023399,-0.8573343623873796,0.5995517153163789,305.1644101570001,1.8943625648378357,1.0239303031443063,0.44278947331759594,-0.09216472692303923,0.34262921766510473,2.266430409059205,-0.09672405340519166,0.3783366395066452,-0.6885361157772206,1.4597716534903096
,1.28838055368966,-0.554475043524526,0.9588343754052913,-26.6462026033339,0.7352845291458351,0.31936868639694743,0.06498607136607264,0.12707749601781584,0.634573679998578,2.937674093713468,-1.5357380181711986,0.313564354084906,-0.4705135784682287,0.20447336795098578
,0.5942571527318934,-0.6741122683300725,0.7203979964557428,903.78255703149,1.8098571619381478,0.12723868111922662,-0.38748079253250545,0.4541118006381935,0.449666677903373,5.6162408183276495,-1.213268644140802,0.5599280256470657,-0.13696584331467077,0.12848052072192442
,0.5567357044645318,-0.8903229183674923,0.4631591985021703,390.0882150161483,2.1506007224011525,0.01122978649492175,-0.46606994889199244,0.234311697186528,0.06493196815468154,-0.12339267646255402,-0.6309616956156325,0.13744171797429827,-0.03590456991084338,0.09437213974861206
,1.076797820360033,0.16379428777412602,-0.27906947332816884,203.37327483725113,1.7337906165719692,0.1259996833386692,-0.11744637447481238,0.049977402747928015,0.2085569937871512,1.2510039540931424,-0.9492278173235641,-0.48067097734691855,-0.11853591306950252,-0.4102247392809692
,0.5424090761757566,0.0861629634761726,0.11429029247891524,487.7193718105001,1.4905898981955872,-0.21440087892480128,-0.4501626824609567,0.2823782940696107,0.15334622080660212,-0.5120782400917319,-0.3952871640153399,-0.017289907650240487,-0.20392414138712184,0.1088571439555867
,0.35691777668041647,-0.03463799502729339,0.18625069985922796,765.120284750804,1.6794734653143801,-0.5135853265438194,-0.7133661143482203,-0.36073686728315985,-0.17805499804470462,-2.8093188890608873,-1.418719550585117,0.10635105669089293,-0.18003069423835846,0.6279343387188999
,1.3204532955921973,0.4585707137280879,-0.2988959376149707,256.46002430346124,1.3739912678589006,0.6230611190097529,-0.5877611244485065,-0.3450047518206918,-0.009913101747914429,0.9105481983095077,-0.5093155578238288,0.04940130965934642,-0.029261837905059235,0.35027344904773633
,1.3519813240275866,0.32597227427846187,-0.3820276599989989,6.071871136452444,0.5084728446842508,0.23333363430454673,-0.34888486709607675,0.5534523061177035,-0.03943724879589144,0.6774341004263764,-0.06052901535643216,-0.19640584324704177,-0.0873797937048937,0.6863710711900456
,0.8486165056640711,0.03125478314259422,-0.304326967875551,-137.6622022118629,0.9894734674359794,0.5248903546141583,-0.2697879461041993,0.7505739571774488,0.17039334125718847,-1.3605421240711018,-0.5488061181914118,-0.17528357674475814,0.039552272735930157,0.6377450294095425
,0.7042628660272741,-0.05723449255430283,0.20901590751361318,136.88860097034177,1.1209581222881506,0.040772870891361515,-0.38635376933838905,0.2624626667060996,0.3944601229448627,-0.4095430512179423,-0.3846732573960672,-0.23793571786305773,0.33872087713540733,0.726062964725021
,1.5326006165410169,-0.6007056921169076,0.585313621929803,187.30819136647548,0.16301979079910933,0.36873112006054437,-0.44721626283178506,0.3069442928779707,0.4338193412127682,1.2192600274967254,-1.3272337702083132,0.08487239692625292,0.3314054152689305,1.3744642054239584
,1.2601594460849128,-0.24566757642945616,-0.13583234996662708,-43.170979075965576,-0.41430558398329514,2.003809458927272,-0.08268164799002913,0.45456532888904017,0.09998139561613112,2.7645623222768605,-1.4910983503142436,-0.35837000401399743,0.06278341529860262,0.16824494657235733
,0.094839261693,0.06149211628767429,-0.15567837693416575,152.30622931412293,-0.7822993507105501,3.5989675100804375,1.0631965083588786,-0.09642078811377239,0.10150209878378756,1.075377105680706,-0.7853437591740858,-0.7364131625228125,-0.2717882851882868,-0.26456650918332136
,-0.018795817730979138,0.2715541610628067,-0.06460427575053704,559.8156714608714,0.46181477777842134,4.066674652808658,0.5480098538888004,-0.27203115728986965,0.011290159395787987,-2.7829846233572835,-1.1264904141372845,-0.4802828867752106,-0.09218110239480674,-0.6881179165015391
,0.31168743179106395,-0.1398699026737581,-0.09905468381175277,444.9353862098608,1.4665159574724225,1.7440692465074432,-0.0016460132486108415,-0.19757939676681247,-0.43930480814056605,0.22933526192736833,-0.8126670713353161,-0.48587286882865605,0.1831562717190578,-1.4689875230936469
,0.10439311262620359,-0.7003231572775735,0.48068670951382575,660.2602283977723,-0.4005367433926836,-0.30312883916369704,-0.17799780300980084,-0.21909991715673846,-1.1170005498340418,-1.0905653197782696,-1.038465418510955,-0.5548709719342308,-0.11164289848166889,-0.39818157823089156
,0.05632813196235156,-0.8351001231589844,0.30460958128110904,1077.5827609449848,-0.19730587203781022,0.15128247757757537,-0.3484104871593223,0.4898276605634531,-0.9235983631735304,0.8525196576946552,-1.0668972597655197,0.033187803242889904,0.06643183891430876,0.45716931108050674
,-0.20110354367127553,-0.8233425049997982,-0.03154178116206289,247.67690672382517,0.8820886390128271,1.4678058576104493,0.05778757473552459,0.777923131924714,-0.04248985618239675,-0.7410035636528033,-0.1845827566638569,-0.15378182299774454,0.2524254955133505,-0.1830860423712113
,-0.5454612088606441,0.13388015363502906,-0.08628741645938566,-267.30702242054167,-0.5728373632284309,-0.34467604723641126,-0.1285500119523167,0.4192844498937552,0.19663362006200208,1.8719901320775556,0.18841776259276108,-0.2635634346984565,0.46681779914729,-0.6273517890568467
,-0.5733734902048998,0.16841665815157308,0.11532399493691073,813.2792526737283,-1.442547911033622,-0.5687902425727444,0.3428630200821223,0.44286100294980135,-0.2530265168398991,-0.7430067739379856,0.7312031115743426,-0.49065451164331947,0.4278495680969432,-0.42081357637821687
,-0.40098741005927974,-0.23375828642389804,0.01455772773097376,-24.250905223508685,-0.6178661507189955,-0.5198569550147735,0.09565846456825383,0.11325489396125772,-0.20637741195636275,-5.961843629304459,0.9193417529512026,-0.307631874284991,0.10766407201527499,-0.006911932136240469
,-0.3215092500833706,0.16880220001406646,-0.3949190940192242,-521.6416777340954,0.6443567970149928,-1.1166085869319478,-0.7936959629193985,-0.0976852278122001,-0.62097165332378,-4.940950265150403,1.0015646667796334,-0.4143111927366747,-0.040253086295536186,-0.4906455953847444
,-0.5263323275513445,0.3682606290161717,-0.6174576405189162,-1019.161645183417,0.10224343243765391,-1.995421503547285,-1.2350870334398008,-0.38337355854827304,-0.796235665072158,-2.1213438083245384,0.465157606100226,-0.4651486069470091,0.3367415777379043,-0.009435436341217839
,-0.5576474145161473,-0.5816073037434196,-0.5006618700478807,-1013.4153595470892,1.2204311523710472,-1.789401292727041,-1.1572238323515434,-0.537475430981922,-0.6865404202819542,2.623348469093767,1.162166959785484,-0.5467565365022621,0.5679917355265843,-0.002160547829492484
,-0.5784018063601152,-0.4123739364538568,-0.5650603469927148,-590.3595527679312,0.7368016233954753,-1.788862562441675,-1.0375512608716306,-0.24874255578826918,-0.06458721182600552,-1.5248785578230268,0.08743990336251581,-0.8545617854292561,0.5449658089917839,-0.5787757094350984
,-0.32442460156729513,-0.21578575082074886,-0.4660126215931129,-215.7659952779785,-1.4557469527697053,-0.6880285093152054,-0.6092033511955351,-0.6043789664633353,-0.3132470145727225,-6.902100684008206,0.02525897836603117,-0.5907667324022992,0.4186233589213832,0.12360975260829443
,-0.261438418529546,-0.8462379724525152,0.05992744923657251,1082.5643018058547,-1.3237046117664695,0.38196619442153074,-0.093367196674269,-0.635915771659071,-0.4299802180572627,-2.082965808394738,0.16620428826368905,0.36298337674787234,0.06271197337469044,0.5450065381369735
,-0.3746619742761347,-0.014247951778896364,-0.26779983461726314,-245.18511400139946,-0.13247406611058835,0.00963731929624028,0.41107256285645005,-0.2994226569606752,-0.26823011258521184,3.4529469562629194,0.9612428824946408,0.29991690548919414,0.0486614238405432,0.2675293285361616
,-0.8578548661850492,0.5724436042898396,-0.544312066625604,-478.0124742118191,-0.8192165759593941,0.2490064777854211,0.3144396550808081,-0.34588724471821636,-0.22093967495088268,2.214151638782242,2.0673674986432578,-0.19585971042128458,0.19267307765380678,0.06634669811192577
,0.034455919554870325,0.5133720857944826,-0.23957790509919083,-126.52262906272546,-0.9711179133050029,0.2726789175267203,-0.07530898932096304,-0.304259109202018,-0.15765642695120066,-2.716446263844683,1.4808557244928255,-0.19832240030351558,0.16099881792074133,0.5389507186221295
,0.27241880700505033,0.9435835670932454,-0.21582613849516671,29.92232832177634,-1.3129895011866795,-1.5407290632169501,-0.7217506551481444,0.3910704257583068,-0.28415480114146563,-5.702032392474104,0.38994755766345013,-0.011424645863884926,0.20491797792366215,0.29834838776145606
,-0.5618940952361408,1.022217173384459,-0.290687433001536,-12.087976282053928,-0.5228281660664924,-2.344216683071275,-1.3323614819773886,0.17291470965482,-0.30480096793340833,-3.051662679951848,0.2938012412919713,-0.05972754466143645,-0.16750551814969508,0.2731202698608388
,-0.22563304093357556,0.6742069174164377,-0.5131586938866654,-266.82672065564196,-0.6207296966485436,-1.5018845067901614,-0.8049405478041329,-0.11663471590965202,-0.7340707267975227,1.0076536489650318,0.47597462969934873,-0.38283116439333825,-0.1991643061068349,-0.6664754593977595
,-0.1091719119816479,0.07168797677413831,-0.2349663980087421,159.57623863181522,-0.9357830927486342,0.4817291521868766,-0.5593444187419981,0.3860543862208877,-0.2207991881374807,1.539926606527429,-0.6960131529983217,-0.50472642103562,0.18831085792967087,-0.08389425389479052
,-0.34268732821314163,-0.497593981006553,0.20238710861038858,711.3467528383118,-0.2671658203494514,0.2191389980955699,-0.5249328878294216,0.556893561465429,0.35674787688023096,3.056179150416601,-0.7364865444785631,-0.011313517581085479,-0.1809328912400792,-0.2044747569758758
,0.1365030491236164,-0.6365716053385359,-0.08813298323184891,753.4710475164852,-0.08703169631603667,0.03477087543172102,0.16689813150627303,-0.13908282255961418,0.07025444553802797,2.430989142446026,-0.5445921297285891,-0.08419240633624293,0.026007752237015222,-0.1449369747451954
,0.2964518369814278,0.6589114361784388,0.08827967066811637,868.5045302003354,0.7396831443153573,-1.3382535765375125,-0.5285399812400583,-0.5937263287118297,-0.5470375736717443,-3.5486099475749673,0.4942891249616955,-0.22771582061023787,0.18904613449627536,0.8076278789134868
,-0.6383108644900349,0.6120903707662895,-0.05934060851957357,474.55987185316087,0.4358166139376618,-0.8320921154477476,-0.45138828572708833,-0.2392237782446955,-0.23218331015570906,-0.3408069735012397,0.8937672111014107,-0.29923316172787084,0.322287036621444,0.6154156642347214
,-0.08244061552029579,-0.049586085702142034,-0.5262217560722656,-43.53667358472334,-0.3681602532221992,0.10171114035481688,-0.23963818013801358,-0.24733016077858816,-0.053789682932794396,-0.04365511900385916,-0.2593330218040808,-0.4974172437734559,0.2692762912366392,-0.3655964274298595
,1.3666583769461274,0.5454581227903942,-0.5328107138552335,230.6432056928984,0.6933398316033492,0.414487726171721,-0.33142474810095646,-0.29762777822503983,-0.4355973860255119,3.220731846832131,-0.7055781967752244,-0.7372102185411086,0.26387825040455354,-0.4827786762970611
