event,eeg.af3,eeg.f7,eeg.f3,eeg.fc5,eeg.t7,eeg.p7,eeg.o1,eeg.o2,eeg.p8,eeg.t8,eeg.fc6,eeg.f4,eeg.f8,eeg.af4
,-0.029962553611528737,-0.88454202569979,0.30631161453317995,-1.5149961013482265,0.4026581162670782,2.1720573297605936,0.8894828427099638,0.7550642220009154,-1.035817888166164,-6.160928555226156,-0.14911022717198796,0.2566020678276772,-0.028837017910884163,0.5028133375401296
,0.04309653196793291,-0.6706278920956048,0.5387005038205934,1.9529000841463333,-0.5822398961193769,2.016378617686959,0.8714379091660786,0.029991498108837934,0.09624802197125265,-26.9617072684233,0.364986220698356,0.37589908223684226,-0.16710858817033844,0.33141906548496786
,-0.06151554232577875,-0.6134927648521068,1.2533402612062852,-2.587178819472168,0.15387100149149857,2.426346976889606,0.987358111358196,-0.0372587428997048,0.12181290857584008,19.117915802080265,-0.17774430640483457,0.7531803664618452,-0.43571537002934824,0.20794831570112216
,-0.10047818537762797,-0.8351616822891276,0.7775973895300177,-8.887881941690079,0.8978838718163865,2.2940521951331205,1.2495146663936194,-0.5755930403257977,0.16052083756307478,47.29018561399065,-0.19460694659016267,0.009656705384029296,-0.7439406798417674,0.17844034015494395
,0.5035444277723629,-0.8592609554179148,0.43297782585047995,-12.348567726777087,0.9600036576986171,1.8706105353289364,0.9065396514015908,-0.5498462023280658,0.31934240829237703,13.355120552137288,-1.0625676980303267,0.3174029035348046,-0.6595254327983119,0.5061816072634718
,0.4675143812293958,-0.9930257741618342,-0.05276924700981693,-7.956177647165964,0.58237808285529,2.0692008944027873,0.24636558188805557,-0.4164399160667407,-0.29599504879952776,-26.554684637865208,-0.7938005578753959,0.6242244998936685,-0.24382958829661186,0.219738721883464
,0.5079660245049837,-0.9111634202513533,-0.2701565532794633,-9.206959827251533,-0.16031288517876657,1.6020894791371594,-0.6223698315116801,-0.714084966687728,-0.651585310686699,-4.087763307702147,-0.392987373273027,-0.2075457282458875,0.17281210742267755,-0.5305828560343469
,0.7983000292699962,-0.8019030491228226,0.07669483502104171,-5.03669324239362,-1.7061454778063296,1.867308126039302,0.19759872537916745,-0.9473855823057897,-0.931409233475323,-35.61950539882837,-0.8808272488681145,-0.05964387602203144,-0.08217474295599865,-0.3127623397826323
,0.43660481091219255,-0.6286335969387954,0.9639478536232701,-7.2193468800125,-1.8307984784112452,0.30868319133398864,0.012705897014672975,-0.05645527629521401,-0.8194375886291775,-41.14323472524094,-0.6974573841669048,0.13248058988229525,-0.13631627893866383,0.37166681894355064
,0.18396541141619185,-0.9591909535092772,1.183947006558499,-11.038262346122611,-0.17583697236873524,1.2205607124618103,-0.008862059108740106,0.309348931507722,-0.7281623574775905,23.52396989720786,-0.8513330566054979,-0.13938453905609832,-0.11896997506101278,0.4652665795807177
,-0.19140348949720992,-1.3033532424824592,0.13848141993917307,-5.8147459337124605,-0.05550012900432386,-1.1847676669731433,-0.6359054855283801,-0.5579440412845738,-1.5284531146943166,22.90797646133322,-1.1755225702967251,-0.4239197423084663,0.09343536909556933,0.5173043388810853
,-0.02236082045435302,-1.6125473955381577,0.20881235573874848,-4.712414016080343,-0.5710731070208726,1.705762699325373,0.45981325934366085,-0.11236829815132932,-0.7060480934238643,-4.918322223025097,-0.754640360232172,0.04936505995228064,-0.07039013233283715,0.5262108846390543
,-0.08085131412181384,-0.9701788078225776,-0.3945105763029691,-6.244621065728406,-0.6181874937507325,1.0746492882970071,0.027909934997174722,0.21749970294039697,0.33686260501930054,7.650689929980879,-0.5184863296908094,0.19821513948624736,0.004735024332211383,0.11647160506064055
,0.002714976888238603,-0.7169237045511696,0.03547337198626292,-8.081288934082657,-0.8466011700850565,-1.754085393659373,-0.4092477988809572,-0.4806404932896649,0.03590124554029094,21.84017948166273,0.27109073926287813,0.49401034611863226,-0.037356554361201236,0.001593442955205542
,0.7219246184057962,-0.598306194221201,0.42219131639002616,-4.674536355082378,0.12318139509635996,0.633789219857562,0.9051653488996023,-0.462240016743884,-0.2358261727719736,6.817496034502227,-0.020453949525880165,0.87408766058995,-0.10251575882725437,0.931661233921888
,0.6954563388518427,-0.4074750411522501,1.1489063292614021,-6.525628669501363,0.03561288817792576,3.2070469109250426,1.365597652265702,-0.1889185731572938,-1.907093902946403,8.344644391037116,-0.8135189160785178,1.1539513308991494,-0.3491609524601245,1.247624519645722
,0.3735567713287914,-0.5641117206465223,1.8474356444983409,-4.359513820943671,-0.15317813479779638,1.657313007293584,0.8994727336594358,0.3679116916244657,-1.593045535571253,-28.54574602467222,-0.28759877301971926,1.1414991606496545,-0.05834343552824174,0.3710338011709289
,0.009494413677392958,-0.9702134568392711,0.8478428765103084,-4.413904813758919,0.02137011738356293,0.4492530071182926,0.5921223813403845,0.17737065537920585,-0.10521863773384574,-16.807858188447987,0.857305327204297,0.45332717911211423,0.3165227652886347,-0.8283743851040009
,-0.12737649121825262,-1.0448625255953383,0.2818661186720361,-2.3563539184629323,0.18605677692376194,1.063504586962501,0.29612174412223785,0.3054042431931347,-0.3965187364775706,-6.7863094903323455,1.443277490896704,-0.07485977936608998,0.4939453710208862,-1.6775728224477722
,-0.006551794471888135,-0.8110850470535498,0.020976668719923944,-4.099116302333392,-0.35601152615162945,3.281649453310177,0.8056620197227353,0.20186745412563772,-0.24890250532076794,-2.7614082483234625,1.4025443708558167,-0.07230170347349911,0.31157301455257563,-0.9740791636769017
,-0.41787945479726113,-0.4945827006083055,-0.0056538259867820245,-4.287868871769865,-0.6254106330472579,2.4885313280997785,1.2942900165799787,-0.027466939165202868,-0.48726588292860096,8.099826615873813,0.40595340430654847,0.5562061839328598,-0.08606380085179632,-0.06582107941998308
,0.21544463918449394,-0.8377185037133624,0.4799520377553876,-7.005413845440254,0.06518851704779383,1.69478050395326,1.4318045352892925,0.06290545630680228,-0.7807184390324282,-12.981384983305169,-1.0161312974945182,1.3266565005705864,-0.5248940195019783,0.17801483436901505
,1.1355915442966187,-1.1257562542449326,-0.06480032234569226,-11.529575251662703,0.6930098558451027,0.7519230060811335,-0.2989916510892642,-0.10292525617434889,-0.9920501242970315,-13.13105935772924,0.7867922007333548,0.46549485477312325,-0.12144033692677789,-0.40382988964736294
,0.26953787382633004,-1.2173797043076422,-0.3183441011708356,-6.595477412085518,2.136763611550826,2.8828208573289587,0.2948191753374345,0.4927110961441319,0.08900425361476239,-12.216051992279601,0.5559028571536961,0.14423925089470913,0.25033355812777575,-0.6600420036693134
,0.6112286948356339,-1.2256641197861633,0.5091213950874087,-3.2544766350192953,1.5579256016540663,4.683344803319377,1.7923857218453738,0.4595654605345179,0.33031741319585844,5.7249591828973525,0.671045474020788,0.18477267436556855,0.1593929217193415,0.10387230472139047
,0.45243144722847417,-0.7512579173394033,0.49267122039276134,-3.0831962539923543,-0.33860605696228485,2.0273928835679755,1.0785325812862343,0.2466227359357734,-0.3932593490506621,4.36968252252014,-0.01106074942018179,0.641327630864436,-0.3406916395301642,0.4374968714617011
,0.5333004718652671,-0.6020664981535713,0.15146005202634555,-2.640502287062547,0.12877129296266152,0.6961811668065768,1.5506459916367281,0.4568249113848251,-0.009066110014888423,43.55083196496002,-0.5960128610624714,1.8674843740147193,-0.15127777184235947,1.0135003708998311
,0.20518658214839325,-0.36895847093655254,0.2374824821668697,-9.12454872670489,-0.511313113917703,1.6694374122967357,1.3446165038072393,0.9305233522308384,0.25058763170489745,22.413167140468968,-1.3541360419900417,0.6866082352006159,-0.16272308795482723,0.9258065202139247
,0.39370504983034693,-0.44373746266497466,0.7793323545526452,-10.078627641013531,-0.4350268300867383,3.8685862558750066,1.7472154986843327,0.8240086706892606,0.3149586295465798,-8.322853307616727,-0.15008823305662375,0.01642448930429007,-0.35477063236925094,0.5278738567530095
,1.0326669308905165,-1.3769992455815248,1.0183077134866922,-9.21296800958727,0.4193398936136097,4.710982848550999,0.8202628806506824,1.1570378350466364,0.3322401462571494,-4.378797264542822,-0.025832169023256444,0.6750374001262951,-0.36728078397269726,1.1191046460195757
,0.17333636736217903,-0.9764222977507989,0.8089801836134322,-6.089937791629905,0.8078131206745155,1.2980312097994902,-0.22454685703261718,1.1122642511416316,0.35805406766859244,27.777475963726147,0.1825567081014711,0.49307865397491885,0.09394708241234312,1.0151097420154689
,-0.3209414213691717,-0.4626147721813513,0.5607840711055203,0.3928458198575508,0.6013786418492489,0.6096458477623795,0.03275599071861015,0.7457768951846948,0.20394633983318292,-5.323407754165721,0.03519841019152781,-0.06636129007414103,0.44125438445491727,0.4099378725882681
,-0.5221117824753763,-0.7969440485843395,0.860851812367882,2.2343152684330376,0.9083361164137044,3.1732243710562456,0.5881941967355053,0.17467844269074026,0.010013844819750655,-22.152788402542516,0.9957794733431916,0.8596906703511404,0.28507314056108485,0.2637730739638863
,-0.7498334476290704,-0.8328942521476674,1.5514472580548682,-1.6194397210606966,1.1462436687866093,3.3797667643988225,0.27752422654521774,0.3849442260634667,-0.3013902794902335,21.620544391861888,1.1212858468822482,1.49426827557152,0.09804828820492097,0.31083654374022235
,-0.5827207353478104,-0.8686729873688239,0.525172514809696,-3.9929359212469357,1.5267441407347584,3.3215875075265053,0.7352909539787221,0.41498783368293113,0.27155993240837395,44.650831324001025,-0.2747746667849661,0.708351111762449,0.036324635555730525,0.3250276914427649
,0.11796419664279359,-1.0016793068742533,0.43545229824408915,-2.8139339547854423,1.0001826511717473,-0.7039379755584364,1.843484710917706,-0.09270374694538587,0.6121246035466431,36.44193522841595,-0.392835498908807,0.8253794806850073,-0.04218981701748818,0.685811630852937
,0.33212650781847947,-0.8186550988618352,0.7233086460870759,-4.153371742015335,0.5284831609115713,-1.0430100035835081,1.5394178828177933,0.6075147791132663,0.6180143633235236,51.15351987420246,-0.45976697368980884,1.2639928030377505,-0.11945872581584654,0.3370998260637309
,0.8381307469663103,-0.9140707867630343,0.3318453379420709,-8.948257089885011,-0.08360456420803798,2.9333671678733078,1.1741433892097535,-0.31918769185565726,0.0703777028254582,9.89234997400551,-0.41509268395577636,0.2942976228422908,-0.0049643527793169885,0.24699166891009813
,1.433186058623644,-1.3634131865531998,0.3368153444546217,-3.6322681648816397,0.1938738645651237,2.9238822238570754,0.5778304582902738,0.008853788459851892,-0.5942328947563204,-8.851061306468365,-0.4548026899996719,0.5313269178285869,-0.23988568053119425,0.4581321467259415
,0.6057994578270123,-0.9556281136066462,1.1066180647179766,-5.536293135470854,-0.13333902332007785,3.0082672242627293,1.3345890252724628,0.19637515140305456,-0.3002558659921294,14.812835506535135,-0.9812980113123598,0.5786093466643069,-0.3772245691246123,0.7282614508232892
,0.2316810812299553,-0.41040650958504177,0.4658317952713663,0.18472652461458977,-0.05346484968381029,-0.6818921906518702,0.3391528782623722,-0.06069630195195954,-0.730450386553462,21.841507390428184,0.3855258162030727,0.5505712743781422,0.19356135410515793,0.8603321077569629
,-0.28432190991406203,-0.1971013925983153,0.4643879540238257,0.6046005618674314,-0.5261887234913857,-3.3101308618811984,-0.9543806039491699,0.44534120771823205,-0.08117408451549847,33.80219577822211,0.6107854886350514,0.38327902275923376,0.2133973931098719,0.4207779515291897
,-0.07651407826218957,-0.14721499619757653,0.5589559762181517,-4.018631895320513,0.6992021640270832,-0.6490451045951978,-0.052151796329743795,0.6887966709911629,0.2199296015600157,26.841650881304698,0.5649893101818432,0.36277946710118003,0.300602662355259,0.10980658760785271
,-0.20418963994456094,0.024253315959664717,0.4516050687081304,-2.0342077646612027,2.631493202207554,0.7842191748136121,0.20154343731901656,0.8341861838875818,0.8794989898777188,13.115515740286906,-0.03425336609395831,0.6208360469787528,0.1728223505008109,-0.2447345462656188
,0.02364810629194446,-0.5381494888181652,1.519198792666706,1.039977403887623,2.004738679232245,2.8704635124511673,1.003217847942192,-0.047026135780627386,0.4330433485669898,35.73790640560497,0.14613576884782348,1.0187257896328104,-0.04129868138053605,0.3682623565028522
,0.188978281541799,-0.15241384421704926,0.8449107568541038,-0.4795708200827889,1.3518619618743175,2.0638110271835823,1.5391050152869132,-0.6661954106775289,-0.5604181698645782,26.066827382126018,0.5681692199209154,0.7550123552626712,-0.03970781918260203,-0.07093883478516765
,0.20007407380055733,-0.030593243496624397,-0.09715075468889944,2.229541630222075,0.8444902430578712,2.9182799079022477,0.7488933046779291,-0.28714930831650265,-0.07540912055510472,55.811815600865486,-0.20555526498827462,0.6610327332747674,0.27134440298755685,-0.3858917389064102
,-0.206365192137882,-0.06011089189175993,-0.33127908429518405,4.160350876062945,0.7870022213025967,1.3089003394115684,0.5828055197012032,0.5378004330386768,1.0067571755028086,36.72342819934664,0.055968402607482905,-0.3562898146768198,0.4159888960960429,-0.2023023607958468
,-0.02951951106741257,-0.2181325949811038,-0.6423019862545817,-0.7763691818730097,0.8313324645752646,0.09680563376323342,0.4543486580243389,0.5806217207962663,1.1877095554060868,25.176186784138533,-0.1506163823604211,-0.907981517987497,0.4224801833344416,0.07219159739570348
,0.17816307749991653,-0.13290201122778655,-0.46997563991024144,2.5297066621923965,0.3576661309169611,0.46459735794013063,0.8560593435923982,0.5915597181592025,0.8569345606833474,19.631104127925,1.1212102130450055,-0.7375722947912212,0.17808152728619508,0.12627066936516976
,-0.39692088987545027,0.07426049505672223,0.10801091270048489,5.820474205550692,-0.129087694739129,1.1562864657907475,0.7021064213074063,0.3728337564468292,0.009921649866677753,3.8950687404420856,1.4512306507325412,0.6495393034223969,-0.014764938502515845,-0.13448108644253248
,-0.5714142508406621,0.17185707577166973,0.26545685826769017,2.9203447765023003,-1.1282825216224226,0.4246511635649552,0.020023480664609072,0.9329971362305657,-0.47916845582303347,-41.65748922081788,0.9658835806175219,1.3008058493316754,-0.01921629392823235,-0.29226844908331284
,0.051015848881082355,0.35408120146970207,0.40528193748133995,3.73832859943725,-1.6121545715586871,-0.2984597658629134,0.2144099257601518,0.8443127331291778,-0.2765488038644001,-36.3324378979778,1.1295272088885722,0.2928546702753813,0.0047541488396718925,-0.11280626764776171
,-0.3299566424433186,0.23063097219581158,0.7185589598600938,1.3427101265238695,-1.7069883010917604,-0.6926344893793169,-0.178996202514352,0.18521915279398493,-0.4455191191401553,-11.84894220012081,0.5828201330023337,0.09452404383877104,0.315980601618137,0.4728102626129602
,-0.9566273153013576,0.3836929243625762,0.20050101623315147,6.215688347789791,-1.565798693564143,-3.4762983973461474,-1.6191975869865338,-0.22403516061223866,-0.09485506036097759,-23.60803088895469,0.06942226939516066,0.1713873781011681,0.22642301944836968,0.10987649612840407
,-0.8098805213117664,0.4213141079556675,-0.41427085871162,7.537423802722971,-0.9857722339927892,-4.422078072637508,-1.8087569942143682,-0.18492414676667462,0.0332150313512262,2.2628972131413128,0.414804053001723,-0.15924598994038255,-0.22336779383423824,-0.40642094073075896
,-0.05845678445899112,-0.19555907072703327,-0.34148453615680235,0.9545720347710257,-0.3023048436179245,-0.6780713537232739,-0.6501361482742695,0.7717411523005524,-0.45408966278035184,3.533752834685412,0.33068549214805754,0.37069926881031795,0.14250224288992558,-0.08301964807230612
,0.24680376018837402,-0.08901896804694655,0.329745911988168,1.3061153939555303,0.09425410921005876,1.1526837922993765,-0.48006903925504013,1.2227759267067806,0.12650525755307207,-25.562175281130934,-0.9459299129426694,1.1456261160867012,0.041643877948297915,0.09636318562551026
,0.6331246411927107,0.17683710424491408,0.10548717617010886,4.96186741107694,-0.8367672352066201,2.7841399494305534,1.2659979781309678,0.5520237092829618,0.05270770306704457,-18.343140157524967,-0.7439337366174795,-0.05912367091722487,-0.3948740305687808,-0.10237961152681722
,0.09912227671751657,-0.3269343983509101,0.08463195547935944,-0.4296622153278054,-0.34520004717239483,2.0012559684850415,0.3613096738377555,0.2866708312443518,-0.21614918145288833,5.944588062889522,0.37657829668804177,-0.02765927065129156,0.21106252122193433,-0.15731753428369505
,-0.1166754564300269,-0.2990080994580132,0.2545499841737342,-0.1673210620472856,-0.6469831442015771,-0.5835991297517634,-0.3959262700542001,0.07560772874464507,0.3531082719193696,-1.5355797202503545,0.6239379955596916,0.3137401312646187,0.3125890944267391,0.25414113401635124
,0.4067399454908954,-0.07754550582965572,0.1748340314324392,0.2621527317601391,-0.09548127434747311,-0.8450848221138625,-0.17865252942283033,-0.42138597849392,-0.9585752343513083,-33.599999302821885,1.3218545459541102,-0.26102634144348624,0.4096659160291776,0.5564404938681549
,0.3163085812034976,0.09625159096168659,-0.31624169909197886,3.1792095475860216,-0.28618473558806873,-0.5767448499264632,-0.19079201589705214,-0.014822945440823621,-0.8723607767221503,-29.027683310851632,1.4460021803082372,-0.22239530203091104,0.3393097844547253,0.4491996519763471
,0.3429596091356818,-0.20809441474400878,-0.07356707032056574,4.186196993633273,-0.6634049243400584,0.7044565239986851,-0.5671257296600727,0.36938165743950047,-0.38685584850165944,-3.341338706516743,0.5143456961657701,0.39406240314681334,-0.046214437935584496,-0.0134582002310905
,0.27382603132683897,-0.05964007113131484,0.25020958812941274,-1.0288890821795467,-0.7650370583787475,0.6251371529337483,-0.2999974382124935,0.29782310188595884,-0.29450933910292687,39.79234373176657,-0.9261505738898421,0.6877968723790795,-0.2537908580875836,0.03941988834057113
,0.16186452294088158,0.37397908955686754,0.02384086941530917,1.807301188398014,-0.4654064254373666,0.5269448383865162,-0.12845692797767017,0.1553848325735692,0.31730410864305963,80.55608849049074,-0.6013498694148278,0.8617640712166745,0.22370241779378852,-0.30149020029689966
,0.4103338991158626,-0.09360848118133469,0.33539724388560416,0.1306865902308652,0.14213890895062653,5.272457254763609,1.3268330398299644,0.14755694468616065,0.030755987921500347,15.187586875037402,-0.823214584583898,0.9690937270925933,0.15509206296235895,-0.19624539835980948
,1.3342020034590192,-0.29645768134674183,0.4614986363437718,-0.3207189625356075,-0.906198068856156,3.7790903556814524,1.2784848747182205,0.05044595116851677,0.03600196824804389,-16.103612995164504,0.03329856329890976,1.0916179979592189,0.04874406858949893,0.29700346903731967
,1.0064481075626304,-0.08610541201222176,-0.17047247894902556,1.5571958276802316,-1.1340704329002984,-0.3300403854502692,0.05882793371256402,0.05497000985963728,-0.4053699085840646,-12.57773755638647,-0.5565444979209943,0.9162513256055494,-0.2395084530814894,0.2828568042814049
,0.47984214586727,-0.26664122202306917,-0.09690063905634855,-2.6639906930058848,-0.5999372260673763,-0.39037341301284445,-0.23878305820963566,0.30599352567927274,0.21403041450426916,3.1179884753836227,-0.0008551596131816517,1.1412557052093564,-0.013662680371997577,-0.09679174811732746
,-0.16435793567359538,-0.058894608230418324,-0.4126174039035758,-3.7666778005309474,-0.8740343825914719,0.5268911468678205,0.6077042197945355,-0.0753005890289196,-0.35066259068798505,14.523728145404407,-0.20959532580268272,0.10452109468352792,-0.25973822355594334,-0.22433007943395766
,-0.7103016578497452,0.3932450544960533,-0.6318169946362501,-2.6696322614895234,-2.2168669924412128,-2.7188431538779496,-0.4852264170977468,-0.646935020455038,-0.4834722015832007,4.582072534251851,0.13340054680411725,-0.9277125938737656,-0.11882340020133322,-0.4494857668684583
,-0.6630880079246653,0.22798003491425595,-0.05198947626052245,-1.3764672106137046,-1.436628656707224,-3.4266878425647365,-1.1000169586345565,-1.204443043486966,-1.378332127229166,-14.506795329877567,0.281652245020489,-0.9034869226674956,0.22464597856540108,-0.16139360731801008
,-0.48001112477786173,-0.16120065881528534,0.06299862447697997,0.18822589856300206,-0.9690412474201149,-3.209251889969967,-1.3960321088116416,-1.4201769315627055,-2.4027208519338354,-21.10208825672125,0.09908103263523911,-1.0629054013618955,0.4937842778038433,0.7656866022897151
,0.11932192356027436,-0.5628356360223302,0.412291302103763,-1.8811983063084763,-1.7525535585030678,-0.15214210343085652,-0.30338440729851546,-0.21758131733405608,-1.9383717639841358,-40.636562643029954,1.0373180767579024,-0.05495920605170099,0.35756475440954916,0.4449947715212274
,0.13331056096510752,-0.7583989872258868,0.41514470169943296,-3.904890315290492,-0.5227946314061723,1.934373179767346,0.03490686418154948,-2.215565802937817,-1.9283777372030662,-53.96344302662837,0.5534933709459127,-0.3711222786554956,-0.17679728319073346,0.25927869210344906
,-0.17817863452733257,-0.682769517530061,0.1071275490021644,-0.26735424241224987,-0.5847219467133848,1.0641325700021336,-0.4971279374902753,-2.523374063406047,-2.155122796505101,-28.64835112866142,0.647357755974502,-0.5229534843963475,0.03381523540071148,-0.46606362103205495
,-0.04993582449679533,-0.15474851610176363,-0.21822477967231269,0.9023092209543764,-0.4282624057501875,-0.9842427438744444,-1.003117820968331,-1.6129143386833165,-2.3093710677268273,26.083032964124126,1.1567749687022368,-0.25507327955501324,0.06345088219495261,-0.7745481396433833
,0.06572166688122945,-0.017363854207450534,0.2508818484811978,1.4266843045412434,1.173246933805327,0.07582373474856836,-0.35610604634032134,-0.43548750027045896,-1.02794183634069,1.4444123043027528,-0.3174180858275505,0.11722326457098435,-0.09830388387349012,-0.03352419623243166
,0.6234120216345205,-0.21458826695282351,0.6293062066867958,0.119064685507341,1.5469483405784745,1.9627604344640823,0.14574300753334765,0.152796796890009,0.18299402118887614,17.050497857113363,-0.775590148428626,0.7884945217208381,-0.05933223652827863,0.22010704375202567
,0.49305519058475267,-0.25248548944369686,0.012782352148836627,-2.399933064084667,0.9356000027642752,1.6785298181380053,0.41843919349264236,0.2302536661888203,-0.22385272532903835,3.085988721300875,0.07055379329272587,0.4158404549399308,-0.022887300173633364,0.48835267079186134
,0.26626057308948586,-0.3557495089270947,-0.30538031748707434,-2.925107189456479,1.259395057791952,-0.06480400556300789,0.06549266804114916,0.8525090775166495,-0.1285990379114948,-1.2648844809688575,-0.05857427853319778,-0.11281816766778102,0.0008905981774736391,0.2765552536042016
,0.691471343138052,0.16241843500748324,-0.4196370853891102,0.10737645470348009,0.36927108432185207,0.398564773972855,0.03149313238725048,-0.18394942485225835,-0.6320769718911885,-12.340215950430819,0.6131473758190341,0.0321439636581582,0.3225202376231795,0.021377719341480878
,0.15381927224345054,0.027364563216655483,-0.4547914727917261,1.0084872867882952,0.6794883695245524,1.620693380536761,0.657242606140399,-0.5475674639433128,-0.5511093478133022,-13.883376303209378,1.2339095605189214,-0.5153612602531634,0.540771856814394,-0.461582809059612
,0.3248094916671865,0.1274380956858549,0.16193226744063677,-1.7572132127849305,0.07760701164920161,0.14398418336067859,0.608285200769277,0.44073170065332135,0.6442014532795528,7.5010195583845025,0.1307889786831717,-0.010677542980258756,0.08342023525163922,-0.1946947421578428
,1.1832809099722497,0.34477636590673083,0.5490120687075027,0.23156579527337565,-0.08351559944641118,1.5508081759654806,0.5409366062049146,0.4880850931101241,0.34563042300459157,3.6973498125325857,-0.2997114616520556,0.33332535328916063,-0.13608630111531814,-0.2011836572662925
,1.517321482003019,0.07709072429675186,0.5552448176431443,-1.5210454846092198,0.5681336175321379,1.4362958614489718,0.06015950221050659,-0.07705608331365729,-0.22198802699643835,2.90955020431778,0.5542329750837862,1.0712590774076571,0.10100007346855223,0.1924011992200617
,0.00032993700070564174,-0.2422403050855283,0.6987201378925713,-4.9080625194694125,-0.29340685387018783,1.3557021060639531,-0.21604718289979707,0.013887893953007777,-0.38205230704491616,14.942759304500132,0.8623256186871726,1.6343420935275979,-0.20981992866876076,0.4272628380327732
,-0.29375590634407556,-0.28556327404117476,0.23213677846589553,-3.045586381090887,-1.0346642608443766,0.36720172675426166,0.33441843447035274,0.544552101056302,0.2042111399228387,28.12404076344431,1.5279268581560392,0.9622302976693196,-0.0783912060531986,0.03307537441088302
,0.3931814715994618,-0.45860167769799925,0.17484215519141819,-3.8515624065041485,0.26746750684700643,0.04035221034792265,0.30178336861967836,0.3862575769230605,0.684901179487461,12.375931868512517,0.8858175264088495,1.0991320507738516,-0.23071814003959298,0.15055670496304624
,0.6061463026283689,-0.2997760538687313,0.9083957335778376,-5.963129987172336,1.3590263803979183,4.925627671918367,0.7704070488038827,0.3173977615392851,0.5429333624810957,15.443447081827424,0.18563031959792733,1.319158195904252,-0.26119138101929557,0.3763574010235736
,-0.378674980155129,-0.749137942875515,0.845166246060558,-3.9021033830832206,0.919029804298181,0.4513527120748075,1.033703808295552,-0.22891124992822023,0.2825713735647322,-0.7047624118310215,1.05896106401363,0.899269046184814,0.13822188939196328,0.5281799961827708
,-0.33231059373142974,-0.9800932092711492,0.3069052059403569,-2.7501516403183612,2.0953568750651765,0.5188065793794184,1.6310856021075488,0.2877143196054377,0.08118628710516092,-17.38337795208648,0.6957496930042297,1.1467739982729106,0.08170085978801095,0.13411658415258523
,-0.1444210378032758,-0.9427406868550772,0.4332495905117418,-1.0381750809697,1.8459048553078024,4.057894533196711,1.6299761283664278,1.0788281748686641,0.0689091798294659,5.657117975948338,-0.24717243245401635,0.5475156222329495,0.2534645142536787,0.011602244243504032
,-0.5103825877529969,-0.618540769826315,0.28132410633547233,-0.5548837099936629,1.1525056767964614,2.912608613734881,0.7131946899323365,1.1533154431215227,0.8681737050598255,25.09354787325436,0.17613752368914393,-0.0057506394109155335,0.5457219147075373,-0.02095387198873395
,0.18802102837946033,-0.3916056258546628,0.48325694666350766,-2.5328847646110573,0.2084206943962894,0.09011130298233437,-0.2152341380162444,1.0548747799318434,0.5586036568107448,38.45315574332065,-0.6749601554852359,-0.15448576088729352,0.25758869422119557,0.4387331244719414
,0.8465173211520354,-0.3606059844084783,0.8197931964221071,-7.340024985172767,-0.30218052865457445,0.09238315365529369,0.19404983922782482,0.23615297910756128,-0.05979434102207651,23.642570630327295,-0.7848516784845709,-0.09191432855794149,-0.04229838371786506,1.2154010089218759
,0.3846974672053759,-0.5355913253222562,0.43228349646919345,-4.780499067163129,-0.14144343391812605,1.8775668062856603,0.13682746095389176,-0.09550631109487649,0.17641762635981198,6.941215397002902,-0.07325689796801445,0.46356121445038706,-0.028422159867945135,0.8283596186477948
,0.16509792070188287,-0.6087804129162986,-0.1937414218752658,-1.1803831271663747,-0.976857365162199,3.628733799331625,0.38695932001458033,-0.5655867337980942,-0.47777030048789376,-19.17399188823135,0.9817995709747288,0.6500900232472677,0.11798275347110239,0.22655117681169518
,0.44598397803086814,-0.3727401441621576,0.035210724759099574,-2.0329984472335627,-0.389094835725216,2.6851150955854624,1.5124735088605716,-0.08520138120992786,-0.5216073512177573,20.165552693900406,0.5623882472136056,0.8186863894550055,0.11700741634056067,0.1312637703830343
,0.5694999263945375,-0.12715652353571352,0.1910019981959131,-2.0684938911320536,0.39393076150460005,-0.8155265076583774,0.6499350369751077,0.7429490365503804,-0.09371744759433814,21.666338627768276,-0.6673693981413716,1.468903477898693,-0.18277968144553283,0.5524850383970529
,-0.3514165668521896,0.3474300578749696,-0.28049048876013494,2.963033474551648,-0.9443213141908721,-3.505331421848569,-0.83956297931491,0.1942762470499883,-0.11926265487842007,-22.74934151655425,0.09669278073621447,1.2410738065141098,-0.024490839848435694,0.3997213786795767
,-0.5023799306219228,0.23638738693875364,-0.6577620535718578,0.4971645442408235,-1.702730900239722,-3.6915242754524,-0.9453378654205957,0.021494544897018044,-0.5984460360046184,2.2572700600154776,0.7459659038245499,0.06188710635335657,0.5850129242861793,-0.12280223589348938
,0.21279915014820414,-0.537515651728581,-0.42668299659858755,-0.21807283192453616,-0.20035003041647118,-2.09135188737264,-0.22443208460622394,0.21165332945365542,-1.0154945354487752,14.263608275202003,0.41927087814464725,-0.08671288735619755,0.4611194357421928,0.16615072128218708
,-0.9178749050385125,-0.27856736360163403,0.5067678380689044,1.6049376047300976,-0.8735186151927162,-0.4655977434663608,-0.12184430224546969,-0.46880964322976765,-1.1360825135614918,-25.346848571140093,-0.6588977521400783,-0.17596371653816625,-0.19764164806905063,0.04454818094608463
,-2.0182064794168575,1.041021285072217,-0.9675808283560275,0.34667438284967067,-2.1568401768460532,-3.4334081033303985,-1.498883085453171,0.05627405944259822,-0.7195112984594491,22.64901428882689,0.9164968333113501,-1.5236095768394216,-0.08343104408895917,-1.205448849521084
,-2.0711324222369285,1.263047928898781,-1.0775990698367615,0.929374604625021,-2.318783163190993,-4.816368052349426,-1.8434222842043375,0.6313040179662177,-0.5647727329363551,28.277887172899238,1.3055504916879361,-1.7909466721889926,0.17776100344305024,-1.4921118147516133
,-1.0746068852893411,0.5300069748471141,-0.48152574826006594,0.15465814035429398,-0.8988538844191003,-2.27633022613459,-0.4134656988449337,-0.33662655552897536,-0.42898966943958655,28.669329895466703,0.6021664686711359,-0.34780459919933165,-0.15406951388704243,-0.6750845118461192
,-0.6237521642297299,-0.2537203102786886,0.26716422956676356,-0.46593518609469553,1.2659745400788094,-0.36816175354756003,0.36135537132080425,-0.5264721349457694,-0.5670734616484423,25.018252666615233,0.2354027185721892,0.3714525761795353,0.06201718520295855,-0.3335120177179701
,-0.5298839869703366,-0.7215451227280522,1.1933352936264912,0.2428760907325765,0.947732485173366,-0.5235275241744132,0.26590819877279814,0.6121792247413119,-0.3098977550321145,20.40500007293806,0.17081409157539862,0.6316718421028866,0.1883884838243613,0.30380391822797914
,-0.6072944066634657,-0.5849855659750888,1.491241648670998,-3.805750138800635,1.0493653650834844,-1.1388019563703475,0.47444455756774206,0.9319931372651171,-0.1076861717595005,25.980835390033842,0.3212822827081226,0.9462220587296396,0.2586562183342436,1.2595243019546745
,-0.278679678044507,-0.2626627985221524,0.9260621596892732,-6.954253530473379,0.6154468586653632,-1.5218231498529027,0.1810218943495158,0.16092030779026928,-0.4632405805225853,39.81982013918773,-0.10232314129504178,0.6307465892185444,0.21847850663525176,0.9344981189024539
,-0.2845398990005284,-0.11142143715253026,0.7804932802758977,0.2122565226166733,0.5526768401128965,-1.9260917843578267,-0.6593363844119343,-0.07094103973242365,-0.2408315804192224,54.453782296415774,-0.7217439121570577,0.463290448321051,0.17344037411756452,0.5959419003049105
,0.07308665370315681,-0.543885944383142,0.5259640686894359,-3.263686438708054,-0.1524337474558936,1.1127904500891574,-0.042610051617368534,-0.4021876036185701,-0.8823365569326659,34.835460391234726,-1.537174193760707,-0.1741612166273529,0.16635945995950338,0.5965873096132699
,-0.7320197487968868,-0.5126188606114731,-0.1735797222303223,-7.674603579161816,-2.3404871587845633,-1.5449527033647403,-0.07682029099589656,-1.560093814585266,-2.233955463243677,-116.53351326664632,-0.3154658193514295,-0.8206408423729291,0.12392004917742858,-0.09103716811839183
,-1.1074676484227846,-0.5712030449501592,-0.8026734320344354,-3.4458346216504103,-2.944766845039459,-3.525653518802763,-0.5323970457304543,-2.737750607888861,-3.1072247088662626,-179.0592635972719,0.1880643917486405,-1.8091935759848938,0.07374420302969581,-0.9631818286084073
,-0.3856888226783923,-0.3055613003284762,-0.2768732335396663,5.808815192891084,-2.919916403958172,-5.1925297703844775,-1.3185113888935025,-2.8792060320300603,-3.2383380524396643,-164.80133176030284,0.03628176630052312,-1.428452616085754,0.08673283970834197,-0.7669190176768551
,-0.032228641155480416,-0.3922253878818617,0.2535886101438208,6.246438723179069,-4.299223665340537,-4.237748564327949,-1.2206558585083374,-2.880880098733445,-3.0393779223334274,-108.0259377278326,-0.33318784087773157,-1.0084701850051547,-0.024474482351256318,0.22899822449163493
,-0.3972925926801541,-0.1910732481711305,0.2855263585316549,2.2123587368441577,-3.561230854790887,-1.1663727896591178,-0.933655900598011,-2.050109211139115,-2.4556145188899827,-30.48725753885624,-1.3700881271094114,-0.5819158134812653,-0.1888421099032371,0.5784090210814978
,0.4112847852913532,-0.7024519568903759,0.842971410472531,-3.922497321137488,-0.5262392042215684,-0.15592912658115876,-0.4905976982536767,-0.8048743943764645,-1.2288852646658959,-48.3947624901367,-1.00331747429402,0.6563544308381117,-0.4035663520773401,0.6688732879348906
,-0.00961489231403305,-0.787031913965206,0.37391862126922193,-11.354378067818393,-0.47772041631256934,1.5849634555084262,0.48124140818196176,-1.1960613766447408,-1.4099044902351279,-63.88649667719402,-1.0228734054626036,0.1033953739473096,0.1585011803747961,0.6338448145928247
,-0.4305517418087757,0.27675936743757734,-0.25487411720668307,-2.8455208657536764,-2.114921418007884,0.213222156874325,0.46151007679955924,-1.6894436044067966,-2.6409346630044395,-56.812215142057624,-0.6342787695390206,-0.5430619419449649,0.40401084733633696,0.38516474625379116
,-0.9224317005073082,0.568986719977612,-1.155477883349536,2.355547579904833,-2.503548520267271,-1.9478858904889989,0.000768832654525237,-2.5980842495843444,-3.343373597802546,-130.2370879982154,-0.06374080612256523,-1.8044280282591454,0.05013483040301072,-0.8607522454095531
,-1.384321008046579,0.35162761633265976,-1.1976937490628994,1.1997970577093837,-2.725959612001601,-3.600017030261522,-1.0930025480318966,-3.211221052652447,-3.2950755929254534,-159.05277558086175,1.7399798778341236,-2.3868127522233338,0.009094463646040683,-1.1240805420773223
,-1.0980810400598517,0.27968403149138593,-0.25689604922148535,-1.3827391614168285,-1.7500102411136889,-1.0367796705738477,-0.6684300059797484,-2.7525909787526643,-2.9192364591807674,-99.40380467315656,1.483580121191912,-1.541556255675653,-0.024207393698603696,-0.37357731925875565
,0.35102265272923866,-0.032139141355780346,0.06985511897604478,-2.2079074888490764,-1.2569744398355247,3.3441232012870925,0.21979188105819086,-0.662813731480312,-1.5228440711325115,12.033338373544787,0.8877357538482941,0.3978075611880472,0.2378474025137889,0.022517582624850988
,0.34792556222816856,0.02209451140020664,-0.04799391573921173,1.5041605140830765,-4.166866747983834,-2.221430377184826,-0.4987859218421451,-0.07146552903071861,-1.962998045578325,-61.4538263086501,0.03822511440938512,0.1955866627972942,0.02965363516923901,0.10416215488144925
,-0.27711293965769745,0.3176756564601319,-0.036043157454508,5.639718646236514,-4.816106245234165,-4.75412116015461,-2.4725762228352046,-2.123643296143183,-2.929563476298475,-95.09232831627047,-0.47789510121756834,-1.013632806170238,-0.18764635984808437,0.73036814082346
,-1.2871781262542272,0.21684996182514438,-0.3491789402440659,7.062708632500716,-4.2959097962838975,-4.416446468894615,-2.366990434714791,-2.4078918707254005,-2.2721131325918495,-47.32526596753341,0.5296225586744312,-1.1013207047351246,-0.007557698951553611,-0.17904521600477583
,-1.2689777599087835,0.04216748465305239,-0.4859554331347902,7.6555875877985615,-3.9435721076251222,-5.658610745659508,-0.3169420925281082,-1.1458707153506313,-1.2154652471211291,-6.35607327879488,0.9073866662638498,-0.5437766373335349,0.12492114421776564,-0.4714809881661154
,-0.29996315227030057,0.18905413343185049,-0.5866563744834978,3.5366444870045517,-3.0423309397888687,-2.230293395803764,-0.26580694509995445,-0.0675328435876189,0.0845928780469017,26.593482810060777,-0.30529490144659893,-1.039140246312518,0.2580370707073196,-0.5370439360574892
,-0.5316823717354721,-0.1290162475528491,-0.03432488192118014,2.1732349242646323,-1.6100225747049053,-0.20459725304581325,0.020039101976079728,0.0868920025319382,0.2522318598063051,-10.732346385017237,-0.4352777920178511,-0.6782045773180075,0.32468475355856175,-0.36931183280878294
,-0.10640570687642692,0.2691264782880107,-0.013250300653197144,0.2521130939075534,0.800245668220707,-1.4305375784951502,-0.6877772309209326,-0.00894648286286899,-0.028623588518794898,2.4819218739342293,0.1065042050426823,-0.17795550953545938,0.05519126721380049,-0.4113993482175954
,0.3122986114385712,0.24593791538347284,-0.15673069108218832,-2.0070634081731056,0.6331236371611796,0.8366562987613052,-0.3797786407158231,-0.4946300507747168,-0.5196373332219706,15.234745577032964,0.9440033740939121,-0.25954550356591854,0.11991176284492339,-0.2971968761449869
,0.020886317259596724,0.1324631347041157,0.7505621764356196,-5.730707262981101,0.2708376451666365,0.4829649695930513,-0.43178480786801515,-0.957953931072777,-0.4547587542063251,15.692002354067382,0.9822887702236895,0.39746936410199346,0.030012057766268606,0.6244370388485613
,0.17280873819760303,-0.16239806439606463,0.026998952840538513,-6.6299808124753525,1.2027017747781141,-0.5387866645237249,-0.6249740610321354,-0.6933884417813934,-0.39293521473978177,48.00447692625597,-0.4235140574103547,0.553998165879073,-0.1868545216659597,0.5831279222093643
,0.3370309521853338,-0.5512859896133371,0.18184280087429178,-6.343277064975162,0.050347844573067374,-0.8967503617637069,0.15992281780987155,0.7846544903655974,-0.1371185566194088,-4.469512890871058,0.5182556848814733,0.8260973085713562,-0.14244688190701,0.5951406563083278
,0.3766875302423474,-0.26291170052410867,0.4255461528503659,-6.378126813532458,-0.6424429747297922,0.32408336326044856,0.0545685175051678,-0.3011214597813707,0.011925968549982057,-14.060895702290146,1.7117244108578016,0.5735456661666859,0.06901925672133144,-0.11718231450359355
,-0.2981796866174838,0.20382628620870422,0.8839468586859451,-2.7216491932320834,-0.054260443042334135,1.938729511887602,0.423835433544926,-0.060734248650927275,-0.1642109200116804,-5.2615337839053185,1.7888075461765893,1.6110591514264938,0.18585383708805328,-0.5103490364359105
,-0.4618652168977092,0.4554637151834741,0.39466304635380406,0.9631675839271274,-0.043089258196523414,3.7682724403192234,0.5105430384694434,0.6640855881715468,0.015596990857979616,-27.369037185917257,1.6626552664690382,0.730195683838303,0.3448492001507485,0.1792321965785301
,-0.6463727807790142,-0.03127200851167405,-0.03584524828979161,-2.007873653966749,0.11619326118703581,0.8078083824012618,0.40374728903639034,-0.19821584738605985,-0.31221018259321615,-18.80739422383614,0.9187328581821558,-0.13921000586370896,0.46858000339992206,0.5018464992643902
,-0.58338472746347,-0.5320250565220265,0.3869521771839315,-1.3701673810626012,0.2359331686081895,1.1872153066982694,1.2690536951557068,-0.03523860016877871,-0.7130087226644019,-35.368253414712356,0.1373830999592824,-0.17494739286393282,0.14889671049286432,0.48285673456306993
,0.0344473856860987,0.038961343826579516,0.6579802692381629,-0.6136457831807669,0.6621547781801802,1.2332342410531514,0.9014504354900212,0.13116593138781155,-0.051545316440470744,-7.352788410729318,-0.03577562907408468,-0.15731845873157843,-0.23153204836044558,-0.5809801249424554
,-0.23036176416747917,0.1298645103003424,0.3199290677626038,-4.475791362624526,0.29632374271503176,0.31142359664694136,0.3302001719683918,-0.0078072734656607495,0.6198250836803674,18.866288440103574,1.0957837552005736,0.03960320806889448,0.0868816903533355,-1.4748885001538086
,-0.3891274858753358,-0.03546518291150522,0.19626625486609328,-1.4470642481175757,1.7832584055523544,1.1779272956328786,1.456733932143104,-0.4126877299287583,0.7366390999357683,46.910470749026366,1.5457388824256777,0.6354255621443463,0.4236460136957027,-0.9960625000482015
,0.022538987226084446,0.2393600956756539,0.06015760018493723,-3.8431567593499993,1.2025524570741568,0.7200577837000276,0.6947906955103316,0.16038645852019034,0.09003793897275994,33.87584335620139,1.1019823196565361,1.2630037106371252,0.29387551198260947,-0.7040791762065434
,-0.0999286151890552,-0.35786273947110525,0.27779754098040954,-5.177556759799623,1.414069135967525,-0.9304141271781361,-0.061991837864931024,0.48244898559393407,-0.4741010328841377,13.619732875751017,0.30396174071437343,0.31284177178249106,0.13441292199104016,-0.9391391283902515
,0.6207417954095887,-0.8632972842033481,0.6140785364391874,-3.557832380967424,2.1573794948985467,0.4976389767824554,0.5674341345819125,0.5106610436765019,-0.006378613771740659,45.51487563437032,-1.0575124416787458,0.036900801879305695,-0.08804299871332714,-0.2245936737539447
,0.2602638170898832,-0.8113835397317772,0.8805844794639498,-5.5600740581375625,-0.6882634757698497,1.6933625665878749,0.6541120509317,0.774050941801825,0.7639354179960369,42.64404238975606,-1.1940787382938791,0.15108691162446686,-0.15343670460242564,0.41057829618605235
,0.6901062152415715,-0.6209709381006607,0.6777818135249785,-1.6132765297342753,-0.6935293682997342,0.07816064043277629,0.38375709847873174,0.60237376036905,0.8277925885548393,42.662962402290695,-0.05433236045722828,0.14771594741519325,-0.1459458221882777,0.7705366518723222
,0.8554795774623364,-0.329925116159867,0.7984408120903627,-3.4436592811983413,0.7935245030584498,0.6356197788156899,0.509711034811496,0.6268709084157572,0.5225770515586361,28.36573839267866,0.3276975977491349,1.3635132151653242,-0.3208404346085286,0.10951238975685691
,0.7117514406105839,-0.046195413325647756,0.17057870538279432,1.114060093879701,0.034820286425845885,0.8200659497915153,0.20516386605407083,-0.5640280011682846,-0.31102143676925254,24.175759636410373,0.3586672078966642,0.9533028207832114,-0.13846441518755964,-0.14213762776382824
,0.1577701716863622,0.07977706975029039,-0.342611400447074,4.602742188753218,-1.9457225915813343,0.7156944882956227,0.14808497357356154,-0.791016069031665,-0.6955018096259492,25.505050883227742,0.6290254974507127,-0.13795815802163605,0.2111083165168704,-0.25275922610726737
,-0.017291515355517956,0.3608551134341535,-0.8061669777255762,-3.1940655702777256,-2.7817162548364216,0.06121455554436781,-0.09660021503406471,-1.2095898785014763,-0.861106235322867,44.200674190337594,0.07598362712795947,-0.9752583436795654,0.17654920701624563,-0.6553358193888995
,0.060495914861788555,-0.1736225617643498,-0.5699701716711882,4.400371572408642,-1.4295651208344422,-2.4098542313761984,-0.9740632011317909,-0.997022357305238,-0.9357206903544735,15.413480794026162,-0.033643999360846125,-0.5212366620525641,0.1817505292869086,-0.7154719053470621
,0.49711496413270423,0.27068160543000913,-0.1107716312552116,4.051604328198573,-0.27495061095474255,-2.409346789182065,-1.0101183925682449,0.49034188625072905,-0.49165915778646924,30.79785974507117,1.504996288134414,0.41889557352104195,0.24895078720568373,-0.6505118283617962
,0.4767423866344953,0.2833952629847008,0.05026274285584026,-0.5619001321492167,1.0346750794776822,-0.566217205514757,-0.3200878447807259,0.5462084408317341,-0.17723095196530259,49.59897743303007,1.8904643164794155,0.13284596375311197,0.2925857980914523,-0.5210372481598259
,1.100340187060142,-0.29894204192444984,0.1989054829618871,-0.7895402264773483,0.24664897598453242,1.578779661647346,1.0363795551088886,0.8716581643211839,-0.09480747648476119,30.36726765325715,1.1806878955779394,0.21540755405130468,0.04040388714790264,-0.34157344143618806
,0.9535353735569453,-0.46404454769156933,0.37496962861295763,-1.5399508105272943,-0.2163699454936603,0.949562358194689,1.214542121391964,1.079030281355554,0.42663254730025985,-2.813827713292395,-0.4487876566043592,1.488347310301132,-0.1301808963153275,0.11684060023391599
,1.2241899196858852,-0.5828181622379803,0.7359573626037497,-3.1549983261139025,-0.4222001063435603,0.5794189294871603,0.6757046007960552,0.9391040536685223,0.9899180235607612,9.337314010322974,-0.6540705308069134,0.9514480002101972,-0.2612600069022671,0.17899782669640749
,1.3077460096261928,-0.5876702524111348,0.8273516234048973,0.6358622939581755,-0.4460269249027546,0.0904413979387305,0.29180931017501904,-0.06332062572838551,0.2224411562096372,20.279669098455056,0.08978689959421896,-0.06412013411338596,-0.23685398749763503,0.0012618908444812938
,0.6074679061004791,-0.11682112312182123,0.20854557758812833,-0.3995910982256267,0.652193816235265,-0.7789822306171781,-0.01896171853262758,0.07460473827599856,0.8588759916545448,36.63818582331938,0.0820222635875603,0.24256288291009367,0.028597775127295968,-0.3152580415803963
,0.9369536153237678,-0.21987249138485512,0.08166061319424671,-6.497381015005901,0.6445066631407751,2.916059049094333,0.5202135058012062,0.7032226817325274,1.6019228527574472,-0.2707498969709239,-0.15705954673709757,1.0235332783667446,0.06444959207928828,0.08917739523651265
,0.6662691595574394,-0.48430482788123985,0.8091062366489057,-5.021851151628299,0.45932919657700155,6.830684152656889,0.6129459148482505,1.3988647938137833,0.33395324842698765,-9.156191677919576,-0.09832154104525534,2.2253658161701995,-0.10099888401341814,1.0607694992146448
,-0.1805774252081919,-0.3716768550900549,0.07350783569668659,-1.2490092728212994,0.9562588160330342,5.796616353851453,1.3521269113771321,0.8061148016331646,0.0033757877679588184,4.366324879847503,-0.3948151242161588,1.2859679913215492,0.03429663578062486,0.7416972160081625
,-0.029596709916880445,0.034554574295911356,-0.6977704745894241,1.625752183020112,-0.36554141988768196,-1.7079116760456816,-0.34378853491566885,0.8344713899028128,0.10739450445789624,-21.06047150908165,-0.267238346440604,1.2762098633953407,0.13566278396350243,-0.33075570479175076
,0.4467711520654052,0.24931714367463728,-1.0537628347096704,4.095098743376239,-0.8302253503828204,-2.7537570698423797,-0.7176576176478804,0.05440424927316625,-0.19050502612030404,-32.009121677586656,0.18700074228118974,0.8122984913755328,-0.13379054842871843,-0.7088833387076531
,-0.23266939581542473,-0.43639686433350594,0.005574916954054286,-1.958889380090434,0.5885992790259036,-1.6881398310239888,-0.29179112327290385,0.2789241090577719,-0.08388526419939082,-28.830051181786818,-0.5238058311734787,1.010387081064836,-0.03478658571767231,-0.3522578571407488
,-0.4574619484235801,-0.573917793704607,0.6565346303854421,-3.401429269991509,1.6930910266917307,-1.8215131457795732,-0.5337291088511953,0.10086294681938097,0.7547108413893447,-14.43088470710354,-1.3907661876370925,1.3762422339948228,-0.34123445653032825,0.43469416872679584
,-0.6588275520735198,-0.5566528620960741,0.31482394468597413,-3.836114165254821,0.22544994370197707,3.4994557173086576,0.49969836098786485,-0.025483406477956445,0.4383382059546715,-12.551796593834908,-0.6098283668141533,0.40083379355671866,-0.38063151997056593,0.6820846009485836
,-0.6759856796411049,-0.5942166728751261,0.7211842960030349,-6.8710289109650216,0.6206983280747115,4.639162889630699,1.0688056003842512,-0.15479465244408055,-0.24196187032359237,6.519488507399056,-0.07735522615873117,0.23751529768119578,-0.20528098801678782,1.081149972238596
,0.6946663359681172,-0.30929307180506,-0.08412975754379161,-2.3739784592740105,1.8399601873521225,2.2724705960669187,0.542152443526534,0.4703707926894071,0.5266967303192901,-9.300399217535293,-0.5150091246627639,1.0812057683467435,-0.19253829225352745,0.47266299820033164
,1.3351731252595052,-0.1210679742925055,-0.5873942092520316,-0.3734940781853183,1.9942248937568068,1.4804680537035706,-0.15767281055507715,1.3193493765458246,1.5013329590777333,22.603278842010447,0.7162497400874811,1.633257924772694,-0.2356577595523288,0.26367540089148817
,0.36477038879261886,-0.37355185880507485,0.36713038589639585,0.8261097467921186,0.9151125300290309,0.7032962341818606,-0.13131852874091945,1.004535439377681,0.21948068015434768,70.07902503116479,0.11135346273643221,0.4993773327390157,-0.20685283536216578,0.2390374674275628
,0.33998766312135553,-0.27794946961993117,0.43481709840971433,3.7729049104990375,-0.7845419906842319,-0.2284470024925014,0.3622313074407689,0.7107041068666828,0.31952956916229597,55.89051293468046,-0.6858388706891696,-0.021188935847893588,-0.02998009654275219,0.1381691522874449
,0.827763398359081,-0.33374567051469595,0.18092543029803113,3.255315734440305,-1.215443347946352,1.6241686674292855,0.05569534280763301,0.2136234215535227,0.0027564358700806805,72.39903151079656,0.2085021616398047,-0.14421772079501388,-0.06397015269605573,-0.056900180767206425
,1.1864397933532598,-0.028714675665263964,-0.11081414108538931,-0.4681972891063254,-0.16654921871301817,0.4918738133521332,-0.23731212782426248,0.30291844467917783,-0.14109328693916154,17.435461123632013,0.13093534949447277,-0.1336281441263638,-0.05780086946427944,-0.18371415067808344
,0.3828002516005121,0.08260794937390117,0.15308679422275623,-7.271173599525458,1.0965418453735443,-0.6973618671839461,-0.7837905859512302,0.22498151208615325,-0.4250704379224771,-21.172974327346537,0.6354812984902365,0.5826914790216317,-0.21787739992488608,-0.5949758743071043
,-0.22059259504358553,-0.041594613337101044,0.8494243227988113,-8.828641126535784,0.910564677727673,2.2006554497448296,-0.03531252818911395,0.10962660106134789,0.0389984727197203,-12.387297728513184,0.5283474601028794,1.4683163029617015,-0.1222537049162398,-0.16060154785008116
,0.3859905323923975,0.08432739569683664,0.7268434027657348,-4.984190672230382,-0.28073680204582574,5.250359907139291,1.320660112327581,0.05013596873437842,0.8315862320375162,4.803819532525902,0.02932683205148366,0.33467938007984227,0.16577119073696894,-0.05819529015020422
,0.6085198667819411,-0.012126838351513562,0.8796713540581701,-1.1568044088733416,-0.49638113902111325,5.6822480628704275,1.54403265460336,-0.08932415935745713,1.0225304446278536,28.221128654009373,-0.299373951092274,0.08938203210897416,-0.04057380861602547,-0.5405485333087828
,-0.4578343997796729,-0.7064293005626634,0.9193229964919654,-0.1181985648723351,0.2705089430102329,2.019399736178259,-0.09431447512037884,-0.10786931450220433,0.7670710989495128,39.567263852787015,-0.17750075395864184,0.7499550098851354,0.1956417048556532,-0.27969115275743134
,-0.3802839244178764,-0.9605833046124607,1.106088021040655,-7.880594584964414,0.5871011740906648,0.1744404252009454,0.23082229856955286,0.04047765530607743,0.31057685438671917,33.61343618953988,0.591578293853895,0.5173326771173821,0.19148904904072778,0.7859209679723737
,-0.44234567326875723,-0.039147229747345066,0.056824768853680485,0.2743320187172903,-0.1975568072450245,-2.5507419404135807,1.09410735493117,-0.3997604471867295,0.33987945484401716,-4.2755367291159985,1.434053006421017,-0.057358781387019955,0.21172993865992557,0.03139113861145647
,-0.8077821147768718,0.284268505163972,-0.5753050565421094,4.931143858573745,-0.4386355501371072,-1.6209918949699749,1.078329616183972,-0.13455054316628978,-0.1490374604730794,-11.602579984920638,1.4825322035185842,-0.5238038550283913,0.3066367523268321,-0.4041704018897209
,-0.5513795987763405,0.24090174500668352,-0.0517998081160462,-2.0355802027558485,-0.08905611777382527,1.513439074235915,0.7891862704138631,0.3516485070452158,0.01730078638080079,10.003776125340634,0.9768103181135149,0.9327411273315018,0.14575076839051576,-0.2304606144490328
,0.383680792702985,-0.25423794548248024,0.5367811134252897,-6.855449657271699,0.4083102221581277,-0.9411105601025551,-0.1797452690623015,0.5184990429300064,0.2935607221796819,29.251689596082848,-0.21572299475475293,0.6949412265618535,0.047452077568239166,-0.10516661789559212
,-0.13703111587819566,-0.43223937618329455,0.6653798176330891,-8.675915462085117,0.29520425106624715,1.2346381984155466,0.17558407223865108,0.3100024908609174,0.25917016944087595,2.442644421490485,-1.3361412191107902,0.24329984187443227,-0.09983180154690219,-0.15454274123829842
,-0.5488179707595592,-0.18181560287435863,0.23904206435254105,-5.122113930015846,-0.7056629854807338,-1.8443036109285265,-0.6004326220845719,-0.31843310962820764,-0.04232586927819345,-28.832011511234022,-0.4516737529070073,0.7916067486457503,0.12916545083871586,-0.5298520978625364
,-0.3888789662484737,-0.3281751225813264,0.14180003564216279,0.49575006714570224,-0.5091083444108372,-2.603747575816777,-0.9965211877834045,0.02381209688297823,-0.09413206800425404,-16.533933080712018,0.3781573718296047,1.2445845183847064,0.07808871830542734,-0.22855391918007475
,-0.3282499914802431,0.045402170817034807,-0.20032934953749335,-3.0168040314460565,1.5281752272984341,-1.4027521585613976,-0.7594388266832797,0.2630495538692589,0.03753419737622576,-4.782355663231918,0.8484747707694367,-0.19278683424932014,-0.4008784353831359,-0.3998882979437058
,-0.621629228786664,0.06937821586966327,-0.22879135173212195,0.07629428444786687,-0.7184089205395218,-2.155427969972457,-0.5196349059538969,0.12756339004149672,0.24718918255366126,2.076520754955503,0.5968762503588166,0.061288449621317354,-0.25082976866782525,-0.4520152586398663
,-0.6575505903884384,-0.2965190067728887,-0.27606988236813484,1.6847351701655453,-0.6472968814861386,1.6081899502090335,0.8348970045998401,0.8034320880407615,0.45950221324056234,29.192490303079843,-0.9399264789056662,0.287679772259819,0.12863607740008942,-0.18087028939383545
,-0.042207285180992385,-0.6072652410800358,0.2856563097112461,-4.280271824878371,-0.17385498911240035,1.4751369358220838,1.8426447138048212,0.460335658046342,0.13640028333338863,17.220031376320534,-0.10033736796316113,-0.012262243893716183,-0.0021537908558417417,0.3607154036794366
,0.4412810970679086,-0.13658367229119114,0.15482122334919982,-5.594817261525366,0.31300910309017554,2.037325561958914,1.1500080516115518,-0.015652354074802123,-0.023078569933770554,-1.315106586748729,-0.3236885937971559,-0.3003146482876333,-0.025680846601757373,-0.042228299812532885
,0.5860357738628216,-0.19007607370197932,-0.5601719310763282,-5.250109414446286,0.7436289075282119,3.9798646185301068,0.5699900084908893,-0.5207252054122654,-0.4833329959709062,20.748745004862258,-1.1465016025775847,-0.5500339158608211,0.11560203070720547,0.07180178738930894
,-0.14811851529475076,-0.6167076022331324,-0.47851878366641004,-7.509505866242884,0.9413474282516099,2.2585967737688915,0.6376336988295433,-0.7376247937279724,-0.11326728727405315,19.662135896088778,-0.9437625742853512,-0.4095250075976197,0.018014416264328606,0.3302380682364783
,0.09226710797889043,-0.7344204844692377,-0.4163776556917959,-1.8206245851589864,-0.1937673185246952,-0.015756007284805473,-0.41571140930743244,-0.8318794830701961,-0.2261819878446637,46.30559518155262,0.5133535967752111,-0.469876275358333,0.16037996576317004,-0.23044389985092648
,-0.28956955170048426,-0.7072927345523633,0.381836040527739,-4.663610164565569,-0.2681988601162308,-0.823587951339163,-0.8895499246759372,-0.20865056535804977,-1.1130239877482049,20.722733515063943,0.3473784413447458,-0.054958484832995855,-0.054379182261939,0.12104857096794641
,-0.4676808552548073,-0.7763486043495545,0.5303092344857933,-10.309550328438176,-0.007781092053187027,-0.513310281155895,-0.34106498903034893,0.18149490399091137,-1.1462234759610999,16.83416090488222,0.27342107241024594,0.6925420143624632,-0.04899494850561477,0.7993230369964249
,-0.10474555604268172,-0.32096499190267697,0.6866508063490508,-4.908892865220951,-0.07387105458883444,1.4199604888359099,0.3959895739378667,0.2964786094598282,-0.41201633166336227,-20.02473659850767,0.38668710037603776,0.848523098249122,0.12594598016664607,0.2132469383781562
,0.23708214624482873,-0.07258113898592451,0.6086877017910531,0.2351305431833914,-0.902646265068774,2.8409475923427183,-0.005955458478653738,0.8075379275306235,0.3288406251975666,-34.17439498055242,0.7112663297575278,1.0174512545041416,0.07602608191871661,-0.07013694722386553
,1.0340793651792723,-0.09382577365052977,0.26880521201248986,1.3933364770427075,-1.4818970342578333,4.192849155790965,0.1490058911874294,1.1645996637262945,1.004764606268788,-36.86519533857881,0.11329721358277282,0.3156929289555669,0.23236338031220435,0.35879510665851644
,-0.13273208934961217,-0.45146397853818787,0.1868605058487236,-0.8349754484715637,-0.12984783132828984,4.306156640764437,1.5821639989863563,0.8602728464894941,0.16689616624083284,-20.57644879027745,0.5354847598068879,-0.49311975728592816,0.41814639494891703,0.7699317695802695
,-0.4697512898754887,-0.17173447043718507,-0.27063456297899563,-1.5904893261217632,0.8668151220630366,2.6761882202924006,1.4040060920615678,0.5465004605282219,0.30968117240249265,4.338986834268481,0.2840398947542076,-0.07152522807589834,0.4260938356900742,0.11404451070732932
,-0.6869718749814181,-0.07522911055253426,-0.7319349055100439,2.005294768775765,0.24752999414552485,-1.3168518762581867,-0.5921398485751246,0.24738399544901998,-0.011959651249116014,-21.27646951154694,0.9898773003090489,-0.23339259729396408,0.3441180106126294,-1.0076127060199174
,-0.6179271974137327,0.2760235400561641,-1.1561053441635885,3.573158447088249,-0.33442305335846845,-3.508574663165096,-1.3164402258394452,-0.12118093742310102,0.027153524385654847,-19.32761395885886,1.1559487395911066,-0.7241635041559565,-0.2673968771716743,-1.3007300924783312
,-0.9771290896941576,0.4908343138564631,-0.6560005479767108,6.992742640225462,-1.4503074219007435,-0.7217071080606646,-0.4613354908161608,-0.3643071728002718,-0.5843088139851768,-44.67327093748505,0.81520836955781,-0.48640476084315604,-0.005859013760114163,-0.9127508339497887
,-0.4000418456400811,0.2702053589152893,-0.023705982396050918,4.922183055674784,-0.11562720712128265,2.5853500740822253,0.9742486174708874,-0.20668085257105545,-0.7861273208256139,-38.125769431536256,0.3074314097541745,0.2608315140613289,0.1056786555660877,-0.16445785708506305
,-0.12347590803863291,0.17584740734803028,0.04074381404272373,-0.3780667266442384,0.167441529717559,0.3834205518727165,-0.42260339241949535,-0.22344605162517714,-1.3736910131679962,-6.180409303296395,0.09816200224242451,-0.30306524286314535,-0.10154520866285444,0.5701898747102708
,-0.5761839696916778,-0.08520292057339253,0.2950031433673383,-1.699802603701023,-0.7077301888183957,-0.4970681870355032,-0.6350824462166066,-0.048879036624978923,-0.6796375106534595,26.15287570179638,0.47166942312753374,-0.17071053306441036,-0.12784762912364298,0.6775096987892888
,0.16578271863614527,-0.2159735652915654,-0.03452345939348847,-1.8384113565844076,-1.196839896166327,-0.3469202734370673,-0.2551130253687943,0.24247620963739921,0.2064753571048088,10.73263765361632,-0.10328524064634369,0.5371426906856628,-0.031168912857771014,0.9625691596603748
,0.08100962918642,0.20629399971505555,-0.3941065077666672,1.9589167578440485,-0.6521793649984805,1.4657104354582133,0.09894915124090464,-0.42874107449409193,-0.32573292188961867,19.029602814150945,-0.07893158168759178,-0.8275321225556223,0.0055015327412755045,0.7089492705133557
,-0.5189772187167675,0.37317591659305904,-0.379918168567762,4.977620250383277,0.3430643121199833,-1.3665868854117438,-0.46772374799784,-0.6895009474353219,-0.01929413054913332,12.432758046044324,0.23616353221364358,-0.91575086066707,0.19661524579697306,-0.11006777951216498
,-0.5396017707716009,0.5588998178984521,-0.6363064732086351,3.835544883131871,0.6197472672642939,-2.6712225560390954,-0.5827364523452832,0.2385161297662469,1.0447890039327932,-28.73352445893211,0.48206116443562763,-0.6273345048567814,0.4207711013111223,-0.5007352453391423
,-0.4620903294853464,0.5573602283998504,-0.7561913022554252,2.84183424924098,0.3167323566044915,-1.016209177669818,-0.19277616242929993,0.30944171749381744,0.0978597826762553,-25.267151263005665,0.6569362239268572,-0.8076996311677699,0.38364254399178804,-0.4388566196596604
,0.15890731656398843,0.12238761444901362,0.1787326951951759,-0.10165225319451135,0.2101265869885144,1.258953172851101,-0.10653938356158356,-0.005801692448199914,-0.029155233473293775,-10.949341908228606,0.5773243921557847,-0.44247613246768164,0.10056226085181226,0.06015488160559996
,0.9354194565364098,-0.3169446590565114,0.2985890974895895,-3.1180430046734933,0.49410640808968753,0.3416636968916824,0.07951148543223574,-0.3178853118147512,-0.1569444945881856,-0.7505440901463015,-0.4269385424205838,-0.2751874777674604,0.176508887363286,0.5504318731122072
,0.1581525672420204,-0.173669011411686,0.3757587043903715,-4.644124430022537,0.9928167696402256,0.7357460483759339,-0.17378572098106654,-0.41862464233957164,0.0063959397650888376,14.269229141520887,-0.8143041766826331,0.054686324003553596,-0.05413501277931235,0.6037692171271776
,-0.008758589358805607,-0.24438096179975455,0.7520266978858449,-7.930246804015869,1.057952690781494,1.0897815932318984,0.267345584029864,0.348921905371183,0.7516558628074759,32.075483556421965,-0.48872188569290664,0.46589802282849146,-0.17508747226149823,0.13035838443631587
,0.36791909923929383,-0.34093922405524024,0.6424447511648136,-1.613427898071927,0.01564644691522513,0.38780604142342684,1.4799606364062274,0.28134856339920156,0.2463613718855264,17.135974226225997,-1.2325288755578792,-0.03810767245634409,-0.5838103951986177,-0.0426026400519076
,1.1909627142286523,-0.5804280260382241,0.6630658557909703,-1.9609830325573943,-0.8513637176998318,1.548392582533374,0.9169706256553731,-0.2625845377075621,-0.02172910145798303,16.351086952923783,-1.3843507080196218,0.524521412053008,-0.4812825439272646,0.09017445552705117
,1.2120265380791682,-0.5584741934430767,1.0687876424607172,-4.972541107211807,0.3381642812782377,-0.48289059973553894,-0.035945308219268196,0.45372814790630694,0.3394571206031758,6.077306059160318,-0.9871108654255369,1.6907866683094788,-0.21781027506106776,0.061004552150354316
,1.1107290439556121,-0.26805205457220377,0.7242748524298226,-1.2595065095654747,-0.36167291554474335,-0.5449810902002569,0.021229012472905415,0.4193151277326909,0.9587510562763004,36.6881538769068,-0.5586505759351263,2.389483636293736,-0.11354873312122918,-0.051342104243353844
R,0.2870769827991768,-0.3301195117125882,0.3818473841605489,-1.3215309094389653,-0.47418698646917873,-0.8403624774592553,0.0849582742142541,0.6291909886036305,0.9394822100316808,11.355787893525086,-1.5114261722612332,1.0634826909165198,-0.10214382467708116,0.013933814069570206
,-0.36152931006483136,0.200052715373599,-0.27387169937012723,-4.101760527051083,-1.4884761628010952,-1.0941995526360042,-0.3594397344348618,0.2498749877794789,0.5227424960887399,15.290616755942796,0.976589411318931,0.39608262832051355,-0.07819375255961089,-0.35810757471255067
,-0.8525996826960757,0.5893177523061783,-0.1924671020124499,-1.7771512707994255,-2.274129231137879,-2.9533310909141925,-1.091043696770558,-0.2363082801234024,-0.0826348770210308,22.632851744758295,1.7638444255942995,0.2859783163986337,-0.1757106389117297,-0.41346738177726344
,-0.42907358137492907,0.11935883395326924,-0.013779522960641276,2.8428693554092326,-1.0483925322958303,-0.46891180334706195,-0.32000659299864687,-0.025517201569580667,-0.2485723752171708,22.738311843122624,1.297045707956872,-0.14462605139836052,-0.03847542630455505,-0.6214950694096162
,-0.31919468435881615,0.10121449566134195,-0.220990267896167,5.587968548219368,-0.3044779828958353,2.0581825735877772,1.296732875683913,-0.6001453927717105,-0.25475058599773587,-16.275103301800776,1.473944481140509,-0.47034439950552853,0.031382811452972746,-0.3466704724662693
,-0.7900660757982058,0.14302980746884894,-0.5786643950757521,5.754901298102868,-0.8107232065656738,4.14694614254807,2.2822254301348277,-0.6734601395099701,-0.7140229081047592,-39.459597536080516,1.1573121439444773,-0.7824749650407968,-0.4249243362579551,-0.05884698411927468
,-0.0698710125342478,0.09980718567006919,-0.8032254794952808,2.0793854626795003,-1.275345854639055,1.748202490271228,0.6816390274418761,-0.1945236131091674,-0.543244809963535,-27.753648022017433,-0.9821540983955046,-1.1294131315776128,-0.31499536319910126,0.16304738184619305
,0.6516229201604952,0.011023523422770411,0.1970835166950248,-3.7331059870585386,-0.5563999666529446,0.30783817377234723,-0.07274415327426893,0.5815233109057159,-0.2182353224947582,12.90148306652935,0.1699395505176894,0.20799611151833666,-0.12847054352771614,0.11639875221900962
,-0.5869175424797228,0.1645859928724336,0.19904080249590253,-1.9455541984109375,-0.6832846337299207,-1.1010617141637822,-0.19694721652085267,1.321535786006156,0.2696209390794516,21.902435963579286,0.8649294459633448,0.9405985348172216,0.3007280367158389,-0.2467031778216707
,-0.2880727042433617,-0.05034983187872532,-0.463769293703406,-3.7590402290988276,0.6121419470755959,-1.234960905058676,-0.13980667529544977,1.064655923659404,0.6636847045469477,15.750422345194162,0.4628863162099359,-0.4341302949680066,0.42322942941102754,-0.5862269782872245
,0.1356906560887903,-0.18168767262455815,-0.5011606061876791,-1.9247572529996997,1.204885221158353,-2.7590133128776393,-0.5447467438581741,0.22806044350017043,0.1330189532465832,5.484103494661122,-0.873856977594492,-0.9961121061379309,0.2780046728084822,-0.48519944442481716
,0.1647378588440248,-0.24716382684383117,-0.2221568604099957,2.8801151256931874,0.44896304772724605,-2.1445102892207437,-0.6466329896094282,-0.20918601571164167,-0.7108342985567424,-27.014920275183755,-0.8789387448323489,-0.6640497386538446,0.1826790809289302,0.20338041808707702
,0.58335898766732,-0.5673054782506523,0.6523716668431996,1.8892618905789034,0.7469401252486197,-0.6386675805121048,-0.2256170482857685,-0.10882111813422646,-0.6665614425405928,-9.953164029634655,-0.16941254120910115,0.1605327987911777,0.11962107493581677,0.6086626356916117
,0.28881620754744636,-0.6164463047936358,1.719607786197412,-3.6831361116356636,0.6857209506766045,-0.3580762204655045,-0.1133383959545384,-0.1324930002440774,-0.2673579817306805,3.4621046851209782,-0.5151578938067318,0.12886412124161847,-0.15591149982466998,0.5078729881866056
,0.18473227218004032,-0.5197667112057192,0.8987192801715492,-9.937237307552085,-0.21971218287080554,0.5819510139290986,-0.17942243761751023,-0.241269025455594,-0.6562051434371013,-6.737038921882263,-0.8236146413957959,0.03070527345912701,-0.6165846552758218,0.5495776857360214
,0.28939718745151033,-0.7285715608505703,0.17687834616559184,-9.47679993516756,-0.7341442485326114,1.6223891604224034,-0.17829170919895104,-1.232250636620612,-0.6858475860569997,15.244859173930463,-1.039135434815814,-0.08344284530133717,-0.3152018905552124,0.4053907218347507
,-0.2952424937985681,-0.6670026879867629,0.4003650476275879,-5.407504144200667,0.08978026578978568,4.331394536762398,0.3008334395610893,-0.9067411051516039,0.4140673819944728,57.54112076338097,0.4952799180106071,0.859286867478744,-0.30928528722574455,0.21329664418341082
,0.029342738022689004,-0.7301827684102934,0.05340789605840927,-0.2510297573976547,0.7961971094783429,2.270206497856451,1.049761892744808,-0.5328793706959131,0.56969409850577,-12.78843405430015,0.22601858193673102,0.762021723164038,-0.1921006529748541,0.2507985020589823
,0.13504080292191845,-0.5596134000641717,0.15523328265798148,-1.3530834439193786,1.0317473624230507,1.0500282409215589,0.36141750853659993,-0.026062091402354073,0.502754160495422,-4.928238125948526,-0.07857934611908103,0.516720796692765,0.0898730612295218,-0.2436520610538788
,0.42594136650582853,-0.6652298265106007,0.6680087853846808,-2.0248003230755685,1.0978109332214503,-1.4074353892332057,-0.6228891520278859,0.47022906649467805,-0.7237191284981853,-2.90765249966227,0.21322256265767583,0.23623609991755093,0.0679241908158004,-0.14749968119428686
,0.30454057691602726,-0.28508772114682485,0.43199294813323524,-1.5153324222586921,-0.5883649885857469,-0.8269018582697412,-0.29046571654883574,0.3949469392359897,-0.6872560568963266,-19.967680987149592,-0.13107337523545518,0.3182105232985548,0.07606666172746844,-0.16718983434186813
,0.05788986047522109,-0.04423143287797755,0.2061544138079389,-2.300123103537424,-1.1118060238915242,1.3772154265977803,0.24550051840678813,0.1079641407521841,0.5254744204524605,-10.956208878364974,0.45371694860283024,0.9679973674392277,0.09032788907620293,-0.24767756146922815
,0.5620834171605552,-0.5900231319095492,0.06773944569430328,-3.1704621555816748,-0.5578743166176179,5.8974989863321365,0.7836027064254321,0.43092290773119146,0.3160700757784347,28.69750036938539,-0.1388229763053984,0.6266620688087098,-0.17045240327074349,0.1671520136565847
,0.993311937317244,-0.24752993421416192,0.20984406406055783,-1.4457214630908104,-0.6556835667079332,0.7922429840206815,0.40765155622070676,-0.0804203338305675,0.11031817453138318,25.645019274306936,-0.8125489691127636,0.5268718906445855,-0.2039536543739602,0.14368464490279445
,0.22869842203310212,-0.17887739702427471,0.060113702105914144,-0.7979929753924563,-1.4201139467266968,-1.5246177019725582,-0.0015611355434652656,-0.2890597738600902,0.10831953331518512,3.913987729016275,-0.3380363966521737,0.9301895053924427,-0.17594322872574064,0.303793381465824
,0.24767802396185026,-0.18208113330301876,1.0896253798022488,-1.4935167755812435,-0.002166929072757502,-2.0793471568538413,-0.8560860365809687,-0.15814738279876944,0.2661624989405517,31.65725470955025,-0.10032461413054274,0.5236718765534933,-0.07984156337565475,0.5003504845707778
,-0.21813418153772018,0.29315106959666676,0.8641245951157526,-3.967504131891104,0.8321596502693096,0.06405777388293753,-0.27616622057884244,0.5931792925273974,0.09495433081424005,51.873075632970455,-0.9504489290475663,0.2858704543375897,-0.4898355681016733,-0.2642717055195035
,0.09473457535407767,-0.13114794501986077,0.9801811433898157,-8.00159082688842,1.2813729009208221,1.8370409928511093,0.526894950054318,0.352414238576342,-0.33347517881022143,15.154081906505986,-0.3750838175612922,1.1247202143135258,-0.3795454283203762,-0.5761941004577944
,0.8903653768461861,-0.9823193599801893,1.0040777060995025,-4.711645030204842,1.7738340791066147,1.990591244877459,0.5318086845147819,0.5282357054517698,-0.2617043774281088,-8.981058409262745,-0.07053630097540375,1.7459031259218587,-0.2974705499342273,-0.10331142069384357
,0.5478949907059494,-1.1986385322942619,0.6134900321316787,-5.63697491582943,0.732129762730682,1.7609641190308476,0.5601578996882294,1.2872168377723332,0.047925716120647804,-4.916673054626918,-0.32256086288261904,0.42023825308760376,-0.12289404816139604,1.1472421780450388
,0.2030992973167347,-0.7849385558276093,0.5063254966634333,-9.045880273390422,0.019321948999414792,1.9159499424003152,1.084460691090844,1.1650428089585072,0.3918348530699066,7.183429884592473,0.34445005032669773,0.2601020997133206,-0.10418692226347893,0.579240481035442
,-0.21199287822487126,0.00916509216622839,0.38031662187352633,-5.3368651192920185,-0.28746711728190977,1.5967844192819083,0.5376483718405903,0.7304071505963887,-0.013096453900490376,6.344793438251411,1.6395743413835668,0.6018914301896088,-0.09717077907911649,0.2362299659127861
,-0.36746993461509925,0.15392291287034587,0.340174508677845,-4.820526230516144,-0.2868915436172328,3.6827547040700437,1.0842712391682625,0.20321951600086527,0.11936744552031409,9.392669715423553,1.3164441236024294,0.7842458682473861,0.041414366904184145,0.46100902940835653
,0.12765247664661686,-0.13831003729126803,0.36958674907754846,-3.5263705412380726,0.563642137253053,3.1113370266055673,1.0065653592852628,-0.4998894590968599,-0.210721686759336,0.9538794914168469,-0.15311001477616845,1.2299044330360769,0.14925514141615862,-0.22997659096037584
,-0.08118677077615388,-0.5217079928288769,0.14456988434090207,-5.128846743891988,1.2012362388572668,0.9508040024867475,0.8496299461249848,-0.6081536168052722,-0.14576718734420102,33.91112656104622,-0.2585320955487001,0.773164714744623,-0.0462162492407187,0.12800631909388485
,0.11855978061996385,-0.46819132230002264,0.016620299876661984,-7.563339272597233,1.3143930178627259,-0.6334393426637112,0.6179490857968811,-0.21126145813984135,0.43017281687538667,20.18810863360952,-0.09530519730431256,0.07780947945560672,-0.1868608590673426,1.0855784184304
,0.3456906389727974,-0.5836989269463237,0.7545642484298709,-4.096428332657818,1.9260177119037456,1.521528552445081,1.4205444112550514,0.5831665529902962,0.3648650714668137,-32.96045411993223,-0.5457165396893354,0.7565616432210567,-0.20344792561102648,0.8205879081569833
,0.13456280520923536,-0.6474888459334863,1.0782089140791573,-1.9143799470113356,2.065777336599408,4.822222526259396,1.6012020136304908,1.063423268322755,-0.2155045384930885,-29.019778345850607,-0.36939682746340785,0.20641965204602927,-0.10196834578189477,0.6783288477847563
,-0.2753197001421265,-1.3287980560202484,1.1333548069946717,-1.2466003132476065,1.2398034189998943,3.749820701994407,1.2877476097859946,0.6338242889905656,-0.24338954266261584,-10.640709221076529,-0.2621726483622277,-0.04055854195402461,-0.3155239092344906,0.006423773268915237
,-0.4182952552859451,-0.5682649050915292,0.9911788938741677,-3.2178843992887214,1.0116616469786157,3.6385424506959305,1.8300425070432693,0.5738213551222335,0.23932554974586992,28.02445091899952,-1.355022535271356,0.7257963014213711,-0.5354770354004038,0.011754450454811287
,-0.14257894005236385,-0.38815211276540507,1.550989144943729,-4.375362361900517,0.35135283725551975,1.7777294437336022,0.9675263311447613,0.5475006340365655,0.8369173044196415,17.328052273875386,-1.2032105347004012,0.8263900196149397,-0.6427212598988399,0.522804761653068
,0.027821940167821683,-0.5913333131384291,0.19767454808750906,-2.185831792916947,0.4230873996684946,-1.3917300984650796,-0.07238950391186237,0.3920162142500713,1.0494617544796006,-3.3436469722601028,-0.1964427353083246,0.4817118735034444,-0.2271488190678358,0.9105940765074031
,0.8489436071376548,-0.4433238267043502,-0.631645297331296,-2.5894832330925133,0.4465913965016018,-0.38155991535278383,0.1395704911993678,0.06235233165728287,1.4683180652124175,20.0335190447304,-0.841137621530652,0.24503643137354655,0.16651213807524903,1.3543031015701488
,0.07662814028093833,-0.07399806162167988,-0.7874454440379864,2.5934549688772797,-0.5642188146888187,0.03319500424549605,-0.14715478178074776,-0.3046903488841626,1.2810404822258505,23.31413631930848,0.18442276881853653,0.7007363559879511,0.18185910190055102,-0.39550144019006955
,-0.1364497166251559,-0.17990055517368655,-0.698344937077808,0.6868987786593379,-1.4594424893366391,-2.513116413072214,-0.9195552878238464,-0.9162533107808243,0.13348998907287848,16.46454781124215,-0.5179908433830233,0.09945248724918732,0.05702013010337761,-0.5505921405952205
,0.34679309808532227,-0.17088032296519107,0.12490784804343637,-1.277895289321187,-0.8134625812163431,-1.0883267431226078,-0.34826032561726095,-0.520271007779296,-0.10882487944906998,10.11846186907727,-0.43664143870734073,0.003022452645046788,0.21689701975700573,-0.27286594016141497
,0.3804168678672893,0.06426883648008133,0.451698005937045,0.4976836805439783,0.8063872932572258,2.240395643283457,0.8392807700916914,-0.16883040757134396,-0.48621988433041086,0.4015894064454296,0.6222918368415508,0.21180780847028663,0.3430367160526112,-0.08067664685060773
,0.0727779066249399,-0.0513852707352966,0.5147824234686985,-0.29704109978333876,1.0369120887750933,1.4973020034307378,1.3474078370995022,-0.41320985024908,-0.22531689314282263,-18.426152033482055,0.17495322022314275,0.6261878872802312,0.43331128945572706,0.02744322722458502
,-0.13284612332364196,-0.06524971141506708,0.33098722199795827,-4.282247162857588,0.2744708519840603,-0.23430024845026995,0.008042188835088216,0.025819482332088518,-0.4339271752748102,-12.542848516151187,0.3541719987995817,1.0465865272511907,0.2536799025069786,-0.1573357087382939
,-0.5803620183177571,-0.3021323813192285,0.4363566832101474,-4.0693144316691185,-0.02002575065610394,0.6355641322206169,0.11853399458869819,0.1478916893039903,-0.7961300914098952,-10.252495255731437,-1.2886280112148605,0.6932857537420803,-0.1721138185742351,0.3065099462968782
,0.11187771091329103,-0.07244954195092916,0.13556602439583382,-3.896413588668304,-0.7760642919544462,-0.7482536323712474,0.2934126239421718,0.16011558508104837,-0.8453713898953675,10.788217098505502,-0.9799478140943934,-0.21224997979461688,-0.17053672964648456,-0.09980194802656239
,0.4500023172181055,-0.2960878126315708,-0.015295613127107007,-4.331557251803279,-1.010793493203726,-2.388551736121864,-0.3976719332839168,0.6247248406622783,-0.6358850268853242,-3.3841986235573858,-0.7043653504441878,-0.2952303884380083,0.05975820359499471,-0.2753496625019248
,-0.02120646388753075,0.03089460035663126,-0.47253778389925505,-1.2762641175986429,-0.11992083935328364,-1.1154995780019366,-0.6351994131545908,1.0077304182215652,-0.4031919061143564,-17.437353141095322,-0.8407804731893095,-0.23070927597161248,0.4209628371302482,0.1839899662071042
,-0.17673866677996625,0.26998169699641833,-0.9210159373660746,0.06573589515857584,0.07892294120453368,-1.7800175141071104,-1.3005981231927364,0.7673500336051672,-0.2652142991011285,-7.695498343656264,-0.41280895531908773,-0.7762963404967137,0.4469200689998411,-0.013971898510916136
,-0.8624801201357704,0.34427418023403134,-1.129122738362933,0.09770749545902684,-0.07119348676994963,-1.0261451011299756,-0.8614097873791751,0.0713401008661273,-0.5122491362223157,-5.794466679746591,0.19312366052381955,-0.48419206681189797,0.1667174913287364,-0.8558596881988443
,-0.8978823824791576,0.28489580189528924,-0.6594299389031979,-0.6060310097587159,-1.27659667031145,-2.7923956229735256,-0.8172906905960129,-0.24467309079152097,-0.5966805421323772,-15.225452725837812,-0.3328699196090712,0.2750383588655727,-0.15391994577165005,-0.4796502746015216
,-0.3128406070782692,-0.0026388452561611386,0.5353469014957151,2.9167851169361634,-0.7674579581355393,-1.7839994480003396,-0.8867634132183698,0.3636584533501456,-0.6350180861192275,-15.675066139380942,0.7934320856990292,-0.024608755692958097,0.12474192370670056,-0.045368792816924665
,0.542820487128101,0.2724256661517548,0.31461822231569786,3.137685538516085,-1.1989884894303606,-0.724246499764279,-0.651956537131,-0.27783666789315625,-0.7967275785341816,-40.712218968551795,2.1324101111491305,-0.45843125103416005,0.3912141150263074,0.391907743758033
,0.4617478713649468,-0.005216761615016203,0.13632715459119002,-3.2831757391964116,-0.21244835561010203,0.7236421853518028,0.07657746894277749,0.037208562227071224,0.2792997437146779,-11.240127691669496,1.0832424476048919,-0.7580790629929752,0.1797950636258874,0.4829798268505555
,-0.26879510687396385,-0.5886712994085006,0.5561009629358902,-3.5043143857800363,0.10658864780361332,1.6602730388064428,0.33689340306422555,0.45581199996526367,0.7191929324648425,40.13254090132387,0.2735473505170033,0.011094619912657703,0.35984861540458085,0.039488843152099926
,0.33273494732616,-0.37330541250053295,0.7413490332429967,0.10981983492778456,-0.7775237753623873,3.5002273368252506,0.9078765823538425,0.1389459942308446,1.0946192617709756,43.21622682483993,0.7746064551029714,-0.41129084507276625,0.6089004452390699,-0.5246221004031402
,0.21248540149559217,-0.7275731038617917,1.3234518224972531,-5.575739789027966,-0.4060440225354263,2.914882302036206,0.8357521545352782,0.7685449205402103,1.2339314054372532,44.85503886362885,0.11487254377224337,-0.4788141565648253,0.4829185181367795,-0.31248935128123373
,0.022588275548017928,-0.6089306987590812,0.48805264904124296,-8.290069144883708,-0.48535923989764335,1.8293146010389003,0.6367003767597615,0.4714442902179419,-0.2645664556039368,25.056837263407186,-0.2910949654212468,0.4672338342195899,0.1534193718567284,0.2283252223240289
,0.356294321663833,-0.700565413988266,0.3988036717368979,0.07564505399535257,-0.061867770252704915,0.06337426152207666,-0.047533838205803064,0.5898694683747753,-0.23050535528688948,42.861971669850114,-0.31600335515397726,0.9230759438413544,0.17698524441642394,0.2576629426584282
,0.38781635414136656,-0.4620121854611248,0.8242089401121965,1.8704231584476954,-0.2830731939250238,1.2765355953621482,0.6710381585094999,-0.10658502864406245,-0.06761121572879208,60.939353706659794,0.47133930596930396,0.9971686472728324,0.3194600357064411,-0.3391731402612796
,-0.4557066145712411,-0.497953252004943,0.3366357225834991,-4.079708518254447,0.561489392156997,0.3473716692719804,0.5426113533598137,-0.27385045815917186,-0.20003992532365247,62.263885107623125,1.0085674279776153,0.6513903616427865,0.37603652090085815,-0.09600206425901149
,-0.8843457671360272,-0.8021896988910533,0.5899611074815164,-3.8280653311294164,-0.05727375656273659,2.4704650185540826,1.1394822756490026,-0.07089387623558564,-0.11511309525376864,37.85434047648204,0.7790855075586476,0.7700960701294284,0.33558442781547165,0.5138570342400922
,-0.5658844234941564,-0.48173500434585115,0.5399050178987723,-2.6195111485313927,-0.5416115222006207,1.4177620608630275,-0.07370926126821797,0.496189298040851,0.4196597839762694,8.315084131005456,-0.264164714851583,0.6030027130166918,0.1010205678540361,0.10756759731660576
,0.515662698812768,-0.40217316225109184,0.7401947211506676,-1.3924221648602961,0.5755085724634301,1.1366986024061307,-0.583087654643276,0.11675893599637216,0.47614577610512654,47.30592502954863,-0.7521624196379454,0.3642829528817993,0.24992226413148214,0.2804416683495212
,1.2401937135267715,-0.849119430702701,1.174721445984304,-5.926553520504994,0.7631277053741207,5.005044321307404,1.2439692179165092,-0.524320728554672,-0.15749817858021034,13.168204003898072,-0.14851406330255726,0.5748754135283308,0.059253042711037214,0.6102815928624705
,0.7956895029820302,-0.7256844234788556,0.7976907719036921,-9.311712847149186,0.4933188547705612,3.2588859668183536,0.9338124518859847,-0.09114487527736526,-0.037811055385204566,-16.81800986177159,0.7273085509069915,0.7317344923780444,0.2217517305247133,0.7575431157487843
,0.4163305397061891,-0.6447785944968571,0.6847794516413054,0.11009086181687532,-0.12142709456025448,1.6091242153077248,0.1706996460153396,0.2767041270962586,0.084651630028275,-2.1007753057291887,0.8521877268846018,0.757299928373003,0.08095962935869017,0.9964399289017584
,0.6773757339483891,-0.2001505466655874,0.5911423981422588,-0.32995382144328933,1.1702655466538874,0.5223850714002124,0.3512300959895759,-0.0533025143880804,0.061314337054641156,11.711112081501511,-0.07662489194055908,0.15770204336308197,0.04908817589674114,0.3829569994119952
,0.38714711691945974,-0.2706757687083606,0.38282161264131614,-3.126783031266878,0.5671942309363424,-1.1533555063384282,-0.29940294561374775,0.5909775880009813,0.4195161504482253,14.909755698916213,0.07300210810080573,0.7124778154707223,0.028222330020837173,0.48954962345159786
,1.0174148709841437,-0.4306781642148107,0.35360683720149916,-8.402522799551104,-0.39283986136944726,0.1172465832477536,0.28383080539575567,1.066911239002686,0.4605494636970315,62.949704790957746,0.14395242157682783,0.7543995006161901,0.06454732695109781,0.5060901251825506
,0.1616510177345197,-0.358885039288729,0.5048343848901379,-8.118035312237367,0.1341665709041547,0.065861340524182,0.4578018591108328,0.2728201843158567,-0.1540972923253309,30.436358906578047,0.39010924946741177,0.7528857766465755,0.13587312211707508,0.643967388085462
,-0.02150918569630178,-0.07280975753213627,0.8687686923599737,-6.876718768319452,0.669725447451436,-0.4092229799050179,-0.11708052790959228,0.18861703426053378,0.0062874632259275675,-8.597056268860577,0.13400608802450492,1.016506851914025,0.09487584131977098,0.7729172383915306
,0.8989649819673127,-0.339031587290379,0.987014819102045,-2.359386697911807,1.4142393255919845,-1.0911854690594245,-0.43364093476296983,1.2585213986364987,0.5212332526769456,4.813294001297207,-0.42878864496090585,1.2074330802599633,-0.06168371263003104,0.6330159473257295
,0.12183623262905825,-1.3174097779770104,1.2331937432103623,-1.991076753350734,2.622142933855904,-1.119787969751283,-0.26270974884228115,0.8160805968184579,0.1142271357274861,3.7527197428534116,0.15633327314370607,1.0393939989047807,0.06790029134093693,-0.030771396583802405
,0.0312455354255441,-0.6407059880546659,0.4327302076979212,-3.684334347479096,2.020091759709307,1.4150596761018366,0.30762579353622627,0.727961228636202,-0.09396595359401304,33.09519595478271,-0.3636102421673495,1.2201388030056595,-0.2933398972057917,-0.19196445405927484
,0.3045712159986864,-0.39078778337209474,0.6539734876968476,-1.6285798740178328,0.7814501057206911,0.3152216228742773,-0.13737676192362733,0.6788673549204802,0.0156434173652402,42.531274500735485,-0.69539589351213,0.4692220737635058,-0.6607835263943367,0.1778449223008823
,0.1628761480562541,-0.015254375310044853,-0.3985163933736216,0.5083753646707316,0.7481169414064995,-1.4482862119777768,-0.3726469939055241,0.06690612876412455,0.14739742291397545,75.79197146660339,0.15496401482617922,-0.4839532215532001,-0.0978888131858533,-0.10508286644440501
,-0.7590938459559907,0.4597155138582516,-0.9478763083704237,6.128928933659852,-0.6640210517875526,-3.5353576708738146,-1.1222224270041563,0.2223052519602818,-0.32376129636064793,6.345417004364404,0.678209433389123,-1.013108110114147,0.22933324132597022,-0.5857032328792837
,-0.15727600941006153,0.28280937044386095,-0.03169251358135043,8.172840398174687,-0.9817304294926139,-2.135851609540086,-0.71618145003052,0.09777714573730693,0.30746445427748403,-33.115972068942135,0.9265073691069275,-0.7060275056782015,0.2678507052174946,-0.66734087050782
,0.6776630666139242,-0.08007699977010173,-0.08916316093839788,10.149576928968935,-0.20159117631891998,-0.4381321507189663,-0.12259520057162604,0.03715658220937748,0.407836729323671,6.703459180218194,0.3913419826569855,-0.4634359031521155,0.2216239871229381,-0.42306626694031896
,-0.15416118608702542,-0.4536284845877361,-0.07266675515481277,7.481309705017867,0.5576784509285257,1.7953906853365333,0.8824533770928193,0.7079737416635326,0.12405065076180508,64.03963970316073,0.012074004206917732,0.0013128620961455689,-0.09666742465208215,-0.13599692345592845
,-0.9526373652916973,-0.5258944653198464,0.07401115220135798,-3.112313729387959,0.12179317749229017,1.0289638831808439,0.6336596980733489,0.5304786856965024,-0.5902658009756966,37.82488812500107,0.1473198844323519,-0.04994178061762837,0.2746842610227813,-0.12339532247740845
,-0.8819923362348543,0.005459104650171842,-0.4886904518118795,0.03422520478551499,0.7024609476395072,-0.2521518438148803,0.29421481948333467,0.8200498698471818,-0.605741164736283,28.488958586011908,1.4243232880125603,-0.03777804661005815,0.13068922091920945,-0.16449861098926138
,-0.45300770914508465,0.09978141019790991,-0.09243113839179332,1.1875198515334664,1.4717631763245664,2.0222548854312143,0.9022521901415579,0.8706686674197034,0.8824339748925979,29.201095616685144,1.268051935525525,0.4291427636802777,0.22557308109467736,-1.4252364944839067
,-0.015050389535481308,-0.4932323063896681,1.0045104369586804,-4.9202490577775215,0.25740835830191616,-0.8898117712990118,-0.07101545989414423,0.38128475855642,0.4082247003331068,39.22141645824149,-0.9601476909952233,1.0081642125206414,0.0386416871449462,-1.67753265192988
,-0.2725854356730421,-0.5675913831053899,0.9946330099561957,-3.8455770462692187,-0.2239168155401516,-0.8087268023456257,-0.3508091077194352,-0.1775996236866467,-0.5121633262671601,-2.6263379028454263,-0.860986203525949,1.0388883707279621,0.06892005103610285,-0.7445691092220669
,-0.01824771817269284,-0.5440361758389886,0.7974856760906305,-2.2536039044258636,0.5475155925830817,0.8493595270703245,0.23498192155053843,-0.253018528402652,-0.5941178307073036,5.637764670143765,0.3717965540462531,0.22657005795612378,-0.002986930730160482,-0.7309699450070766
,0.739161163038399,-0.09238620768392662,0.7699354231450491,-1.6850513182907125,1.4217831089926207,0.6593310683876499,-0.0974080286373202,-0.07620589819298144,-0.533534569930285,12.697502272314136,0.2729658801474235,-0.04496923476620612,0.01181184060261522,-0.07475144316835257
,1.4972312912891503,-0.14996176634227468,0.16378472270847086,-6.2649307443306474,1.083991149390454,-0.6634150640493565,-0.10582561655442935,0.16528524410901016,-0.20942619294887543,24.887749858724217,-0.470228670561624,0.16490898788294567,-0.33904641532948326,-0.4134263878875927
,-0.05075776483702035,-0.8222017342816121,-0.4406612339369936,-7.619921528491428,0.8614806021826484,-0.08267420182223442,0.2640426312326591,0.9074170608239898,0.583240128634749,34.586212563784294,-0.0074786201687830935,-0.13876693485045533,-0.3368457890184746,-0.3943347297742879
,-0.03403500731443028,-0.5216279043947422,-0.6884308519310562,-9.303777801324557,0.012290300663832233,0.7285964941733678,-0.2741480994996235,0.7519484485733471,0.015602751168460636,38.206749441401584,0.7089909635592069,-0.013294535992928028,0.19515039305657683,-0.1337305145566707
,0.5791821666670843,-0.8960275766765631,-0.019860226798420557,-7.778266405635209,0.0695599623664425,2.214110033648908,-0.05974950394204116,0.534680652869886,-0.26858580870584164,44.03815032654034,0.016137427351341885,0.45047386573873904,0.19605466497383248,0.5570428462324388
,0.46326069558301763,-0.9826729185207134,0.7926834493066741,-5.197477615988913,0.8422570656560824,3.392830276254115,0.8580212628740647,0.8772032133740743,-0.047812106879686046,21.051789511127406,0.06923263725371624,0.8012556514396094,0.2925343350274482,0.6370660817422948
,0.8411634476972703,-0.5469385957002931,0.11768951223925604,1.1900819193891883,1.4030072751668061,3.4132324931803737,0.7503073407557764,0.48362202324850645,0.19063362150989988,47.85351607722421,-0.7232411727205434,0.42965681463236904,0.029996451144392262,0.11764618356420051
,0.8394073527681363,-0.5493480702968642,0.07052284045721748,-2.2421361849620456,1.3588043243036074,3.586506333048499,0.9153437248221545,0.10782957520691289,0.5464998732600886,28.9762633026563,-0.22774795013253518,-0.32429699706211745,0.16191289769776795,-0.2215885597334332
,0.6655709423440686,-0.49549673007811423,0.8928580053331425,-8.935324859582188,0.2075642920114111,3.607805651720565,1.7983118232986717,0.08798018193841296,0.2945602974666144,36.00373295379238,-0.13052576892028628,0.555927379737831,-0.04916857421818745,-0.28102905880947143
,0.7976696496063006,-0.43195152312563073,0.13145701322884842,-7.8673159128279435,0.0021112866844550764,1.7916132281901953,0.3895092737432646,0.15661336613664384,-0.16673072530608632,58.9083077905247,-0.24003385176956057,0.3846311874722983,0.022750033901810025,-0.330172101746056
,0.16488336032714146,0.07731398976134983,0.3551545794658785,-1.7104156339931416,-0.4233096152889041,-0.8942028340307469,-0.7067275565857253,-0.14137765543759667,-0.11288297219226993,66.48018196689749,-0.213450272310304,0.5758709300236626,0.024897829368516422,-0.14368046723851394
,-0.514983115430159,0.016447960889400735,0.2693696198778444,0.9171853712867368,-0.8140422218662969,-1.2609602897344494,-0.6901737813140848,0.07513704011496718,-0.20946686086200755,13.694471136347929,-0.9419886271819801,0.05033772171939202,0.06149128888983174,0.26672178774094135
,-0.3949364665248136,0.2828933690882696,-0.21258070059474574,-2.1494500761048627,-0.7606344194528042,-0.1318323865954919,-0.46716024015032886,0.5486389060271685,0.2995794140425211,34.04819341194354,-1.401447884877181,-0.6557058191453669,-0.10869236341661441,0.11934013942279478
,-0.099697647678636,0.14999542396680016,0.12154773984149032,-1.9552917464547834,-0.9943125914437735,0.3558325702187712,0.0676128904364351,0.3220409668042224,-0.13598710198857986,5.1033857281258825,-0.8609908944018685,-0.18298157036989046,-0.24485981852238678,0.13021826776078596
,0.12915279188960888,-0.0004317217178341413,-0.3024344608592698,-2.475757428126825,-1.3106740835326154,1.2240997574293473,0.8078253420572747,-0.3372393622541013,-1.3811570399290654,-32.573836707139705,-0.6778866573714836,0.38249385525985957,-0.42770379277517634,0.016869017768899958
,-0.8492489099970014,0.02728402660934593,-0.10621838946426845,-7.570875641453691,-1.5966046155304565,-0.9348888634071456,0.30593823025956235,-1.5845895837628416,-1.5054163927589714,-73.77561084876267,-0.571343632833069,0.401216968512318,-0.29788287584784245,0.10338439877764251
,-0.2980834272002129,-0.19629492496512968,1.2285260596060898,-1.8553892898935227,-1.5311625662445787,0.1508842612901238,0.14046451325718645,-2.045459735711271,-1.5877396096959002,-92.61309587223434,-0.5494958403044424,-0.11409271766890475,-0.25385855766837184,-0.021073712901182737
,-0.13018925651779542,-0.6002865292504919,0.7709393725800412,1.7600311139320426,-0.8337821464760445,1.542008886094742,0.4618974127270363,-1.6872031013184117,-2.3564713747937853,-121.53240216403195,-0.09370496071854278,-0.2059213935472964,-0.2290895288926887,0.11264293540265831
,0.1795642618706244,-0.5031755673303583,-0.005972837796567592,-1.5659443423474733,-1.2065079733446347,0.3679504795687203,1.0492618083458325,-1.8913724537674492,-2.635344984931619,-146.61491894774747,0.29086967162149474,-0.8787671195774964,0.006456850492948715,0.1242883836586246
,-0.0253191950497487,-0.2914037831088375,-0.25399206051071194,-3.575812379297363,-0.097969022074346,0.41023764580696215,0.756261395888148,-1.0849243909825386,-2.24074404435748,-102.29427113656615,-0.5605758621000757,-0.3462065319813563,-0.015932449731138693,-0.12068363481986444
,-0.1913737368417432,-0.17163420840143934,-0.07714100891198755,-2.0460848011181025,-0.42064654671578144,0.2759297335731073,0.31250234351342143,-0.8769517195825564,-1.9788087933403702,-65.7502097628886,-0.2704025184551924,0.4869763213943648,-0.3103509571515081,-0.16532822520164892
,-0.2985086588152305,-0.0851308611252587,-0.2754062082911964,-0.8640714204693409,0.1099449045230737,-0.9602122641295456,-0.02217448489087928,-0.8160147631636271,-1.3206743521624056,-12.775918982917341,-1.2751975934639614,0.21943771814855417,-0.8544114940432012,-0.3139898879460985
,0.2825896155072475,-0.4461058068444013,0.5864415423546638,-2.1710092111919725,0.5308697104733835,0.212475351431943,0.5435283387377089,-1.5661722792978359,-1.4142394485458516,-20.384414367617737,-2.5212195050015653,-0.12511454242372733,-0.4944935283772882,-0.26271643519646026
,0.2049586466757539,-0.2562770970725585,0.8645882613010707,-0.6697298452161883,-0.9797434621695976,-1.570385959217702,-0.42209924125109793,-1.5168259917762044,-1.4054382910614611,1.5778885729317063,-1.739428878318956,0.2791801147659816,-0.6993960273277459,0.0018804599542260937
,0.19515734730970624,-0.1356853690264873,0.6051849484694226,-0.4622255574002933,-0.4928005835245513,-3.393476518620654,-1.085217308256218,-0.8207955138432241,-0.6991159079062679,12.178401429789789,-0.18686078987001997,1.0468010054306305,-0.25887888248691504,0.4527274752832989
,-0.23847343015450526,0.13855823734130573,0.5978354544567088,-2.934705404326727,-1.421379523728088,-0.5143945601903075,-0.003453628625566446,-1.100690365446384,-0.7505472165178939,11.385667525306568,1.0864438046551619,0.7845224688253507,0.16715124722940905,-0.13073883672198824
,0.16686801598520562,0.20214103323571914,0.8701701452286587,0.40811601302701866,-1.1593084350399065,0.09969423096665819,0.4106048478992062,-0.989946205363437,-1.2125533710859842,11.134578670308926,0.7642974601769451,0.13556158310976524,0.21462633104717532,-0.30101070996587986
,-0.15919168192639346,0.15661650359772278,0.36183575243120686,0.8767805861066987,0.14605955212841057,2.2470228891603456,0.5946526044545217,-0.32826587828307774,-1.3879755285746616,-41.73956427291581,1.0065222381384726,0.29040475583003234,0.48769708480168145,-0.02341014222730357
,-0.025835198130734687,-0.506972258510028,0.008438784358882937,-3.154586514838158,-0.014435245178487452,2.129560246885124,0.7094086590391977,-0.656300293249983,-1.3535141301767877,-66.0971434129613,1.3589302236906904,0.3193710723384457,0.48871922748198415,0.10052244350748682
,0.8588653941369327,-0.40353008051701744,0.40234157040839597,-2.0875355117290177,-0.004528066415433553,0.7149764770428932,0.3794696373069824,-1.157713644965143,-1.2649679657743562,-44.40977858092707,0.6166355203767011,0.8107274917336416,0.034706771120265795,0.17283397509323042
,0.9453462772001922,-0.09908993750946637,0.513611549321497,-2.2667892769215143,0.3822359577422891,2.313537243756148,0.8363320682773339,-0.6864355857707253,-0.8326256793376373,-5.5389113414952575,0.14179690085657054,0.35299563340875745,-0.08593797204298824,0.2052992466189884
,0.0986506930718887,-0.046775449895112974,0.1013099167398053,-3.4162549814353724,0.5172603613338148,4.3758028066392765,1.2997038972873658,-0.888032778825068,-1.4719122681709313,11.4452647344696,-0.1544549469684841,-0.20372418988325042,-0.12843160160429337,0.3830742895016175
,-0.3364422716928107,-0.2946192683211539,0.29103318013220664,-6.444787165707267,0.9336479014607931,4.915398575853785,1.6104656049599089,-0.9442470790994736,-1.5213724241303737,9.817464754832562,0.035671019850644796,-0.0318984119306375,0.06844076287062062,0.6734707043237435
,-0.6481704210850595,-0.38083883308938116,0.217139933259025,-3.0971218343521074,-0.5848938818773841,2.1298428013218778,0.4263174813823422,-1.328428608860652,-1.309244387571004,-6.090404251471154,0.4492993008017636,-0.12375907068127383,0.12813810366797182,0.4096515877862954
,-0.2940427554641794,-0.13942133353505967,0.025849913156949563,0.3149133023571398,-0.994767579403008,-0.7100324927289346,-0.5577288698127559,-1.4435914429179983,-1.4113743390876854,9.346261097138518,0.16345022247354257,-0.446440804002929,0.04326778242979537,-0.09451255508999999
,0.3883302325577085,-0.2207417301174134,0.2701128197131986,-4.955441651708821,-0.7090173876905743,-0.06466463272038013,-0.313871757134211,-0.7352297146070803,-1.6836415190069691,40.715914737747006,0.39881662510697086,0.03487940974930846,0.2074650963134236,0.11249250788433178
,-0.537245475340523,-0.463586645236697,0.4889508723649895,-2.918302939098964,-0.08329955636859288,1.1102817219461663,0.20353414725409597,-0.4923287994787095,-1.6157614673547054,-38.30645376039519,0.5640704360368752,-0.09934860861557869,0.17906658787398272,-0.13434881282963246
,-0.47819113591155593,-0.3375757982133244,1.0520262200864554,0.2259913986200385,0.32319124264135535,2.0089863612734784,1.2095046696352758,-0.7883098025383398,-1.612416816978473,-48.644166725895765,0.14722342838892555,1.0653550117446298,0.26084247232908353,-0.24339743212902834
,0.1539469743747855,-0.2962689917034628,1.0841187884841081,-1.6400088667399155,-0.4934019186759755,3.6528467094521404,1.1002159922614267,-1.622585253411616,-1.412071082104385,-59.27057132864254,0.27076032249471976,-0.07713129047211956,0.06267348591749648,0.22111161918380778
,-0.35860586593312477,-0.08466618062619219,0.35808882285009674,-2.9251783026568385,-0.3408870357743613,0.06050997592880466,0.09143729477798199,-1.8461125707826755,-1.4929214354287814,-69.62556217758271,-1.4415230485313348,-0.713107492736426,0.003219452575227213,0.4529933087329949
,0.0021374421173460663,-0.2321442704090209,0.23844393733593985,-3.1254442714576616,-0.9093325630564835,-1.0042650553659385,-0.30910899418437143,-1.3302370213266905,-1.3497169433530163,-61.01428315644924,-0.3710500883234274,0.5509341400440414,-0.31014497094866184,-0.05075254705262426
,0.728454718892967,-0.3557111399102248,-0.029784266911365792,-3.685191008712948,-1.3211982930731425,0.8229710238929223,0.18111623081712722,-1.3869818331607804,-2.0070761571271065,-51.216702113817455,0.01604297592611686,0.39734315147844673,-0.2755659383547282,-0.21482813839763987
,0.6250556212379936,-0.31854356872523565,0.05633657285217664,-4.472017757564885,-0.6560273185026475,4.20993064004528,1.0851816407150146,-1.5983494116071253,-3.0021961867568336,-31.71878808317812,-1.1504902701292796,-0.11794274940700221,-0.28704815031220055,-0.21691123623504618
,-0.15155049328610692,-0.5673962333356296,0.4093537957200359,-3.784722873087362,0.5228664482170072,0.9528533287296485,-0.04741641342772053,-1.611564653762612,-2.717746362871717,-32.54221616762759,-0.3534237250947893,-0.6306997995900426,0.1902647819986243,0.1324665685129659
,0.24930657797392666,0.24714301070817662,-0.4943484866401917,-3.550599857398535,-0.0366704765283128,-0.6132694134070492,-0.6647433139928635,-1.2248939672898005,-0.9735919748423157,24.07031138501,1.137563125328167,-1.1545237393467975,0.2841653434924472,-0.6002522549996111
,0.7007025581941955,0.22418594735690173,-0.5595103973361188,-4.275846494466111,-0.8199702669477196,0.3722782223702698,0.3635633233954533,-1.2351000390918692,0.963509809981814,27.37754934302572,1.2252408122269047,-1.0785090942284814,0.19912492281400193,-0.3168114577283958
,1.4589413187856548,0.1207735558376928,-0.17243707445403803,-1.2673529940364234,-0.49346988544824877,3.116275390027989,0.9951837848693486,-0.9714620061399041,-0.9173542464081641,-9.614406796530545,0.1138161070087999,-0.21604895756601827,-0.16662005029588364,0.011189511166764903
,0.7077091615363226,0.2602202247928158,0.1787597061241576,4.271581659430592,-1.0108991004398384,2.470642416442043,0.1507204195611927,-1.5649420704376498,-1.512409570989124,-38.65530480602859,-0.7307892035294132,-0.05874076619178841,-0.289393927686399,-0.974346014424894
,0.1327518069451714,0.26052694320799835,-0.3486573305543161,6.425994705297862,-1.969326208514478,0.944644682410579,-0.4893365615654429,-1.4588770591630218,-1.0777998843029652,-24.95921677716535,0.1591741373700098,-0.4976226599667247,-0.19980198948002853,-1.2127329496640735
,-0.4327750197713486,-0.05554040297875746,-0.44433338156131064,0.07992278355704428,-1.8904189314587847,-2.184108757151675,-0.6132452721353594,-1.3226748433276678,-0.5245699737157499,-18.25854722239973,0.19803288398426214,-0.32245267055906635,-0.01641290530405364,-0.45000756005779485
,-0.45624057815987085,-0.5426691045807767,0.38490326695971316,-8.101803641444574,-0.935128743592243,-3.2594447933222783,-0.4670491644098506,-0.9704362195655675,-0.7452808624441267,-4.221826257623917,-0.19724833963800767,-0.29404697414211306,0.17835900144209427,0.18927119747772048
,-0.07841378975209681,-0.5892881119655105,0.3049369824832575,-2.251518052471145,-1.4628822570945597,0.007988148705168263,0.26750411437178045,-0.6618087609696212,-0.38086920498540694,-31.940932681819096,0.040855286698048596,0.3830805070649766,0.22023075082278565,0.13060658199060965
,0.3230450194512716,-0.6516848927080913,0.521064877320218,-5.747021579811125,-0.27173125344801635,-0.5062779927461453,0.4728766043092557,-0.0769796612594508,-0.29142183816651135,-43.90236404253341,-0.6984206409971758,0.929557094556723,-0.20569979385627418,0.34039137371281364
D,0.29000785537069235,-0.33102331962706144,0.4619151635401237,-6.28371451465653,0.12523795706358135,1.669127381104435,1.491426439746351,-0.44229181836919673,0.02888463037702763,-25.63860603659411,0.03287182641840525,0.5768009844627314,-0.18781841134915528,0.4694671808227703
,0.14749038433021197,-0.3592622158324704,0.5660863707527597,-0.3440607899541595,-0.9680175028758157,-0.12964159706743483,-0.003743668472782858,-0.49399730421771026,-0.38935580934554576,23.13709635206194,0.8898543706961927,0.5609387230450463,-0.2026833992403232,0.170584245920525
,-0.3803455881594835,-0.31713935496923307,0.28727269885698137,4.6203173289396195,-1.26304019742675,-1.5570598933068094,-0.22719866858636611,-0.8051113315982413,-1.0271562948347537,5.555272593542864,1.531118583017606,-0.005974162889718078,-0.05574072246057915,0.19054649844853466
,-0.20233966328869002,-0.1968999254812494,-0.06144076477445882,2.95287797007228,-0.4410729613863709,0.2991560086759953,0.5079508442506757,-0.2285258610865607,-0.4882753742029161,-12.995285731541548,1.2443453714498731,-0.01634383406558464,0.06347835663435195,-0.23462811218928953
,0.3387101898157213,-0.2136080651368335,-0.051436426772259826,-4.204486227625011,0.5161987962058345,0.9122154202618303,0.5119699751690463,-0.25911839500018824,0.1489746977622602,-24.401642513151877,0.8145058855559599,0.5022065392960476,-0.1597361584757487,0.35790540848755686
,0.05316591698404772,-0.6963322707275479,0.4601836409869812,-5.324924866576954,0.9834654854597462,3.3177454636793207,0.47676231870425717,-0.20504578656397665,-0.5864769410140311,-18.057880170462813,-0.6443839095686494,0.9601182927933,-0.8810763803382942,0.3447210885733288
,-0.26249869655636376,-0.42342412547768926,0.8874208635527238,-5.826272954933639,1.4149874756945233,2.2361145633383055,0.9639500205503896,-0.13652806630831565,0.0036984920016643018,-17.463354413280875,-1.0814615658643703,0.2977988691423054,-0.6909443553600885,-0.25135048080223094
,0.22658772162251342,-0.5466782368531424,0.7568575015348645,-3.8894984195087723,2.3488685934269644,4.623344045305364,2.3750798710665593,-0.13915198825470107,-0.5549226031959704,6.050884441065301,-1.955269741070371,1.1203767370176159,-0.3161392543841879,-0.3653550663113977
,0.6831293846854694,-1.1762417772857758,1.3697961618455938,-7.136638672062968,1.744032699177602,3.004557634123199,0.936867944336068,-0.29396589827461367,-0.6975555558597699,2.118363881969612,-2.8221228664568287,1.679829213440591,-0.390831293249415,0.616387285367316
,0.7909975539170163,-0.9164721920921634,1.2204695516606878,-7.181426124346782,1.0790539369484056,0.6285078452544404,-0.15791042687823206,-0.06808188307643186,-0.5439304606144519,35.66456824041221,-2.2036544776698554,0.8752294974122535,-0.23583131788084863,0.3824506266587638
,-0.7078045076922159,-0.42874974719900527,0.3172619363381221,-5.140778332575732,0.22971826668846243,1.016814054622975,-0.15086634968207266,0.33224068621715325,-0.9361954292965324,46.60722627297035,-1.1935690297534982,0.25901237830288354,0.09661804351926327,0.45330737628363205
,-1.3583965800174564,-0.09992359661187951,0.1571690061672679,1.493662688773903,0.051301551482962206,-0.6470603053239613,0.2588745918945751,0.03772337369284015,-0.904252417879247,34.426730833922186,0.10169604889207468,0.3030225510078022,0.21754961322777097,0.17242650948138996
,-1.3291090117475517,0.013568677699261409,0.09158620108144795,1.0596480666189976,-0.04097053787093622,1.3791001686298936,0.05212386315263206,-0.5480698575101153,-0.7115918827247628,44.825756721278374,1.3701418280628548,-0.18860510512614984,0.5287779524553378,0.279817486108065
,-0.13405483405415175,-0.37581024269450203,-0.07460215979010196,-7.480044464694998,-0.48719307400588974,4.186104502616125,0.9354100927486773,-0.4196937507594872,-0.1599543190859476,18.362675879291213,0.35398441862764574,-0.10024209556235612,0.24488409616848372,0.12410533161961416
,0.6774805432557371,-0.13792901294526327,0.19136513001620076,-3.5255257097357964,0.19647788836183483,-0.6606332953028904,-0.40347099538110015,-0.18108035896633548,0.14225133586008765,36.78088177363492,-0.7347469847296627,0.8950300646787144,-0.7743312283556583,-0.2888892764831265
,-0.050629321420521615,-0.2813950982081652,-0.36233794705518263,1.7754002095583834,-0.16295040933039792,-0.33254593357448087,0.0056601768925482665,-0.3494829284084462,-0.5364305841067505,41.54874219887574,-1.2025527021785956,0.5774739889435411,-0.26972839163862694,-0.32259809961921665
,-0.7723067993117476,0.19180920827772555,-0.755618109633831,0.7375796358171993,0.7065969511205552,-0.37199974639823075,-0.0666762857526124,0.07188994392249595,-0.2801438864566374,26.91274176139787,-0.691413417781264,-0.13978682355457794,0.4429174480043464,-0.6669646046208876
,-0.1805592470160669,0.4338841869210776,-0.031391709152801664,-1.2921253362532854,0.32510175268596286,-1.2148377956364236,-0.6397392583452886,0.0388573577388456,0.07609254460657895,30.55458824786867,-0.10206460312041186,0.3454856839794948,0.511974041548951,-0.4017718172433604
,0.37964012456915847,-0.04107830850689473,0.6094415178946638,-4.635843255838034,1.2186440959012215,0.4675626033785558,-0.04455905482551602,0.2072773073790957,0.8099971346718451,4.409892756779806,0.4347428031425766,0.9779349920249558,0.4111015622696367,0.08052833473876701
,-0.10754163931337012,-0.2638037192556526,0.8813861833271666,-7.883214271367812,0.8403769067879974,1.4636645297493363,0.9049785614695196,-0.5405999301797536,1.530826485127831,20.05271800652575,0.7567232506262584,0.8740450002936745,0.29825348997745327,0.5820720097671052
,-0.34458297672317073,-0.4534126179649653,0.34486769728769273,-6.928468708273117,0.5925650906238028,2.905366894945532,1.963288039942211,-0.4662293267119398,1.2204254588917254,16.622321102540845,-0.28473865891463335,0.15319743300926195,0.13946190374585143,0.6752818121744882
,-0.18341732962030388,-0.6598355306165542,0.08065181732481116,-2.535055013637305,0.7541865872789102,4.652138507070094,1.5680609435415611,0.2943214550665146,0.022242358238435234,36.06265587053403,0.07739842416332005,0.08417782316795512,-0.134395026448687,0.1000135303549932
,0.29466835394548113,-0.4945978618065597,0.6684633167579832,-2.190736465820377,0.8160550793860287,4.257643760904983,2.5035606085032125,0.5038146331394111,-0.03943618646313158,-20.175905863050918,0.6282339859590068,0.5006683834208645,0.04355299634060435,0.5147982088739432
,0.09872366578043107,-0.2600021856784571,0.5588824706513003,-9.007963273947597,1.1644903316857806,3.371921735351099,2.1374532813246114,0.06058690212158699,0.41976570205009484,-46.69033517638297,0.9078809414748114,0.7720224695722732,0.1721690731510244,0.3168287363666617
,-0.25078793596229926,-0.3122788657207816,-0.2006092971695101,-0.8301574417418491,1.6234071889159858,0.4133898471697228,0.07311432143005574,-0.11897383060338894,0.46361765682084277,-9.21700168312138,0.950378862254795,0.22426954579383926,0.08850594927357018,-0.4120234308042477
,-0.7954527238446701,-0.6320951510557234,-0.06343314076754693,-1.9321057317413037,1.265929619629802,2.0327641233245517,0.27926574602026377,0.36585316146345814,-0.0360688126036132,15.714816037413334,-0.5629053831017877,-0.32960261117190737,-0.18362845288280502,-0.6693609636501233
,-0.24507135429898597,-0.1769953424986219,0.7867892840841121,-7.016873608170507,1.0568540223528635,4.0320977057340155,0.9747519700863309,1.2119513430528235,-0.06742711984675356,-2.021360621914504,-1.5129850832259821,0.6208885886414762,-0.2960422984395747,-0.3336357758139067
,-0.12156027461017539,-0.12395365676859778,1.0860209901943765,-3.981594533524732,0.08589625758580055,1.5631793899069955,0.023073837643369583,1.7353832076810447,0.21668828240817736,5.60457347344477,-0.05208040844878513,1.299721632431712,-0.3159799698079121,-0.16557452402861425
,0.7407776171882959,-0.37224616704392377,0.6133007842933935,-3.437902486648944,0.44915067081782883,1.6182108636192951,0.5194260832352202,0.09424984892804171,-0.047649808968024544,13.776891548900212,-0.17175768035304953,0.41474570711690706,-0.4614181491017096,0.2235110588683053
,0.5383260733750006,-0.699478614196035,0.23973837555646801,-4.0488386784452235,2.4107032704122364,1.161644902620056,1.0004525368721222,-0.27711350710479155,0.1009085327744357,5.88272044220313,-1.2688098550499356,-0.22585145617030092,-0.2733059650208479,0.7005091997519869
,0.6441768727854497,-0.17951455658959664,0.24531779902890768,-4.350623396784287,-0.7753658293597495,2.76428164152885,1.1724968469328747,-0.041582200136388185,0.38185955435555846,-9.135050120119155,-1.4319429140607005,0.17996532213638267,-0.1305859015612339,0.31328237830988787
,0.03844999433955614,-0.3564738031781827,0.11644917525248535,-1.8520952214174882,-1.5025028894663233,-1.2573610878034795,-0.10393911620336724,-0.45444824151566415,0.16564815596717286,8.877530839213549,-0.07592636065902059,0.12597828849043766,-0.15517310668586562,-0.12284337756199602
,-0.5354860082592714,-0.42212889417036165,0.06987280458380538,-1.5095668963113262,-0.42624861030578653,-2.0950889495472516,-0.5072288945470611,-0.07113448285364929,-0.04805030173410111,-10.666368671311432,0.5876337790546099,-0.11896788382056458,-0.09233957589542903,0.021600239296219483
,0.12356636700140687,-0.16397427544235427,0.63617673118563,-3.88195715171602,-0.6357554143875096,0.15148699976151156,-0.18937411685718034,-0.0443416245489223,0.44587514586442,-32.338873578106046,-0.2265726913756419,-0.03121568963005354,0.07150877663167547,0.3890938878943506
,0.11555073519526357,-0.25030005724995547,0.8371107939992335,-5.432602575428406,-0.3158148135112065,1.5515247118420457,0.16789461351989882,-0.2776130246009221,0.6634004753580572,-8.012095051756798,-0.8570912245350754,0.19344901798125733,0.012100766537627192,1.0571702607960134
,-0.3863268551973979,-0.7631528545076379,0.4967860776016422,-3.7462760352066216,-0.056045362931636644,1.8046830570667969,0.12499996182275724,-0.28341231271038814,-0.1807393445652089,-12.774480368939864,-0.09136903561168355,0.07477906387624167,0.20046420845013682,0.5252832984760404
,-0.2721373769137523,-0.3217833011938879,0.5687274915092166,1.7364874147574667,-0.9083103272505941,-0.025577578739341404,-0.06638973948150594,0.03422253519875229,-0.4091898915599757,-15.249166491918773,-0.20230320629695334,0.9294366082850983,0.11353157089550943,0.3324399034071041
,0.12124407863351716,-0.28372182026945075,0.5602644824113322,1.5260233112418893,-0.9611429158656617,1.560030493676028,0.4001335008051807,0.19643485401112173,-0.2808281861341581,2.898918904553532,-0.1531398835834997,0.28170110985879365,0.02919902770802739,0.21914256839556048
,0.20681092477214366,-0.29567460810757884,-0.07490495052578681,-4.660670241968751,-1.0509063621488977,2.3442525515243866,0.4101263839736238,0.29918074699306946,0.1969295130798167,28.948265184708607,0.32403548837417967,-0.00011634204497846802,0.38845463652134904,-0.3219656701757684
,-0.6457773654520461,-0.5852144144531276,-0.05360052415779704,-5.45983943160169,-0.1951227805682579,6.626300058603648,1.5765977831828102,0.3575521330175482,0.4280993948921099,22.131686021981604,0.301268671638049,0.505982264078531,-0.0017991302649858034,-0.6441743977455465
,-0.37715774637616706,-0.40144137843362815,0.26679525658006964,-6.567151383918236,-0.9590182926718724,3.427266000225201,1.6265728419331469,0.48357890236179096,0.15510120000800265,59.61241632373591,0.09908513632380048,0.6206802640205217,-0.34151486200733494,0.08140537637064103
,1.0049805804540115,-0.28464369522787,0.7878034079106804,-4.652464608883082,-1.0501633623411881,0.6997511760251829,0.7353229275621586,0.2557701489849956,0.3542124442069669,60.96247589423723,-0.6900777303017034,0.41462721376130635,-0.09534907010980334,0.30438159417412747
,0.8868854507820598,-0.41694901245706495,1.029918256369062,-3.607291591189424,0.12356076187686534,-1.197324578880922,-0.03103432486475325,0.4012305692552945,0.10951146835029195,19.33720796103014,-0.6872428945657258,0.3313576265527608,-0.08579225730229141,0.38652518820878323
,-0.1151732858118339,-0.37399759196351,0.3182667726529264,-5.094120431587361,-0.3004585545022061,-2.3194738310200687,-0.5182860489407165,1.1316182963407841,-0.789481841117012,46.4144527005112,-0.53081948875979,0.197104786279357,-0.17636813896621728,0.23935857750347853
,-0.08036847057718015,-0.330364050351336,0.15253091872893773,-5.879476392128249,-1.598343835168071,-1.4254717966396826,-0.24934426408117005,0.9547239242921183,-0.7290694723101895,13.99691455010535,-0.2921687961205499,-0.17354971075292125,-0.28269937272155676,-0.07692959084016208
,0.3160889482120739,-0.8208396887332132,1.0740930736077374,-10.725204323310045,-1.3828468065839306,0.6732352181036361,0.11185086053658151,0.10332908898543969,-0.7404587939906578,36.00512923093329,-0.6224678882289227,0.20322397462880487,-0.40521404741218264,0.08150900377800625
,-0.4347719915714209,-0.9158791800535667,0.0970154502558223,-7.796101847318791,0.1788595642110658,1.1137836102379883,-0.17124790234764667,-0.15922632569289666,-0.8236509546145441,6.085438067920432,0.24574614594560573,1.1554124701178483,-0.01799793236897085,0.7459802704665688
,-0.4146356649193691,-0.7013261560872187,-0.2604716264251883,-9.247769932392021,-0.38416700946394766,2.271619892552526,-0.04894908215141029,-0.7479743460412425,-1.1639434371391242,-34.84124078186091,0.6093628112145839,-0.031357996013810695,0.4742864635283293,0.13491920346878886
,-0.238709287855713,-0.3704830627725067,0.011640706223477173,-9.415342206063059,-1.7780849319045278,2.499706799251983,1.3708751911886818,-2.201161738164142,-2.1887678592028803,-109.55088003729047,1.0789426926931855,-1.2271407790081086,0.24024030782347028,-0.5703012456784211
,-0.1277480112695814,-0.24189078063638825,-0.1423914345696611,-5.466871590992237,-1.7561893009391498,0.5359602254771091,0.6450735444772779,-1.8903370599481295,-2.350193968272293,-85.14250089663994,0.7482366864665265,-1.0279944649293373,0.13680645542629888,-0.3940799032761202
,0.4454532056646685,0.20073404085773802,0.17294243791627903,-1.4637797602856846,-1.3676042779489788,1.2687556400028432,-0.04128718411056495,-0.046141699057063994,-1.40546986937741,-48.0331650991673,0.4660629829937883,-0.28760545999572606,-0.06972338607722914,0.021819685526255867
,0.3751386619675506,-0.12741283286022256,1.1750250909564348,-6.2011918621924895,-0.8515885181019737,0.7018215052150532,-0.28265847342311595,-0.5863285523732777,-1.0350646570539561,-33.6264591925712,-0.35198669757128814,1.098509570418142,-0.24947162391249766,0.3021002474706547
,-0.16556972371821127,-0.5790234497450912,1.1555321397550378,-7.885882457774766,-0.8356628747833215,-1.4698097951296825,-0.5470926472057311,-0.8538709337196642,-1.0811416440608954,16.092053841508967,-0.12962799179837564,0.551617260622031,-0.33031968464682554,-0.1233604308924591
,0.37218114593512835,-0.28795200653862807,0.34840172204475484,-3.4361785632228825,-0.919764833625839,-1.9834222437987439,-0.2373917027650084,-0.602118463502477,-0.9040705691460762,12.166605963058473,-0.6552110921175845,-0.1709730615362944,-0.17908524058965877,0.7165386308623626
,1.1570979679834554,-0.21786903089452048,-0.4395395422534287,1.3751151954273966,-0.9980836900289997,-0.8199632055478699,-0.07924121199959323,-0.22679109119687205,-1.0256430640715806,-7.206753965806553,-0.15574505205586986,-0.13088642569724254,-0.013749818026900914,0.4360305246143962
,1.5869447946050053,-0.38378452263700047,-0.04672440138355725,-1.8252558576743982,-1.2646645630704179,-0.14350297737140771,-0.1095578436326168,-1.1153205749753843,-1.8423731180319396,-20.71255993704425,-0.890754392342267,0.20538592644891046,-0.42481111147379746,0.22616216675417952
,0.3851730437888057,-0.41391865642054343,-0.27531066367945856,-1.9560958580859478,-0.5693942565206115,2.153635660535053,0.8623485484419505,-1.6647585960346363,-2.0168945449223217,-67.30601711440909,-0.32833880156930867,-0.3197750569918309,-0.4860569876354888,-0.2598384289339556
,0.22547002533206967,-0.2993289667575366,-0.04908415169835508,-4.1659106349029384,0.04213334328971381,1.7517378670761465,0.5055905107347204,-1.3006168384366021,-1.8154873242577607,-91.57739252040338,-1.300884640756422,-0.2850644651479542,-0.34419057819248555,-0.41397276900980823
,0.6791559725027152,-0.4534035917050365,0.38577875650870613,-5.114348821568018,0.7635028805122268,-0.05459764266100117,0.13621970881843828,-0.950139379317334,-1.4185747846915335,-61.71129756329603,-1.3222933780723078,0.2286786128633433,-0.07468211454928675,0.5492306684967416
,0.2995915596783336,-0.3697589614520191,0.9313570367792006,-2.7301945023936116,0.32129024881281165,-1.6045937917435966,-0.4006111272274328,0.0634905362577085,0.19475265923686735,-29.632944374285497,-1.216234853905128,0.7459180321442248,-0.362969764237354,0.3950523054031972
,0.773385309648824,-0.35334080569143034,0.9652725544966929,-0.41129979181501225,0.4753619705852636,1.502027388277424,0.1480435232590889,0.6895944044481584,0.3882171145212613,-3.2377698342553107,-1.568640257055948,0.5121893597947567,-0.23232559690079105,0.43198822951934895
,1.5485968507302543,-0.27922011763462234,0.7539286901179003,1.7321650364273573,1.5597042675426904,1.1347284730562215,-1.6448578621113117,0.4195628894010508,0.21296586588689825,-3.093061264992477,-1.639504926975851,-0.07831000491099997,-0.4215998695424036,0.5783604652688197
,0.7885450278987547,-0.24296898415799603,0.8689194256271311,-1.8445297302131078,-0.0714438585901603,2.648313600313069,-2.161781255935769,0.633238221373268,0.644640895349825,28.168471522123024,-1.3199021984641275,0.6478663144505699,-0.5112960432392458,0.270753047206949
,0.24928071991008166,-0.4303441700079237,0.11473756874426207,-2.836896940732722,-0.18756826181372063,0.9948499410827073,-0.5869108055212757,0.12273217382695524,0.34204835624046126,51.6059884728699,-0.49324274658917655,1.2523015753425621,0.1987052454349096,0.41019438351734233
