event,eeg.af3,eeg.f7,eeg.f3,eeg.fc5,eeg.t7,eeg.p7,eeg.o1,eeg.o2,eeg.p8,eeg.t8,eeg.fc6,eeg.f4,eeg.f8,eeg.af4
,0.8867514053324373,-0.7904699667532624,0.42823321151457244,-5.264808452016072,0.6356150828438566,-0.13597197221581817,0.14734634196789473,1.7588005814752337,0.22303607563437985,7.764063683355063,0.14456216013796302,0.3354761792051533,-0.5687741842700262,1.1757392346720554
,0.45966224077743406,-0.9932056626302931,0.5061337919401848,9.970077611904975,0.20694274375429003,0.8493134463097411,0.48562416974267836,1.0079429291939588,0.25807458348209644,3.6736884704498824,0.11713880792465758,0.022034263313474873,-0.5262398939090108,1.6308720165471267
,0.193468665847701,-1.799057921897668,0.16559357764108154,16.958540517317555,0.2938189044434459,0.44252407401970756,0.2596274594849634,0.5121746152876218,0.9117272020755101,-7.2454839467790295,-0.39988377844361156,0.1031165842261588,-0.801884311117157,1.1313013813070794
,0.4223010368609209,-1.573574267140707,0.16027605522853364,5.846135944794082,1.1037189529068507,-0.4508733404305361,-0.09767892634821417,0.04731110703494469,0.1631501417604123,-5.613798270503651,-1.4084968530841564,0.22581365822795982,-0.5454510501126656,0.5547096771590238
,0.24480612595824394,-0.9417619354510567,0.3737313504363013,10.686196467630662,0.4674843663646649,-1.199660388646531,-0.056917651912639367,0.05502133124024089,-0.03718132581932567,-12.317092831931873,-0.8404055454288393,0.316863813692418,-0.5599275248609306,0.47156378298677054
,-0.4413606111220843,-0.4392317677159049,0.11793903789636137,2.161669431215754,0.38158988317812276,-0.5495656436004458,-0.07666940193993836,-0.09906613215691454,-0.23652281357204352,-9.578152225284912,-0.09096858111762682,0.27987538885462715,-0.6561707692170723,1.269306890198011
,-0.43583834318925263,-0.8708743782093857,0.4129564172815811,8.301791007188418,0.31009521077483954,-0.3427275719335231,-0.4022427657050783,-0.46689195005454487,-0.49365645891913384,-6.624711748589073,-0.3614974729192806,0.08360551923878068,-0.30779810074268005,0.7532363497681592
,0.044992355534051495,-1.0944405944538582,0.6256510156174854,21.835497342854378,0.6269342236884837,0.45667022099218796,-0.022569080548329613,-0.572586515404039,-0.18082800809330174,2.6737653979544302,-1.5458555674757906,0.11836322828165323,-0.26853367032940256,0.4534729896750506
,0.16944402840637499,-1.8464018094193786,0.5455198582246857,26.257241148324493,0.8843418928640848,1.2505919190174761,0.3222665689407508,0.5601097061310198,-0.11929558652412672,3.4728396820032192,-1.5316722534936658,0.5802878897190056,-0.5694233509851461,0.11651407375393202
,0.38784173107963915,-1.5038892804229183,0.24219284190312243,13.288873814243763,0.4168365057693892,1.2974708042800878,0.4790282079722001,0.5325216073743644,0.2522612535409223,-0.18133402224984915,-1.3254804839626575,-0.2373961447318424,-0.5297586102784807,-0.2789214099578436
,0.5172274999638933,-0.6530117278011264,0.21294897979556784,6.939408030132767,0.6479303136614847,0.9135028696833144,0.30929405661906284,0.19066032591653528,-0.05032248518469219,-0.35071921391530625,-0.12775330001466748,-0.12246801981607353,-0.5559335044831116,-0.13437849985516448
,-0.5575167950362135,-0.8827163188861089,0.06778112895277302,15.476990186201313,0.9296252757441018,0.6063298456619112,0.46578186873951305,0.5547189527030084,-0.08558564564766313,-0.3156544840750781,0.884039474652608,-0.09241179745258458,0.09307526491956263,0.430503794575081
,-0.5754838888448097,-1.6403579928037497,0.18177465575739607,16.586727259723286,1.0567934353721835,0.27038973054520243,0.2926638250323621,1.1601370319626727,-0.02690113930076275,-2.705696802584186,0.05017107000392461,-0.13327235441041607,0.2759770903131975,0.28523639855579885
,0.5969797002289332,-1.624868913851618,0.7376944946812979,9.89248279250536,1.8950267920542787,0.046785944886692514,0.32906746334845566,0.928898747362547,0.21009282063589643,-4.353070296025173,-0.2692560278795238,0.7392959334365942,-0.19990290219233872,0.39670235718526553
,0.7141506364770843,-1.0954838318734912,1.0307892625786654,4.9937402803130775,1.4420670223910679,-0.47476854980163175,0.30929344346551685,0.9579334934256711,0.475301631594707,-8.55407530094954,0.07706951694392297,0.5520869387975419,-0.45682488267695637,0.8068657471255818
,-0.1481088738878817,-0.9188298409938296,0.5229938010297701,12.522477205176546,1.2817592541682818,-0.5159388880479928,-0.33424697885145804,0.40540994549833437,0.10680653663953715,-1.8918069054938769,-1.6341938407749466,0.09404457448107209,-0.7662586545364215,0.9191427419466243
,0.5568567747439607,-1.4834512749148567,0.39520357659576927,17.715643455763917,1.10388192415323,0.4303052019356691,0.3654810018861748,0.2884425866240112,0.0624515899684063,11.447798956914127,-1.4892750334259934,-0.042834051466897484,-0.9289772020523588,0.528968403865091
,0.9860741423468847,-2.2603210567403407,0.3396202684053595,15.466372549772508,1.8402214671069181,1.2243162112402972,0.49920836458707835,0.5792239472578298,-0.03618504093312095,1.9327677129363228,-1.3201484719340357,0.6969197149739984,-0.5893039981155243,0.6884124816299105
,0.42447695910962285,-1.5833660544635333,0.07121459686853449,11.882884459959435,2.5231410791457662,0.6044659497088101,0.17461799263939548,0.5231370617799408,-0.09864751608447918,0.2131346964554551,-1.3305461759832258,0.6750804014448989,-0.37413139889349695,0.7378335946733979
,0.06859787606229631,-1.6537270613726278,-0.13935411054399918,13.615383685737754,1.8925205716959073,0.0421208345209828,0.32842401951602673,0.701437217941441,0.7117344190976008,3.387062400675073,0.7395320854031722,0.9526061621301609,-0.2723914452546024,0.5999053653118835
,0.6291113690780212,-0.7403054670636398,0.006609091186481502,13.078984832704668,1.784320812487967,-0.002946594573451227,0.4062832806136797,1.1621917367150685,0.6183976820772332,10.32142379321479,0.8650343221303756,0.6331659689328164,-0.13724584353863517,0.32994983138785694
,0.806737692476227,-0.8109816368406468,0.04693797218423639,15.744413583424386,1.120702778305698,0.8316338660442225,0.32227493258393153,0.6119864300013911,0.333407841423092,1.8498845118510385,-1.23681767952552,0.2691704914181472,-0.40113771636235984,0.7458456904731305
,0.539676064116319,-1.610248144241753,0.01993858462089802,10.354917091040836,0.8088387662873066,0.6733928880775427,0.07157192901397127,0.13498431845286943,0.4541379557742646,4.941193802219297,-0.586960909772444,0.1324111653880415,-0.19373504134621564,0.6034013716880491
,0.6379431373262334,-0.8242245448285715,0.3062411187190485,11.620903183421674,1.3260876896138216,-0.1008040358000515,0.09446657335570938,0.49930024963475605,0.40920799643677047,5.053458016610666,0.3887674064034866,0.4257712617199942,0.011058413152355244,0.5315755684876774
,0.654604704566168,-0.5415981343344853,0.7039423332630158,11.048761135438319,1.3532973174808196,0.17538419912406514,0.32288020788507504,0.6793958809387348,0.4749457895766446,5.748421383014801,0.6513329316516817,0.36806306311178155,-0.12472327656792592,0.37839748352791397
,0.492540906694707,-1.2123428910153637,0.369132171222012,-1.0690047831763538,1.080838716562207,0.3038910992134574,0.6123512028520963,0.1549237448273567,0.18882452342206887,-4.752532271212824,-0.14171278653706415,0.3671013902787103,-0.0209574655377394,0.7091544480679848
,0.588735111435829,-1.189290019228286,0.420063592406107,10.334871923054946,0.9088780065725455,-0.47240300118283673,0.16517378617304815,0.45768203516231454,0.30952063361627535,2.2585874652911904,-0.5882730737376229,0.19669741746100064,-0.2361709699899226,0.6738340306394096
,0.665789363616424,-1.2540025020750716,0.4586033688962547,9.72779440133146,0.9272351814330776,-0.2040876674922262,0.12403451421220268,0.9034906008103405,0.6174835920087569,0.6370962220100685,-1.8314302053814284,0.19057431884043757,-0.40522076286566777,0.4240420953005463
,0.36133037419157504,-1.42801790426807,0.2827667777130004,4.796149104317723,1.264626598493604,1.1724234514116143,0.29383970427233574,0.7123549064433015,0.21229262218092135,-9.457748264650194,-3.225623971090438,0.30550593678130483,-0.3974300730715402,0.41054638019260026
,-0.03905455503238483,-1.1701582981713585,0.2918216401420806,4.693249489807639,0.6454992562660057,1.0286082244287558,0.6720965273816564,0.5740170842772182,-0.2647675887872689,-10.446317750823567,-2.5013089043506134,0.5587881795225482,-0.4429178392000698,0.19520228236099246
,0.23569855437313691,-1.674185967013194,0.4327871091103125,8.517767857479704,0.6380102667929416,0.5398850562733346,0.5412341207661984,1.0500411255019382,0.11956000247132827,3.3917019447826626,-1.2548639871293474,0.6747499444335429,-0.41079944635182636,0.12035588382671678
,0.4948047113256936,-1.5515892890318477,0.5162175071497457,10.63635549031444,1.337915006158001,0.39364378822602264,0.4002526603817255,0.7192205170215528,0.5713614966843759,7.948521242468439,-0.9467250923478213,0.16840698206823357,-0.38549932772721546,0.8737182271442705
,1.3247575729598726,-1.1324426215099186,0.5452397623556844,8.182481380689108,1.170217600145651,-0.11113032719362176,0.05594881412041039,0.5823055215849939,0.4669916926915552,16.0353818703263,-0.7302206083629129,-0.2958329069678038,-0.3681091138420038,1.485701868664457
,1.0246302125107893,-1.2867810230015335,0.6420468021739691,15.687563851501373,1.2837845353360893,-0.1627640719866004,0.09530796163109907,0.7573051529030834,0.2447788627639763,2.275117497227624,-0.8303771460254865,-0.009727183031693043,-0.2790949156803678,1.092380634040515
,0.8694985905128332,-1.6653491018311735,1.09746255565469,20.739968309426416,1.9864935465719205,-0.5888390579173918,-0.22643956007074112,0.5909531206819612,0.2017008544917213,-0.30462722546399645,-1.466501673959854,0.00805095424997387,-0.4870578802762355,0.8383543362739475
,0.7158807434451192,-2.2684569632621097,0.6843147142097975,14.184491661918724,1.8857394654458501,-0.5312545048987071,0.16428784736260968,0.46282966863634223,0.38205549775187125,-10.464881960697358,-1.3606028788175788,-0.09330798353016087,-0.43540589305267313,1.4562951207225108
,0.3040881611802557,-2.3735381957260007,0.4790622131962884,16.279436530045814,1.0392801962457352,0.8426710722268098,0.42081768291936256,0.4983053488074089,0.6579922736442856,-1.09637215393924,-0.3613640710446853,0.15434256539684918,-0.3146012393111924,1.5674757227628224
,0.24043082425983536,-1.5019598607043625,0.21745331437083526,15.076613208041033,1.2908124283928823,0.21405345835311582,0.11348702101287957,0.10903050019734029,0.12512034128225927,3.9778402552518997,-0.25547722772782394,0.08852237741714132,-0.4555036676553338,0.5830138086322202
,0.3055816442527449,-1.7988098028636692,0.4587118665398867,16.046989080242945,0.9052996676263326,-0.04118296831893173,0.609116260925068,0.10238436702902586,0.02815005824286637,5.708965449018519,-1.4243717553200843,0.13549418092739135,-0.3755863668853726,0.42158135394788687
,0.09156540737377837,-2.0249817262325123,0.35456834331652504,16.0729007700686,0.5602961151620232,0.3424949838082702,0.6876451524567062,0.36569458768321805,0.5064307373175461,12.197595216878327,-0.7266642941463658,0.11064422756261179,-0.5437602068995094,1.0361769497590723
,0.7834258634611823,-1.5563067984151626,0.18898984204114105,14.07369400304978,0.1111743511417649,0.19682829376054795,-0.11777515122311669,0.8217862919195555,1.1978389145613566,6.945221217615879,-0.5318777515496806,0.3925107165867412,-0.6651032332314485,1.1093807284085928
,0.3729299950656373,-1.073945903081596,0.052314530470961206,9.741393796660795,0.6381956284877922,-0.4622736538956242,-0.05771459966310716,0.5612077605864636,0.9865451201848764,7.361646123670604,-0.9035032150363319,0.7643469684333586,-0.6937640514954785,0.7181504052750433
,-0.0904038771738357,-1.1633632928485649,-0.020318343079933944,7.925456197325523,0.707892018490863,-0.3703124181586608,0.14675013605290302,0.508804115354414,0.9110305225379831,7.778822465429141,-0.3538394550654403,0.4569268622917832,-0.5071017476600906,0.746680052631263
,0.3575617634721242,-1.2768411708934226,-0.05410401476982357,9.640536849656684,0.8761244124565618,0.1414458453581168,0.1389300230485168,0.5323796208202697,1.205145913332689,-8.731717972647568,-1.1027726874948893,-0.16444376114898102,-0.9260754085463027,1.1393015789830998
,1.4376397550855131,-1.1342994280526164,0.024212798941154624,10.456903067759518,1.090376089432252,0.2992938254073601,0.5359293693052831,0.9381164520034483,0.6955822010884649,-7.152752975059913,-1.7328478000367935,0.06804656868660042,-0.750007939737715,0.7686627032374239
,0.803020828403032,-1.1393118913674993,-0.17784276256071457,14.702277847127776,0.7698442382067407,0.6573768183606395,0.05688276493484177,0.08496460118497833,0.40110494139114233,0.5546136295882097,-1.1732496761086677,-0.12343778251294613,-0.4717593900490093,0.49884479155549044
,0.39412733430608893,-0.9362829559281985,0.18297316323598353,26.82541164879398,1.1248695258166874,-0.07696726472684377,-0.040347236263951446,0.12057826345060517,0.5028341130065148,-3.81121349325881,-1.5387164378307239,-0.14101915684322094,-0.28132434320254435,0.8139901427984617
,0.9348824793694025,-0.78317112416778,0.5258040883528065,24.08807763984964,1.241184824067046,-0.2834336472692588,0.30481815232106535,0.3250513749603211,0.9125177120635147,0.6985426725393689,-0.6340878288556532,0.6112789682911307,-0.309178138128587,1.5580811593278103
,1.066267509867678,-1.2252074295976811,0.5583520932802275,26.684992000820476,0.8307147357077223,0.463519828699547,0.45648855108859393,0.4242926250218948,0.655700498899278,13.508489276445339,-0.24560630673828207,0.7778134937763633,-0.44854004137861964,1.0908233423773022
,0.9573233491344464,-1.405932609534775,0.4765347352660724,16.08138957353679,1.3791971778207552,1.505969100022784,1.032218706685063,0.36039424129826836,0.15541701124541588,3.841826238090006,0.5153902600740965,0.7409252767744053,-0.3741546783897257,1.5207620067434888
,0.6262394932883207,-1.2881568513664954,0.07797448112590888,17.908208683989905,2.3265702176210405,1.0837932317929024,0.863362956810546,0.6778264572643674,0.34924890077788767,8.030762770120237,0.20225181149051416,0.1267571907919725,-0.2791893216853067,0.7326401817662226
,0.31893912782989425,-1.53429122112063,-0.2233692695822199,33.14405359655782,1.8580732819296202,1.0352781671992866,0.5375640674943862,0.7936642870878068,0.42900938523903703,4.519972253622607,0.8467288473017981,0.6189797801310171,-0.4340379387543368,-0.9342741091114679
,0.1056584811957019,-0.7427844464189305,0.451175795464262,27.502551559788053,1.7747399739908938,0.9254672604466317,0.36551783633733487,1.203125181794973,0.6113880655796994,0.05119428576312973,-0.0108680003523607,0.8859149438139303,-0.43518739616906066,-0.7063779568843472
,0.12964379168054704,-1.0748696024656437,0.5387923354258491,15.411985167466483,2.4703476573703225,0.6559705427736348,-0.25651737627224075,0.9079883806225796,0.7058796300497479,-1.7881185811482279,-1.6165907083792785,0.48127962821814163,-0.2747904182448292,0.3035914998599413
,0.4130138664775624,-1.252145997631232,0.7594138243516971,19.11980893377827,0.9821314473452912,0.838716151754542,-0.03104585761924951,0.6822016711133944,0.4550869201677527,0.6327159450818126,-1.0351823909599323,0.4790045890528743,-0.26346692449574344,0.8784867273986335
,0.4629788078085321,-1.0958384317016046,0.7325931849579902,16.811411613081816,0.762329372398033,1.1684527116130505,0.2985229586894721,0.6486293646476698,0.5342700841343782,14.753114462489192,0.0680422217575349,0.82735457830437,-0.6366845733872403,0.8826091638171111
,0.7180720365795867,-1.4642130910273092,0.823707527108489,13.941584713386959,0.7969730369528444,0.2614618831776928,0.30642322108409614,-0.006244700783449435,0.664336171405226,1.6018110292416508,-0.13581277637982658,0.5535612358261826,-0.6484450323230572,0.6643045063565175
,0.9246132908531758,-1.91867423825344,0.485437954325471,25.6237558324197,0.4200461565076859,0.512077057432273,0.5369959177784097,0.010644496177385054,1.0168824168639428,1.0832195788168617,-0.46492691998962166,-0.10796090284297406,-1.2275884672906106,0.6233383717642094
,0.9732126311134262,-1.8254765145566005,0.1786123123874427,16.67432832725004,1.0517215468432275,0.19862455538422086,0.015482109736421397,0.7066511265933441,0.5084828037057906,1.3760555166220387,-1.7462348908739649,0.18189703030767654,-0.7030634073048929,0.44230233799423346
,0.90257264725229,-2.2678720791599742,0.43449649749845887,7.692851698611421,1.1570899838529054,-0.00930781246666684,0.08772602521295661,0.6802044940910137,0.3492932848512309,4.857000758602157,-0.6687508215531422,0.6411074940137166,-0.19438562321307826,0.09679695564333304
,0.7006790853865407,-2.5447838088621597,0.81037626529309,8.790304614094715,1.650513018794715,0.4058868941010565,0.45271946906558486,0.3607044407653174,0.485526233865037,0.70705558612098,-0.21672109456195704,0.31784745926376806,-0.4977332527176209,0.374265443902273
,0.432699119308879,-2.114008481000461,0.6337371595503747,7.808946790663552,0.9555200915747989,0.26967155331309184,0.47662021941492755,0.6077527689207879,0.34619026861238655,-8.843368411936023,-0.6139011777884807,0.27445132213791246,-0.6716099372027131,0.8812078863736548
,0.7140962135377351,-1.5358374377948192,0.20132099000421125,13.71189681579925,0.16606976527837927,0.8359503611854491,0.823539134710641,-0.2332690018861906,-0.22647152851729282,-7.011741421286894,-1.8106177875303413,-0.1651029629776738,-0.34545400360884326,0.6771958253357426
,0.4339440290773394,-1.0468184702165362,0.5505351513696525,11.110392003020657,0.751948538350379,0.07324200136372425,0.7456531394518704,-0.30976845709498146,-0.18958257406719148,-0.8554106010021456,-1.5393655055804933,0.2792833732182626,-0.4225328074630619,0.46499996067682653
,0.0024088248616759935,-1.1258993730367535,1.124032581147321,13.727331707482112,1.258008295551671,-0.571201248093725,0.6445536669679433,-0.29469699447578496,0.2755893610605047,-4.903316679945736,-0.41162856903810185,0.20033935255082602,-0.36908381022390924,0.90166397394368
,0.5211327856721956,-1.0569057647426001,0.2993603506711087,8.603417825973105,1.2671305759058187,-0.4058561733078055,0.15988624819318964,0.08217429857971474,0.9157157360788069,1.4518915816535203,-1.0800324616070358,-0.26729411037930867,-0.2704138187488494,1.3656907274756558
,0.26275163317901945,-0.7915117197005512,0.1894394770451931,10.525537568189288,0.7340973789467032,0.3038299652221428,0.46972959878170745,0.5463599471992635,0.10754937922636532,7.415041524818583,0.16586011726095304,-0.1554813621758614,-0.2656739790541545,1.1680180380704057
,0.11671592815365057,-0.1601090620308285,0.01993941056316587,2.2688746281297902,0.11419152010326995,0.26151068506879127,0.9191326276782433,-0.20199990725358605,0.19898307423188488,6.350155067928478,-0.7185871349037063,0.22238124400076242,-0.28987946228180556,0.7238178753180182
,-0.03593365702183802,0.31276884087760787,0.038013710990344764,6.674779510856472,-0.08430640154526096,-0.10647551473960809,0.4226447885568603,0.06216290961876659,0.5792075441774885,7.230539558309614,-0.8655106102589674,0.34217908228389543,-0.3464638344463185,0.6052604472995915
,0.017197657627068687,-0.24149154898599698,0.39927826728448557,24.220808407218648,0.04763275364886077,-0.08262828699036795,0.23866080929462452,-0.37379143112400015,0.06565424518397948,1.3563571073668923,0.2838996002445401,0.10406056255353727,-0.13005833280223833,1.0276459524272512
,0.5653031424478051,-1.4461203965047396,0.272568211536283,24.15634210952375,1.0853135974147878,-0.09087588870834844,0.18990930300774633,-0.24501752569427548,0.21611629154906647,-11.308136930480432,-0.9097474447722025,0.25074397329621656,-0.13183839499160924,0.6390389118758852
,-0.0068859072576236535,-1.0832531105790155,0.0536317767729595,20.716749086178247,0.5412120540748291,0.9691358583408449,0.9179516847386765,0.46929222446759433,0.836678062101635,-7.11152396984561,-1.349242513964803,0.2633580819718461,-0.04776977810751983,0.45737022937576527
,-0.002213696852483073,-1.4777785692073822,0.6543330755547194,9.116727774010112,1.7349354509034478,1.4005324441032307,1.3572970761487624,0.4912782965527659,1.1901193288228884,5.570508157324809,-1.5836125885237262,0.775949561096982,-0.5485646720630664,1.1344269182146494
,0.24893570216732203,-1.6670119047225114,0.5333157058036689,6.174022641445086,1.0101985474162523,0.8585908988059439,1.4556557794999734,0.8002443272693052,0.9984040862003272,1.679157467833278,-1.0403232222309242,0.6893476450047181,-0.7172308672535109,1.020500256330652
,0.32774310926422734,-1.3625916012595556,0.43290878272371086,7.7767995505459435,1.2514154431889883,0.8450577281837474,0.4983989984691474,0.1484453491533899,0.8115332283910417,6.530795781069779,-0.8004810574085506,0.3758942571360159,-0.6335182221084953,0.3262489257110461
,0.49204233443681483,-1.4484431227215164,0.5947356566224712,5.829546667593669,1.2331845313680345,0.5692026538214621,0.3119159725583576,0.04354442593090763,0.5729226022332671,5.99530326342625,-1.5380160715958686,0.3779597814076246,-0.6217392885827541,0.1559677867008346
,1.057645547734603,-1.5040236523561954,0.7322686507560836,9.181974156701967,0.38041996071692735,0.6706727248566614,0.3083379979651263,0.060504892832398544,0.5198869799049376,6.555942826652488,-1.037717773876275,0.39779392569390876,-0.5364181949089987,0.538993746890088
,0.7513675614159127,-1.1796145994346743,0.8260002934244753,10.79086587068351,0.3280854763961808,0.6183632856196624,0.5610917549031734,0.22873962853279672,0.42167812594546605,11.061198685811847,-0.5374327474024578,0.39653199883838036,-0.23057179555678764,0.9233074448611577
,0.39116861698068706,-1.3803762838641247,0.784939823910796,11.758649781889813,1.1139022796855669,0.7443536485775146,0.4308248828958377,0.8380064912896518,0.78342555576115,10.73067489883319,0.18679432299389603,0.7876203326095382,-0.27911349208929,1.31134685790509
,0.581775651483625,-1.5743206005679256,1.0175969330798162,6.445273252846991,1.5964241564275288,0.20272686134071674,0.4883414421043773,1.2433012180796132,0.8419954864159357,0.35054829027268797,-0.3294037995060991,0.6035743961030431,-0.22662741834926603,1.066275270854867
,0.5211079746782432,-1.0809582408262581,1.0906883607709146,-1.5954447581605782,0.20572376471689874,0.2686977308574172,0.3315434692206263,1.2198322849531642,0.11352553693406017,5.8011411295713,-2.063644846434024,0.3741476487963573,-0.18585003745945583,0.4206293857862302
,0.6785058432795781,-1.1178801649718824,0.846903059341876,1.2090025827032476,0.4932983221436928,0.3768399852361575,-0.018380417921563193,0.5375265881713772,-0.1595648149563715,-0.6011556274708734,-2.1028499229869877,0.6772009873955644,-0.03590726012699158,-1.2325594732715044
,0.6791064238278027,-0.6695783273478079,0.4544263277781373,12.08879181743054,0.6610060682889436,-0.17456735350171831,0.38886343686479596,-0.002612072620088737,-0.3135305103347247,-0.949848289420283,0.10014300077693923,0.6476327888877442,-0.09874571377253258,-2.054636094455694
,-0.05899368863967139,-0.6098895819711619,0.9518194850885279,8.338276274027537,-0.1476267541697166,-0.21491497693464964,-0.03403138479995054,-0.07582873563144368,-1.4558969951115537,2.3748150100828647,0.011716661355994093,0.7801548342155534,-0.1876158052667868,-0.7054626544377145
,0.07185288030409798,-0.792026452627487,0.5638589381817014,13.022100614566165,-0.020668049016642036,-0.05507077186603773,-0.12477897776516958,0.1526767008200923,-0.9116934358861957,1.980931900868297,-1.1258613418070695,0.1614863865902148,-0.2949423586279218,0.2947874526110917
,1.0114515059280718,-0.7584488828839954,0.21249217138704607,13.546674042835624,1.063249157985539,0.16554547741647072,-0.2930663057275003,0.3497588691442887,0.4032294148219711,-8.660522222455846,-0.6634392097340991,0.10546643052287821,-0.49044873859527177,0.35260377150914574
,1.0906183264233786,-1.656484033835287,0.14567815150385469,14.036532934577115,0.4668455018638952,0.830995323305861,-0.14488390282054228,0.12615935203106476,0.0783852400937327,-5.363703172671571,-1.1185754389328446,-0.12843428359018524,-0.5501728663226161,0.8908655419748125
,0.5234243789570319,-1.8090662572839176,0.43557759808735036,15.086291869634728,0.4919046041948826,0.9737768333000986,0.297820101769631,0.07936262316245603,0.5047139810875831,4.581601739283944,0.1831722399996795,-0.028730448740732422,-0.16041953688804714,1.128000003750203
,0.7489170019342881,-0.6934292037679642,0.35212252154748747,8.833101304648887,1.0183615044660508,0.34603728868365036,0.06789036198313148,0.44677929276352013,0.611644386150567,-0.9884547053251137,0.351278321190471,-0.01523149820076591,-0.05293145540164528,0.9463387384748281
,0.7873494434893931,-0.6807495411241126,0.5396399273370883,15.809687388311962,1.2547128865626833,-0.03311149706461695,-0.17033642700487894,0.7628271003138462,0.8607993021013758,-3.6483590893078177,-0.8644742956105171,0.14669428743851873,0.015891264927123935,0.6192834267192778
,0.6724012629960461,-1.2774022529049587,0.5243586761968064,18.272342352895514,1.3684422250836878,0.07735193780755299,0.19219773612610616,0.7758745766308881,0.2672994394725257,-1.2435464705905217,-1.1869310616061919,0.29111172762380894,-0.15375147564699898,0.5141222533389184
,-0.07897204920948679,-0.8926056200450572,0.13590032763309587,21.15851452421514,0.8535322090613161,0.2603252691936493,0.600564671442295,0.7662423558644728,0.017644502619651302,4.451612453453267,-1.465637647705982,0.9471924407251728,-0.010397372108646429,0.5408197188642705
,0.03376772735806516,-1.3532288626323523,0.5394981951779888,12.949380771385583,1.4713760004168541,0.5916153833223506,0.3859906996129501,1.0409984695979528,0.21387900902246498,16.760668411735494,-1.3026118038037726,0.9784309859225994,-0.12179964890870773,0.4312236694670735
,0.06619167488803578,-1.367972810849118,1.068722315083453,16.197028241980934,0.6854292078620878,0.27356656366690296,0.46219532487356174,0.42309595266040095,0.4447777736788398,15.752460266065958,-1.3093551388779592,0.1334623882997547,-0.6315580564236342,0.9769928341739202
,0.17452901856320877,-0.9586063028867791,0.8765223225439276,14.093431765504635,0.38852192305699573,0.9386835564955234,0.4374578466601056,0.282094171906171,0.04376452757201113,9.87829250443159,-0.7052498877969606,0.7043792460663721,-0.6106516279710297,0.5643057237200115
,0.32369743965825654,-1.0945104516041502,0.6081967118197522,7.6421259595955355,0.9099878955765637,0.8934401143022787,0.4281852247254784,0.811082927347937,0.08636699291587926,2.5299224752768703,0.1432022520145952,0.29725078843508573,-0.4434353034714753,0.6677216445244377
,0.28169086896453993,-1.1978302549891031,0.9620136470478954,19.046206894079862,1.1513831914782569,0.15776095343985605,0.34205385879698774,1.1655642088952942,0.8675916967723861,6.585388986879788,0.8190879978867627,0.3917682982663586,-0.2963522695867902,1.1764430088059776
,0.6476990386900862,-1.5464772576484904,0.931381704807122,21.67793604718959,1.4405764162602146,0.269235437839474,0.3857158124892078,0.8758068972051872,1.5869337506964931,6.612704088618747,0.6388340833210253,0.4908387826503295,-0.426685175866293,0.623583063089218
,1.023368996771007,-1.3683086994441251,0.45207705086114625,15.184741036436437,0.8752732640808386,0.4919220082173663,0.411536302218937,0.47398379520515593,1.0631930212072107,1.3143595545666085,-1.4917515803972092,0.22078370485517185,-0.3992702102764302,0.15761115234596473
,0.4768404221488715,-0.8572771439621806,-0.1833151475731517,17.281758701296575,0.22531956236284417,0.28787216812679356,0.9854381190832215,0.23959907279352913,0.4105957668161524,6.370042413981522,-0.35685939549315404,0.06493565513379664,-0.6161442973557694,0.0827538639043362
,-0.19542140680019668,-0.4430268711501845,-0.2643102835167222,21.72897151739066,0.5250474554931504,0.08453076904644301,1.05273385437118,0.2442030668018783,0.6260493771574077,9.267436761013448,0.17462731033692805,-0.09318567434119636,-0.8480192920086849,0.45375323076446594
,0.027643786292469778,-1.3353731403050557,0.24645457399413634,20.970172526030286,0.7309405275219439,0.6846184412323917,0.4293968223863754,0.27200572417282604,0.37839678148138023,-2.674736822901146,-0.9166536652051113,-0.1633745112530008,-0.24093946658924897,0.8318208402477034
,0.2542591358940002,-1.0150882332568374,0.8142677729335718,17.558097549844994,0.175456871341458,0.7698051806026458,0.21941530292720013,0.3239885971096528,0.20706731197687123,-5.716975047914501,-1.8305163609776671,0.7033629699300348,0.014760780177293088,0.719804903420937
,0.1810579346381722,-0.37314485148088467,1.00563420035019,17.333950666131397,0.4626514462639853,0.03822213061291302,0.08078183635560893,0.10248042437723749,0.24575468154068864,0.25343944391284595,-1.847915405346267,0.9300665690307985,-0.10816197519083945,0.7087664134853356
,0.3224257755736252,-0.8367985626571883,0.21024602039227294,22.80405718361073,1.7051665371063498,0.08225127784237192,-0.21222762870984824,0.03447180877017844,0.4818129517132553,-3.580262768705197,-2.902795834445561,0.5724236044050452,-0.07317243184834553,0.6602862307466872
,0.4971392036641146,-1.3400731768372343,-0.10177222305124752,16.34105331013737,0.9851902190851897,0.5486561724248051,0.07054362204247595,-0.18227865348359207,-0.27219001008821364,-10.173534163293484,-1.7236665682512795,1.016091158054975,-0.31062213072759143,-0.14883487193375952
,0.7624230911309772,-1.7303786564164583,-0.03201394938635155,15.00168526244811,0.6175329264794277,0.0697159172773452,0.13791719003716213,0.15398808285718912,-0.3453724315138184,-7.93042488972299,-1.8085414798286736,0.9823451779576015,-0.3387671854346526,0.21635533542168003
,0.3789576457649047,-1.4874433952655228,0.32222286492707136,17.33779809590378,0.8237670484572727,0.43187324846737,0.3048428402478126,1.0005691801988037,0.2001620655388908,1.6332179957712503,-2.8441158517267637,0.9239023855890569,-0.4116687571313307,0.8488737911961598
,0.6535341609531368,-1.3413849789297436,0.9898821568672515,18.09038634607717,1.3262769103345462,-0.2231702844798131,0.9189797651299872,0.9661181623542712,0.2824446136651307,-2.542515994558139,-1.3376054580802248,0.2921868218594594,-0.3714479122014636,0.22997796554175937
,1.3883332343492918,-1.3641678516584663,1.0509047702892684,16.728131171618127,1.4151056347098876,-0.16915280790146517,0.6944430516345519,0.34382868496861624,0.3918166248994815,-3.553494403889041,-0.6345288749336326,0.2786504398615112,-0.35329677025117057,0.46376315324800405
,1.165686492985149,-0.8528474014103095,0.8094594710882801,14.136295107870312,1.4572605128453737,1.4398049323504059,1.1265098982457225,0.33767423822395776,0.24051136638791398,-2.9867779141871544,-1.9478170588644916,0.7029959246674833,-0.19093002774304685,0.6843608116871035
,0.8151096392861483,-0.8815133316370657,0.9571420657316672,15.225378590312152,1.3407931807782656,0.6381802822454892,0.7769641176275798,-0.1817987751889705,-0.07498469168020057,5.519496456469178,-2.1324371002414795,0.6944398592758855,-0.11500788860397418,0.439632068631883
,1.3870224795674215,-1.5495462722438156,0.9382483260639691,12.085325232152254,0.9380860370741226,0.1570216195014343,0.552503129344024,-0.10631671825446451,0.0858667372863792,9.988181164198291,-1.5937983666396434,0.504429561201012,-0.25828016208863364,0.08632215627734585
,1.1520944725460605,-0.9003635307088258,0.8827323956484999,11.975729684057692,0.9444327045320032,-0.4057715403257207,0.14082134494156764,0.2520968042501361,0.1460946832481318,0.6099532743380861,0.2073978671384504,0.49051658833680944,-0.3974662807165725,-0.09074300157616533
,0.0923011908252283,0.029322151996519854,0.5000441354845172,8.388464859945834,0.013199251521682423,-0.2634908825548302,0.25641390675826153,-0.6409363304728606,0.3839724796504539,10.536544929125794,-0.6786437106744053,0.2856403134495666,-0.236666053016734,0.31900935620951854
,0.2702654935541235,-0.033368403272725805,-0.039625799789153295,14.103980314742069,-0.5828225069793482,0.1518469396541356,0.46768213354505656,-0.41398149064879763,0.14455465738841444,2.945719337115803,-2.6522415844992673,0.5787357578349507,-0.06176437342096051,0.8612186922374541
,0.08291386494486522,-0.884857618914891,0.11876515497678028,17.390271184044792,0.47157952931047104,0.5351897185289549,-0.9584803935271003,0.6885981994819632,0.1599227972940418,-10.875554744764361,-0.6946345204455754,0.7301732578407127,-0.39704700997009224,0.3150052058704784
,0.21256358162309805,-0.8590557241701907,0.6285321401600188,4.389477466732741,0.09700784678551486,0.306594910927056,-1.366008818898836,0.4110078562763528,-0.03779229379420583,-3.6677512863094113,-0.34159775213040067,0.7912332279994128,-0.4733929672932312,0.05026632352355891
,0.7440809791503112,-0.5433351979575156,0.23554472666086954,5.00063436476186,-0.1478237389421366,0.4535297612797151,-0.03996135548098209,0.022181309284951115,-0.298669718053853,8.83489553348452,-1.237637653661912,0.8157150770690746,-0.16584713076442187,0.2874153603205488
,0.17342930609770094,-1.3645171947609203,0.17864170289576906,6.942124855276843,0.2178904207849215,0.6028219220212405,0.5492344370955518,0.4262166353490963,0.4174652914264022,7.061333416677525,-1.3561124633423232,0.39453914723531297,-0.045409096561407444,0.00585011392180054
,0.08747769589477586,-0.8027710602487911,0.25990258059952986,7.160896022375384,-0.35832205426693636,-0.18150987001075444,-0.07570272488690359,0.2599940156700845,0.25454968820996604,0.5366768129264777,-0.42264306192423123,0.24968515249102596,-0.13382149232033677,0.49107217385156765
,0.8630624599741274,-0.5144047835694265,0.3609665971474252,6.648941506082737,0.5552780315296039,-0.0880244436350731,-0.2528050308182779,-0.5042758749570733,-0.3956279602373542,3.949960017625537,-1.486999213980156,0.14008990061282858,-0.14439400459000537,0.9531531869419422
,0.5454983581713974,-1.0922479011720214,0.39077530251037484,13.237281258884165,0.2989902950707479,0.6032328194530199,0.587544140886266,-0.17998373242236457,-0.06249199253885812,-1.8119658780777332,-0.4133058522440625,0.12312347830426051,-0.3785086422637508,1.0701605088101331
,0.47159358716818495,-0.9846517102537232,0.047121943302530014,14.709744683620267,0.0576208084869686,0.8179335908038525,0.45544362122189597,-0.015399451433691225,0.2363485737062702,1.435511477234975,-0.33205977025424777,1.1419785034511267,-0.4076026529953795,0.9227716686774997
,0.5070268926798102,-0.9237574388766175,-0.11960977366170161,18.92170589464703,0.3604631027891181,0.18270582178581002,-0.05083312686684657,-0.47635352075653437,0.22133969419090374,-3.271072026480256,-0.6785158557770926,0.5449885535732532,-0.3394995197336394,0.3722005309263955
,0.1351328691553761,-0.7908549394974081,0.059478294520639685,16.529453354023527,-0.1269153996899671,-0.32530516660994024,-0.5352480976907792,-0.3459941287731545,0.025477363220753557,-10.2709698603021,-0.9569212076100874,-0.023322194621202313,0.07990788830234953,0.35270774083745804
,0.33062771292046866,-0.7005270323607715,0.19432481171192414,9.87721171343454,-0.03880951404776812,0.22353324594305754,-0.392101441867653,-0.9902507365996194,-1.13456481269882,-17.063816220826183,-1.395903709913694,-0.049234291204886385,0.007800818350912064,0.15893682336625695
,0.607520177324533,-0.7102010666918848,0.8799404102261106,4.997162652309214,0.2197623884071242,-0.21557391717249413,-0.17765084908507206,-0.9630700314458048,-1.1586410643321319,-12.181415067072342,-0.8924623950280897,0.12103981783959855,-0.024368715737532624,0.46394650373423624
,0.6928266930994483,-0.6328772523633114,0.5463086637790954,7.384174809390001,-0.3422527021617209,0.30373013467461324,0.20399381506261463,0.18518599827000046,-0.48670541907177806,-0.09313582553291308,-0.07733964872653216,0.5349834268495541,-0.12143180842684309,0.37685781358775367
,0.396274035779165,-1.2832143771118307,0.16435147300789535,4.36493789115454,-0.43595337461828554,0.21123537374198206,-0.03589075891492882,0.06662046303729888,-0.2871596249999394,-4.321816453311133,0.43339994547101596,0.6379468824244249,-0.17908758846023753,0.6699104060842783
,0.4047960361542036,-0.808460266072824,0.14526494857752426,-4.726861843688171,-0.8526516429385361,-0.3014278547073088,-0.22203309434194246,-0.5012270303240478,-0.4654855897769505,-3.3927110757766044,0.8998093526586313,0.6928893259570081,-0.20444152664175128,0.49418045953379797
,0.5379435107179491,-0.6086576857028981,0.29302449034667577,8.908702042921027,-0.5986144415313294,-0.75244936584662,-0.034683876184957246,-0.12892391346914267,-0.23814288601580688,-3.5710686103233105,-0.4790297025500566,0.5896508329569101,-0.2509057121054683,0.4788063829421785
,0.5179023642299293,-0.13529986035315286,0.1063775054212866,23.872581726691426,-0.3373733029674618,-1.2043437037866724,-0.3880515906629915,0.11624384545863248,-0.27967642342783844,6.047868917098832,-1.2925499589224407,-0.16740571807699706,-0.3657395930768121,0.533120007577007
,-0.39049849740031756,-0.15871763090989957,0.326186137563344,9.58215957409017,-0.5238708399022668,-0.9124358853471246,-0.3621386404687262,0.03729533912401084,0.09487277101713341,10.46354174188781,-0.7754571081653706,0.19057468844335929,-0.11183820879719909,0.9730443360301215
,-0.5243956776428982,-0.31679862546555465,0.07614797396956516,3.234011164256592,-0.2991872526236855,-0.855091272530665,-0.5641992404895371,0.02266145663570807,0.5536467711850321,12.205132758713336,0.5826547582133911,0.525988015668448,0.10614830570167332,0.80023982181325
,0.2025036164323439,-0.5659689188535789,0.14872007882544963,3.951011755061605,0.24674335300232497,-0.4445493896580564,-0.23234650627700984,-0.06376528577303049,0.8818418560740784,9.583018176128384,-0.195282156927785,0.5387966143139087,-0.4521124180957387,0.4560492531460974
,0.0635178921797039,-0.5917456145985494,0.40292699697632023,12.909908654463292,0.46356289352967267,0.16092832439459728,0.20010980618173071,-0.24429682121380883,0.41129577605973217,2.3903258505942944,-0.9886523497665339,0.17044631223910217,-0.6545200792377048,0.636706451493163
,0.11866271211115408,-0.9557344260596634,0.5424753395976892,24.719675835362462,0.4419522025665626,0.30469836061237515,0.2463038649355447,-0.2926495454026187,0.37410091348910596,3.7256997864194585,-0.2570282944595477,-0.00819683273530776,-0.43705085251145354,0.35414398262746466
,0.8560225804901729,-1.1037350665779624,0.3190789494544293,20.968523626683883,0.14932440760958568,0.12188002788770085,0.14693633621806285,0.1773562672980439,-0.02474274263661908,11.410388655806724,-0.27052014707530453,0.6195558914899607,-0.5838727709861357,-0.013819527795372629
,0.7011447319162597,-1.1698691821904619,0.633752993393372,18.694677829241623,0.40975703152113435,0.10229048840441651,0.41316693071042243,0.7716914245287253,0.2754573784251102,4.9210666375804895,-0.43557354365309964,0.11733263751409166,-0.7142791425449657,0.5786948370520466
,0.21807523031908035,-1.2922415365506728,0.8580722565379483,22.740239232033474,0.762108268572536,0.06442112206543542,0.5358999043727072,0.3457545135227843,0.2826965557333054,-6.818595953755153,-1.104010472461134,0.3047650834720997,-0.5232293040700068,0.3816677718760551
,0.31699891250193757,-0.15913370513290687,0.7508248124989676,19.633184734153403,1.7361230756285053,-0.06568094573720554,0.4222866774683023,0.019537666073895572,0.06170124995414048,-5.951790198735429,-1.4204320483665698,0.3045635336492113,-0.4100290640623567,0.7458226693683883
,0.6475441200545401,0.17021278864171507,0.5795613251987926,-2.7318774437073623,2.467042612636795,0.267709498294184,0.2011754533931198,0.11316762180386851,0.24433061791109906,5.606730670401429,-0.022287060607849556,-0.18095511638297157,-0.187538263788278,0.7473380142307801
,0.23855430024007326,-0.5373981708752676,0.54425463917644,0.9333267149200897,1.245721966275455,-0.07076836914763311,-0.19216383096578354,0.17072809235795744,0.46330541018120674,1.6043176456430173,-0.5765495927159305,0.3779721298095191,-0.02175544731754057,1.0688034941759303
,0.5218843419318757,-0.651686423521665,0.4989678501556236,7.2944688605606585,0.97514748154017,-0.32001935939937176,0.14230323407131623,0.1481871483743427,-0.022966676744974674,3.9631663018402,-0.30392488173223425,0.5902270695967078,-0.1662239533179015,0.9465549139609432
,0.25914683606926425,-0.15747500433563877,0.3347419914640835,7.727324433979503,1.0528978714876511,-0.6303795801215961,-0.06674769793360154,0.16870741927169242,0.37162660366841366,-5.894261696411845,-0.036862694360243344,0.3316249008201785,-0.13381911071503194,0.48592427842763
,0.250361808897097,0.5399103085645571,-0.09647668993847654,8.085440858649113,-0.2398368792901605,-0.0718815770101716,-0.10785189533590034,-0.113685466484832,0.7569827125610239,-7.6573047031803565,-0.28144554581246906,-0.2198188078354414,0.15712659280791128,-0.3194758100284265
,0.38773128033634374,0.24776863113223188,0.27092235919351326,5.883955916660839,0.5069409574170173,0.12155629008755181,-0.638027081400307,0.14395983676286628,0.1290209113260229,-2.705865268623017,-1.5281430144152819,0.5007734272191584,-0.02459388897773499,0.012108199720344787
,0.4217439391287217,0.2897086609543951,0.7064295881727989,8.530668062218579,0.7480605461257017,0.3435226373136364,-0.464847653944789,0.2535137406676866,-0.21891290060495894,-0.5600648371850336,-1.1845443568069867,0.5663575258377691,-0.17553222873337804,0.7623087867198123
,0.2735956931502461,0.13159054368186365,0.3928110430297049,16.197425573270916,0.6916956594979188,0.4142532782842727,0.35774798220923065,-0.06664900958299864,-0.019862540595749798,-0.09599448473032125,-0.2634676977941607,-0.06338333002806915,0.14880861697953585,1.1866369728908133
,-0.540209339416614,-0.006402096219663151,0.706383657670939,7.847119527739144,1.016764367901187,0.20570144818951722,0.09064919876619167,-0.09677425794785802,0.10175862917564513,0.9714913472518252,-0.7958023375997421,0.018017929857860864,0.1656399580429109,1.2976336051526325
,-0.42867187214929503,-0.09765852151361469,0.4341957504453565,-0.6238819103323126,0.5506438731539873,0.10467986781952261,0.08286840512231082,0.21267709936957616,0.2904422721156205,-7.267032876319895,-0.3262582751472318,0.39919791346673267,-0.06303126329457412,0.49472986774547933
,-0.21657831329449231,0.4940294596027903,0.13619996383749608,-2.8409109036124764,-0.600225591431563,0.2580699515271162,0.4732573769488431,0.2545731343263926,0.4414937278766126,0.2860802077049663,1.3956822034761807,0.21542853723206248,-0.29440190377999575,-0.08477669032985313
,-0.3507601841978884,0.3656875391725802,0.13013186873590807,-5.447104906456926,-0.28023129285723397,0.06679172191055649,0.6757956352930851,-0.3186473008244448,0.23280414335414926,-0.21694680473250705,1.1902451519683073,-0.09104876308137036,-0.08883720683375042,0.8246949735231757
,-0.5015031047969444,-0.03338483185596604,0.4182362889586492,3.7086347140917812,0.6603554972028052,-0.08939745753916599,-0.17784132013502257,-0.20423056272686055,0.5330963289259318,2.074794751322534,0.4268432260294202,0.15334445762954133,0.0008645581665840812,0.8903506852456347
,0.3857605180563449,-0.622188204305802,0.5184075945654937,25.235866596419516,1.2922498438703118,-0.06526396526258241,-0.4357297297363708,0.31170462368820456,0.6987317949491326,1.828232974828235,0.030030368461111158,0.33087773628359596,-0.2826234950355135,0.9923204782121143
,0.199342091659337,-0.5741205567088937,0.18972299787414823,20.99938476531435,1.6058901539179118,-0.10117137823302817,0.10282833073034843,0.5518297470938444,0.2364845512937714,-6.0989668619009585,-0.12780500782273072,0.7723823171786367,-0.41076477991315374,0.34579946878338763
,-0.17322613189698038,-0.273217014133155,0.14064297463412617,-1.2417775167472767,-0.19689665062730946,0.680764307647463,-0.1403239275949068,0.5186159153912309,0.06638405964229732,-0.2851616173048403,-0.9323816886310826,0.25671913032437327,-0.4555654874852552,-0.11737607464866069
,-0.3042614071169371,0.3370654183704284,-0.43750560904383673,-12.19302624536146,-0.27455692304323476,0.37999534122610296,-0.21726488096928068,0.05049411867154168,-0.43388819250510813,2.737250269631446,0.681605109053023,0.2357015654427859,0.1090145369260798,-0.6789502517908471
,-0.20805595241453603,0.6450381370517282,-0.3202414006367935,-8.695199079580693,-0.16862956453428987,-0.031382194710996944,0.022517299346691947,-0.3119683072308272,-0.9303241557391208,-3.9451236959756324,1.09838790287037,-0.40784902343708235,0.06461852574955612,0.01539280091413099
,0.1655511564086786,0.2459484117999431,-0.1596287458511417,6.109079647746805,0.0009791945699192406,0.015064552206223193,0.2737103229928967,-0.11486834691500955,-0.4027242204076083,4.722442298029004,-1.7421099393757573,-0.43594042357570106,-0.21403328272674796,-0.14460008881682135
,0.5818331444690111,0.1863333730299085,0.4006961163050218,0.9575416713081879,0.868164118910958,0.32103856515497203,1.4112609418020885,-0.3772714944915298,-0.056986017332085456,-2.66996106673357,-1.468123648582716,0.19438950665762972,-0.3515445509974549,0.2412228701888661
,0.5948905717237715,1.2325757133654127,0.08898543173543323,-6.4150502635599755,-0.21242095083581325,-0.7117383868120234,0.670861464392894,-0.39983266916823224,0.09527851224410894,-8.753859894820227,1.1606412666413004,-0.07190605206678329,-0.0918860982399961,0.7619605928048097
,0.30135394898855833,1.0133632287985266,-0.05496152382085835,-5.7721749547161805,-0.5858301134336139,-0.7565016674583255,-0.20111824511765386,-0.3266238119292751,-0.2301997885199184,-8.065290917013526,0.9715332971135687,-0.3878520272265792,0.4921588710919557,0.5279753425538296
,-0.2972185573409009,0.7537918492552667,-0.3737623017912149,9.199758664516088,-0.13397609880497605,-0.42504879116129757,-0.6364827562931425,0.40370417798436964,0.2925781168767294,-4.865006921865017,0.06448849959131746,0.17510548338585866,0.3677142849285344,0.3570760614307074
,0.1111536843370028,0.7189310681950347,-0.16965528278461017,12.238657467326723,-0.3182750131704386,-0.48786866791192907,-0.20933122008274652,0.15001259037706569,0.2484335884940102,-0.5489128854494822,0.1607995092346556,0.7048345435104697,0.27527298303986764,-0.7420271963382773
,0.5948622300983573,0.5071614063380898,0.2911496654242256,13.02415142388015,-0.03619866133022415,-0.20828221388335483,0.52347061309831,0.18642522774136253,0.5618661402420592,-1.509319367306935,-0.4433289179209105,0.8982169670410023,0.10005989113957359,-0.6933810308706659
,-0.8272880285212046,0.6663686351683601,0.0706307296353893,10.580472238624562,-0.5660996984327477,-0.1863986018509242,0.27692635149657147,-0.2091018406142619,0.7721969204922322,6.478049196481833,-0.3946095182729476,0.4528650849856275,0.12311642216124771,0.08684488801202465
,-0.9617294939650805,-0.011550956198131507,0.5331749062182606,4.1397764521963225,-0.09373627099352222,-0.3526462641555132,0.08475710474814183,-0.32586751702747263,0.2396968237260291,2.7136835303537574,-1.696374998056585,0.5763787783767775,0.007280537705465917,-0.06811203539677772
,-0.6480936269508464,-0.24992108181234798,0.5057667273216946,3.740939339935592,-0.38697295264600007,-0.5102009996098663,-0.23752415549736702,-0.10403940397106769,0.12997370575565032,-6.565527336451407,-1.6406701036694795,0.843631883330561,-0.1750474714689431,0.17103163695443507
,-0.17334868102453735,-0.28701977306171333,0.5554636177487773,10.622465540340674,-0.6534425573626413,-0.7975570712068931,-0.3958903605692276,0.11259546054115842,-0.1253148681569936,-5.8161165001858866,-1.3772374044534519,0.5296469328759557,0.11445785772565233,1.3331183461051244
,0.2767422925969021,-0.635791751150672,0.6325631542770009,23.95938833616043,0.39521909887225193,-0.7392584793485711,-0.2528889288416294,0.05321950811257317,0.38774513329251903,-2.250888893493954,-1.6010661680084524,0.37927933844668804,0.2832305183807003,0.9874553147486266
,0.3796810507008795,-0.2363556307016708,0.7898339857439023,15.293033919770876,-0.10057819655740464,-0.5306583680935231,0.08731113821650488,0.618732871704704,0.5236781634746399,5.391335198397795,-1.18927564738066,0.4583881348532493,0.18426784537309543,0.6098407630772332
,-0.17060371914870087,1.4736893413711503,-0.12920805532860705,6.712137210385993,0.4664179511506108,-0.5742133895053664,-0.5888298915058958,0.16711192164940522,0.4236828706554277,-5.6273364362303,0.16353685016676114,0.06588483332886434,0.1412085432076824,-0.3981598808322806
,-0.2927862563026209,1.105994535569418,0.1597160311022294,6.663806905928516,0.13724291080171447,-0.4949246856862598,-0.7696937361884005,-0.27533608645482327,0.11110449685427291,2.2517045440075023,1.6217331043211136,-0.03445749790332301,0.2056238569198948,-0.1555999687473033
,-0.36155435250168105,-0.7488904494835106,0.26706737717649015,-6.13397636810731,-0.4168845978163552,-0.3087213350595765,-0.47045381642996253,-0.4896785674261893,-0.6535005644632098,4.741804743966562,0.05174844836054079,-0.01200242262157238,0.04158586968357712,0.9744158472590553
,-0.4687373340911243,-1.5910167601874217,0.25945573652830123,-2.5479210948453708,0.6685050656873663,0.131459169863278,0.22821021681321452,-0.2079863099862889,-0.55074434129139,16.102658282749015,-0.8587726400050671,0.018978715990624936,-0.042198415716303,1.2445735979503814
,0.1934481567014521,-1.1548993458649597,0.4234965608117028,10.948435650109886,1.0915105779149583,-0.4047518380405154,0.13355588572728974,0.005403060691503036,-0.6019719538875895,12.266342899627894,1.1406547910716887,0.3861570894550388,-0.35211156940764293,0.6165465856548152
,0.7429424141239114,-0.6735667825730975,0.3130980486373733,19.113130087827173,0.45218954553834967,0.028398202007948074,0.47044078959579894,0.03931151431536678,-0.7317344355107334,10.07581751116749,1.7624050167035525,0.46752241064635813,-0.4287042012532593,0.2758014021808664
,0.8017718703064212,-0.5333563098343741,0.8645364121024607,16.03821373052027,0.21712964463241877,-0.12958203098083387,0.3781846981543229,0.08453975191215997,0.5624481206511813,8.60641083671084,0.7872866697328581,0.28049886925086004,-0.5841824629996785,0.12495306780757037
,1.0270270111637592,0.28506457356517717,0.3319991986081524,5.0429117100889895,-0.28236288971845375,-1.2340231992752,-0.33319655994422076,0.19007213975946402,0.5495451097094225,-0.6537480757652144,-0.04152128370555256,-0.09004494811793966,-0.49050610663480926,0.0995467543323487
,0.6673567416946423,0.8136100543802448,-0.10510108539143925,1.7289360245509886,-0.7708031118407964,-1.4504706473823445,-0.5381093591373951,-0.2894999992863371,-0.12550095297108843,3.4062149546991876,0.320270654560116,-0.2781516436428384,0.15125931001871415,0.2709316668320456
,-0.22780228784142165,0.33986743086958643,0.05349910956508012,6.501659949562583,-0.31026100089694564,-0.20558154868811432,-0.023012735752411077,-0.5184338702700698,-0.22073501885463448,2.795981158155837,-0.6419593106768379,-0.03547386317081828,0.3710256408198802,0.10741094576989066
,-0.010149939412237354,-0.05907533223724357,0.01350024524620745,13.732286034207561,-0.1883441730711661,-0.09475877532377805,0.5016343698976354,0.13195397267280992,0.2953785541699025,-1.9205581698145575,-1.1564186300796033,0.013618780329529184,-0.1083402885029998,-0.4420364910176716
,0.561281577862073,-0.37794962353274536,0.08907984155782882,18.529397679278258,0.272218850952364,-0.5916458164345083,-0.07897839886356835,0.12758012099615987,0.470520206185426,-5.354592115663481,-0.38801772007258456,-0.06357722914899899,-0.4710260085502191,0.20084686093239093
,0.4441106464377595,-0.39720244975766605,0.0031539110908368707,14.062538385967661,0.3351718071372584,-0.7526740535248642,-0.11322435889901733,0.42005319356385873,0.7134684609628339,-8.02076945051856,-0.1807944751357088,0.3280665016852462,-0.3051511240426363,0.20606644575741487
,0.6356891364866938,-0.2107454802155434,0.1197238340790608,4.2211742003931185,0.6643524085385802,0.26145907807960594,0.9070498844822138,1.1105098483284352,0.83215820885657,-4.495786877968271,-0.41645520983759204,0.1834540934258537,-0.2801124721681211,0.5063523504880327
,0.326208056230357,0.08266605906186231,-0.3727859524845554,-6.462277941246152,-0.16390136248489354,-0.934177651738766,-0.24786210046507162,0.6899853377836248,0.5658725658853287,2.0594452782112267,-0.09137762058378843,-0.11519811462876818,-0.18695488085840872,0.669350640784708
,0.053997713130661804,0.5401331872323771,-0.511884011441219,-12.817274670072857,-0.1488837572212691,-0.8256354776979843,-0.45420785040484474,0.03296428356300533,0.7115222675160953,5.438164380817017,1.4155163773641708,-0.24881634490683094,0.035920274335447214,0.1768361328627196
,-0.3055911932424871,0.7347050305701779,-0.30255118252563323,-3.335708952167677,-0.1510513817231394,-0.8426251530857749,-0.51132771101743,-0.4007566817540463,-0.10981455739354257,2.9221787269821213,1.1778852411605905,0.04006474698304788,-0.10411721887031675,0.4924068506986478
,0.24743270342977866,0.5027381766206986,-0.03715942203853182,-3.014738654200622,0.22825892731829042,-0.9431886213445251,-0.37312914806924935,0.13099312533342802,0.24701825489607446,-2.6441140891143964,0.5400445469038616,-0.16682825431781534,0.07729147923766895,0.4213575452135541
,-0.06451263403861736,-0.07065780975603018,0.17616056520943177,10.989587643134156,0.2164263318742095,-1.0456010748168016,-0.45372936503212813,0.7230517652717847,0.31945954072039645,-2.930048253167014,-0.9346478330160338,0.08389599193734008,0.159200290463451,0.1833035611256669
,-0.04435089610545066,-0.07002004855578163,0.01966418240585523,25.604917174933682,-0.48384600005608863,-0.7887076371486142,-0.2908751951687043,0.14974146712538355,0.04686496615821879,14.442197802391108,-1.6324543920789139,0.6694965529204152,0.027329411195283013,0.3202235155502737
,0.25132966549807634,-0.06888112137689494,0.5609799845425293,13.992123508502686,-0.7345285022385671,-0.4265478767654174,-0.1354011358947174,-0.052348914532512655,0.01124518065543366,1.4754930671490567,-0.831113880800362,0.4793321648809498,-0.0910869888770072,-0.11072358507816689
,-0.32249288150475586,0.6579017058517443,0.6359575393648804,-7.990966766428131,-0.5676374501143625,-0.6875310949247193,-0.40043747416988584,0.0029556079228223145,0.5000187463134864,2.1898862566862323,1.316685004979963,0.5364986503856828,0.21507006771716292,-0.12139214419798511
,-0.77101702466692,0.666011454460791,-0.015173120403259773,-8.863389358199061,-0.8106320369150503,-0.8659114936111478,-0.7656322173812987,-0.48837558444023993,0.33265613860772864,0.620875519376428,3.098149215178475,-0.17494696611036764,0.48236920391331084,0.1445372728370398
,-0.055543341149148245,0.7908199163029631,-0.10135746909286228,1.3650664671896178,-0.49832556441030956,0.008659815443313108,-0.10314602046888714,-0.15366989250451735,0.249879699973959,-3.2303837821164603,1.8097455256357389,-0.4845679606280809,0.4293093966040076,0.441145559604474
,0.3431902128498225,-0.2027732043302431,0.12804394358026422,4.221415675468251,0.4702469893325289,-0.39693481970864075,0.27560287606350153,0.16226209071218192,0.5273301204259052,5.81697434800762,-0.12969921392334818,-0.04962800585424528,0.28065584453605275,-0.0035214570246810514
,0.5340616103470889,-0.07625407173303483,0.36865487249354717,4.5151666305254015,0.2836645676732166,0.2680047441503139,0.34304886881226415,0.26494462377738,0.26712662230298395,9.787872853289052,0.7466809964443379,0.31306139840717373,0.05408680242437917,0.12035032511851955
,0.34918749104513347,-0.1157912899245479,0.44387600760828677,7.384658398225445,0.024221789174044595,0.6554705392638521,0.007382847475147016,0.025151150000516452,0.4498939798197061,-0.6973894842501301,0.03912812050339071,0.7255604971299965,-0.0687951477428808,0.6192857535785687
,0.3672708888705937,-0.21177427593565887,0.18848925614845616,10.536044303639626,0.010809536972683963,0.0003060584421575169,-0.22409787879839999,-0.18659550843968845,0.2987895115576578,3.0758733033817163,-0.6173266924262099,0.15392645288403584,0.005778494590818859,0.5542700738186536
,0.5137590432400102,-0.5663782074013911,0.13696336608336296,-2.4935440081952294,-0.828514613231808,0.04454242917086204,-0.03758555927026677,-0.03368295647511208,-0.04607222076326186,10.6297036823822,0.135906774233349,-0.10265156401169086,-0.061322098465458524,0.5393450191548612
,0.4025541615553495,-0.02612348794587057,-0.18306367981430344,-3.393173106304815,-1.1475920930602992,-0.23770314095210757,-0.07738047007298904,-0.04244389559992555,-0.19847339705560324,6.074547190116862,-0.5756572329526737,-0.12682038612713106,0.057904427813627236,0.513618877699979
,0.16087433040765453,1.3913869639924963,-0.05608301512879839,-13.355751645623391,-0.48348647170427883,-0.8086656813373947,-0.6709390234105803,-0.5097957821369785,-0.04451495355995963,4.027829606172615,-0.2690068121567038,-0.03672442822280127,0.1810772714209045,0.3784849273260973
,-0.8598209219043004,1.9505804574078693,-0.3713880164443381,-23.071518973584226,-0.560964940649273,-1.3871024829153311,-1.253673252634665,-0.602345988385722,0.22147920641830415,1.7838307436473835,-0.06581839944512954,-0.45832461284012804,0.3624148424051093,0.026183561888157292
,-1.0963695434412675,1.5352165845197665,-0.4196029007428163,-13.5173977858688,0.5538655664711507,-0.585158188759579,-0.5997502284354772,0.015572749480964916,0.4605909084918812,7.578217981011709,-0.1332651453711896,-0.1330136753402267,0.5379195474218618,0.15460974478005982
,-0.06739531001538597,1.1208485589881343,-0.18618686922515565,-0.180254607269621,0.7041256042968689,0.42461290327910894,-0.11742493063290098,0.40323933377528703,0.14772819910667112,-4.558515398954189,0.0641142980941257,0.05672415077222599,0.3054154867766596,0.002130119116889568
,-0.35443376193855236,0.36647234937900697,-0.061087662669157834,10.317206700400504,-0.6078172420092095,0.7505225384517505,-0.04794247540151281,-0.020985382763128366,-0.2775753119995558,-10.745398008128314,-0.5887411121829157,-0.047942577504582765,-0.20684271012772892,0.453527797044692
,-0.2614808302403666,0.018593353080485247,-0.1042706878199995,8.562871447066504,-0.4686543708700173,0.9487197328784627,0.45668537755414645,-0.2901168471989574,-0.22485049215063352,-7.419622661876727,-0.15018751940343436,-0.06912532658853524,-0.04313289558826373,0.8019769297431815
,-0.32885793338485353,0.271659913377882,-0.28468384494282967,6.453571522517096,-0.7390384594401695,0.5417105286136472,-0.08107169293090212,-0.04715043351215813,-0.18214467333516596,4.223572019317181,0.28272338921022794,0.17865225241301583,0.0778256124722055,0.7141333260773669
,0.13518367495142025,-0.34048924306038625,-0.1411806337266148,-1.9814236415411755,0.1301075193171481,0.5439448264123059,0.1328439492512985,0.6417456499977078,0.07239646904880821,5.458473543783342,0.39691921550218473,0.29961054990197344,0.0889413749829062,0.3521520609163076
,0.7117986839762575,0.2143312016964299,-0.0708550883323501,-7.664492067644457,-0.6411143627627883,-0.4031919333190677,-0.06236006399564286,0.28850499116621675,0.12649376334248663,-6.997702093984118,0.24554685237650475,-0.017822465147548705,0.15860727167183228,-0.2697371618325344
,0.3281421526820013,1.0909608698996864,-0.48360181180946465,-11.489538722805579,-1.773510700082173,-0.8075761221919016,-0.4426195429364303,-0.4949899021918376,-0.08571965415004908,-0.1903431723671324,1.168070816146125,-0.7856832836458129,0.5219307940675595,-0.648736599995615
,0.08603927539110863,0.5580819116107426,-0.2756734451566219,1.4545495975343743,-1.2323593434322895,-0.4978283184317541,-0.23330949279392427,-0.6824186378660096,-0.5071552686250361,6.155727729349991,-0.9184202283820967,-0.35230040668283497,0.29682829144369066,0.010967641375203164
,0.5645175059812815,-0.49563061542038955,0.12457515512544146,-2.7451167307599316,0.15581604746178104,0.12462927302606838,-0.18908462135137133,0.02508748437826537,-0.43102481696754313,3.6705222064963907,-1.4964512170739555,0.3244774082467954,-0.09287551685777216,-1.6963840635591316
,0.48717519236231266,-0.6609353582528454,0.4594584200279424,0.07548931935939726,-0.32874673138645594,-0.17112554662449186,-0.18738601156305412,-0.24357317203135065,-0.3831370837441149,1.3044214545420638,-1.5932805259001943,0.34442978753183223,-0.28694014331811624,-1.8900842570327534
,-0.13258068941267423,-0.5081049812703732,0.2675305114925835,9.686088501731968,-0.15885294738935835,-0.4206452425802351,0.051755060167391856,0.029705355809123434,-0.0269031223154656,-4.740184459516073,-0.13940959381954904,0.11624424202310515,-0.32076236716096984,-0.6322956961240326
,0.3696979047894525,-1.0850677128489752,0.46258565012739106,9.743163718703101,0.02258666369787812,0.05829176942656416,0.6084598317594838,0.2660852463717271,0.43168216768871814,-5.130605981644268,-0.2627515530633447,-0.08284120469058756,-0.23686926727894217,-0.14617210496166666
,0.4563646956472279,-1.3087422800229813,0.3345464062866564,1.1276169386218013,0.19708634880666578,0.7304860364209957,0.43530148258821805,0.2726506023991306,0.4340618299905159,-0.7168647076230714,-0.12616920888868197,0.14569667069121822,-0.5751281994688117,0.5990780632566559
,-0.46273178756517996,-0.8271409293405881,0.10585644251068652,-6.531822103695574,0.3657739628526566,0.20236652599508656,0.451894622617196,0.19351323599416942,-0.23191112675492453,1.3499992181605778,1.0077470097661025,0.3641305933998239,-0.07470191908945469,-0.28509574238337054
,-0.12211781527992398,-0.34247526630285935,0.27759448703057915,-6.141547844379863,0.00134798391863793,-0.1780973561864046,0.5533107289139761,-0.314258196613212,0.032171897957793724,-8.914027353377294,0.3568653506738338,0.0987633925180126,-0.02928649343596953,0.015512674566128006
,-0.11289927332158835,-0.019169324040382688,0.05512546853315502,1.4301918057469682,0.2906733257542537,-0.7416198477105715,-0.34928651592960236,-0.3653257556594181,0.42209091829552176,5.158485260055856,-0.16557909269996554,0.10158238077906948,-0.23698064392248033,0.9741861568779946
,-0.28962764331640717,0.0470606989459516,-0.08424501180241964,-5.5251308486933315,0.8577545288820773,-0.24822849974502292,-0.41343716800291047,-0.2768033119746017,0.14988038855221775,6.198496814008335,-0.09676510475613459,-0.16202326331363587,0.07007407469291581,0.4606884124722433
,0.12561974069966392,0.0358517311385049,-0.04431926192259721,-0.2649775499366234,1.090447589945534,0.12694018847258937,0.09604836622199922,0.2710686162330913,0.09951028589176485,-3.308178415929532,0.8114212336301003,-0.16751076240891044,0.1628367694503394,0.1664288593712754
,-0.036044238564528916,0.3286785379231924,0.06843467701559267,7.190952350913235,1.5805090159678092,-0.3987532674275501,-0.06262667509998164,0.32844837420498707,-0.026185278323890934,11.623526026675274,1.3376121361422564,-0.21204846295439803,-0.11685906673146293,0.8631138402911072
R,-0.6837907386310618,1.0628174489637503,-0.4932773259693636,-5.72757936141418,-0.2920154841672993,-0.823304961654312,-0.6551907379995884,-0.5010673286311123,-0.14112732526620653,12.76805169436605,-0.01128963028112173,-0.7660475431305056,0.10336836879016366,0.6328605091872229
,-0.7022466233888695,1.2612701740424566,-0.34717981290600586,-9.47934299057881,-0.7060804915875605,-0.555909461173872,-0.6405797708141044,-0.8443949843550891,-0.44715281465619316,-1.7737864307200173,0.2995572794101491,-0.39155682220108073,0.36682209296246776,-0.04977453021572526
,-0.16448247865288837,1.266979498397415,0.01138004445201941,-16.481029351510376,-0.1515866458402797,-0.3514860147174732,-0.19956768638838487,-0.12858130234174184,-0.19560839370312055,-6.125643707108179,0.954142966349385,0.04158870942253021,0.20202950802581748,-0.31781316303702745
,0.6569068289296844,-0.2546013645158093,0.21472636148096677,1.967617300130892,-0.047497517328783156,-0.24927541525186658,0.6102484648242624,0.43469016176066316,0.5845096366779949,-12.109487637823987,0.6622214226373483,0.7738581410103648,-0.0008090563326215251,0.34779093886386314
,0.6840822646717432,-0.6447597319257861,0.3141490644466948,13.207947871477,0.06572327837808575,0.006947469263112347,0.35302490149983257,0.5127458381368754,0.2445826894193762,-5.056927751630227,0.8724803511120421,0.5759990491758117,0.09392461589466221,0.9505688156558888
,0.46957440147076873,-0.1145558951005201,0.24131682415725056,5.650780328320751,1.1895929569938999,0.04064973941502587,0.209964560161639,0.32534580230002247,-0.14027473799159382,7.362330565831834,0.12244355252974272,-0.005683972390108631,-0.18271567192888669,0.7517146114903803
,0.9003566140447374,-0.8164241988672829,0.1922699763264049,6.609090940316624,1.6700550832332044,-0.07280570456188341,-0.6941994309672589,-0.22547135928290285,-0.3978747772891951,1.4783078013094102,-0.5629226627459194,0.4472792803084068,-0.4005131164396078,0.8788822239487954
,1.1346487352401815,-0.3963447713585515,-0.23349429437258937,10.392841274740515,1.4558290253949107,-0.12033175843722317,-1.26503635521763,-0.15922961466965865,-0.4261696105033563,-4.399591163661609,-0.7940054623391424,0.4950805275566789,-0.6316764481600335,0.9614796079810684
,0.891714428610714,0.23934471088538098,-0.019766219485886694,2.564907728773961,0.5415883104389114,-0.10097590668759138,-0.38224931586815475,0.058046620749461264,-0.06955269940364055,2.7999378859483888,0.411737206108747,0.26119438549858276,-0.3299517441991577,1.030411277463612
,0.45998888575843316,-0.5080908194151402,0.24932316194407916,10.71363059691846,0.3224294965803223,-0.40569042925030174,-0.15215638371641585,-0.1435690742535347,-0.24096617920815436,4.429944914518445,0.7737102038519811,-0.19375132573831538,-0.13761173799952925,0.6133353278770362
,-0.3802817774144043,-1.0049528318571168,0.017093317134067348,11.593967883455683,0.8166744335733905,0.06650235697146303,-0.07319422376585952,-0.26660190592280636,-0.24954949389020836,3.0564537623437342,-0.2948989965143688,-0.10761297856015371,0.02039270610158954,0.0078938234009808
,-0.44987769885151396,-0.050266365655401594,0.13868508463153326,11.04240646380022,-0.22115218943880102,0.889515459027274,-0.24753162976162335,0.28604305544779046,0.3367030504046288,8.743218560143418,-0.005886514231183256,0.37553213100412475,-0.2501629056859176,0.1633216688903075
,-0.5287415104960107,-0.1306945312801933,-0.31939443186712346,1.8569332917526453,-0.43512285226473973,0.25811167522686873,-0.3959311905802064,-0.06337689625515557,0.28942482890527715,15.388745579467598,0.6888720963310975,-0.39287633433946534,0.1761705347331121,0.3728312935275687
,-0.22451600904176647,0.27894159764396254,-0.19175806862386643,-0.25268383993919225,0.45247865593366066,-0.4331081789340233,-0.44054028706430914,-0.4573506434781358,-0.03919980203946344,9.943825866133992,0.5426215765569882,-0.4962629373409412,0.23579296642282627,0.32957363536023027
,0.17369077164002836,0.5449318087474718,0.3450622068249961,-0.8242629984083104,1.9246506224802207,-0.23060360902279278,-0.24819955358521828,-0.3591019981054314,-0.01812817828065945,9.852468399512397,-0.2725031233984071,0.47628898046132706,0.06066443753910312,0.47898859732839344
,-0.09840568513917614,-0.8452683730475883,0.5092535427427327,16.76419819813348,1.6380315789661593,0.5000335192470822,0.1822577101922923,0.08775354091553988,0.35531032451743527,11.288763140806855,-1.4718504307955502,0.2818295612884545,0.0640261637074639,1.335423855311792
,0.1823006936124288,-1.269767067442111,0.235567718494519,7.097850163240167,0.9211309941532879,0.46334286764149235,-0.15215072780494643,0.796894082497906,0.36574647062298565,-7.905049288461917,-0.5280012216514313,0.1871278103949847,-0.13809232683399475,1.686050807640659
,0.23287764603150188,-0.9397088563549381,0.3845322767614342,7.515928980881503,0.14752920989924526,0.028490727058543885,-0.23533019079036427,0.29898236340435685,0.49780260288425293,-1.879321372889452,1.3709163435292757,0.41614288517296355,-0.5084111057705488,0.8609029117345418
,0.5771125244283627,-0.7912286268036013,0.8694933411182709,17.974289814237274,0.24674298977263245,-0.6221385117118707,0.20989381706558227,-0.018440018608632223,0.2567271850564692,1.9211716393307887,1.3620892840070657,0.6103284279902029,-0.29947227813842237,0.8112571766897949
,1.4059805904084943,-0.7094882065094485,0.9717901009984153,15.05336512214179,0.7595057715328445,-0.005254743698618216,0.22108478073319168,0.15660550095678072,0.19071686504081736,-0.386899808363056,-1.139275370129593,0.5527820510483449,-0.2857025745835243,0.35941779164596144
,1.9565755596119623,-0.869982610816381,1.030688023963146,18.51776662489282,1.147827500655704,0.4364438523377186,-0.007664594170188733,0.8106293980162559,-0.014702403296687629,-17.697130666972107,-0.22494603017610912,0.6987007797761976,-0.3144533495577642,-0.0027088843552556994
,1.362073909511332,-1.5994337311688855,0.8739384641242438,18.752607419191467,2.081793057771809,0.7363356163105909,0.17902223356622213,1.0433499249028038,0.45539918120851347,-13.40334495198914,-0.7254198823369283,1.0025109916560515,-0.5284568746117121,0.4573051563141362
,1.2550442965424407,-1.3135175935923984,0.26864113712874915,21.708029373679285,2.008510773771542,1.3969334037723617,0.17338500509750993,0.9970654672709273,0.1138363308877623,-1.935075299090487,-0.010379495337284347,0.7064454065182364,-0.2812641264359843,0.6736929987415035
,0.800269218094695,-1.6075318411856439,-0.33756059588098797,16.705796053906866,1.7092022396987825,0.9475942308046921,-0.05312243139756761,0.5628176963346628,-0.20479165016866913,0.6165189684697324,-0.649494530642862,0.2074289374327254,0.048424196506097215,1.0163146441698596
,0.33568431035079904,-2.0675388497650493,-0.055244294967663525,22.19518141874814,1.472116854079841,-0.07845742349201756,-0.08696310445001422,-0.013987493478353671,0.20792415897480138,1.388917712178245,-1.8329698618502837,0.3424979437735185,-0.08965276188762274,1.0591319535740928
,0.520643674808235,-1.6085761522478967,0.23416575611544874,12.559968189388952,0.9896513141074473,0.11131061067509102,0.5906753976043101,0.19166713378631065,0.6908907513032693,0.7841938766699559,-1.4274301007239665,0.7453523869788378,-0.2442397174001309,0.7631766579965943
,-0.3392040073593216,-1.0192273794557385,0.17573711637068587,7.504002925219486,1.3117199138245674,0.41000886300185413,0.42343638369146075,0.11082793893886844,0.5668573912067862,-6.6199492287079185,-0.17143779406632287,1.3256105931855355,-0.09906812297283968,0.39633620282009907
,-0.19777111865491143,-0.5382846728956775,0.38644899538495925,5.8342687361881485,1.4333940176648832,0.4656616769505019,0.2751855037552154,-0.09612158654841109,0.24826559163741635,-3.1037290879224533,-0.016644160612761368,0.6786077454083176,0.0731495567462245,0.7443977917996992
,1.2538616460381888,-0.5181216192930502,0.7460323273605175,13.367052692525045,0.9600966070760174,0.8794139836738628,0.7726833833539348,-0.05374609246573898,-0.4334969585491475,4.815104273845103,0.3637332240787924,0.5335176422233687,-0.44788419071070223,1.1219869195786754
,1.3775539275591562,-0.7675982609951979,0.7789193386453653,13.093948678196499,0.9368236368417469,0.610527836154374,0.9381462341045284,-0.029819490091914026,-0.07531300876396992,3.209564779592318,-0.03788368397528917,0.3953604730141692,-0.3701954730421599,1.1686637108890563
,0.6291250378687031,-0.6430756858035706,0.6349871107585128,16.023521014576012,1.0965015927235164,0.7399882224354547,0.654749788126226,-0.024245748838035486,0.014894734984067428,1.1411349953300955,0.17625207708722185,0.42153861437404433,-0.00458724383044059,1.275947157478108
,0.6000279051570632,-0.95460025738713,0.769025657759481,16.07637212337496,0.3408065872315981,0.16202307161973756,0.4248618682062894,0.35795231593054844,-0.12462042132455822,-0.9196630112868239,0.4108960860173982,0.4207804423468384,-0.004665062543397591,0.8720069350844717
,0.4090522769028649,-0.8048367764448611,0.22374586531867455,7.492878351701047,0.4676134882958478,0.08784057831599153,0.2547325835654709,0.5111897520420752,-0.10710085027257103,2.9691352327815563,-0.14208815459501725,0.26546799712039865,-0.21192419358111056,1.0068010620938435
,0.3358922097939163,-0.6833646163996638,-0.19192693396697852,17.63085417377438,1.3367155305368665,0.09645770050109444,-0.18060925507176057,-0.1326641409209605,0.2831095175764931,6.362027227908132,0.27807138866379705,-0.06805303181066721,-0.38829488684360364,1.1544055193964713
,0.7058795052350056,-1.1215911803004048,0.10341515628505861,18.29814121938383,1.2766169263033413,0.36039975653085315,0.32124683976513474,0.09565396821823725,0.9276482282706857,2.634646218278523,0.630612768744941,0.16049225662444738,-0.40832977904522766,1.061933223424211
,0.2724987151760992,-0.773688114611269,0.4388165689363686,23.665634421207788,1.813142112036799,0.24304613847620385,0.7104332240063235,0.1459415558409535,-0.03464923837106973,-3.3619686774667454,0.9668394357616305,0.24421109917395584,-0.12692939141372192,0.4994935707980687
,0.16214085504438083,-1.02578640904997,-0.01561507173752217,13.643478903414419,2.044762125909624,0.895815822927094,0.6209255152244838,0.3138316487271838,-0.4993064067790876,-4.380952590139573,0.10962474472856412,0.21411141752281784,0.19569718145161114,0.6966259333133071
,0.8130135210412409,-1.3503026942225027,0.025506238561959594,26.704875827377553,1.7122642768442626,0.6802519506448772,0.2634139982879445,0.6292924135338801,0.04143722502819756,-4.929818614522605,-0.4818065137667486,0.5826032281489969,0.038398866507003984,0.5568678634181093
,1.0513802559286027,-1.5004862673615165,0.7116042086011599,28.554838637059717,1.4496079762957192,0.1773787203931397,-1.5408439154596856,0.5832926695831112,0.2345440892582987,-6.665801386807327,-0.9221935341044325,0.9904218198998267,-0.3829963186781293,1.0483477975455582
,0.7034517859164994,-1.0223855946750124,0.8915503768987866,20.29889383467061,0.7507025370068501,-0.09402648568010805,-2.004344334393186,0.8032821703032876,0.4336323877730538,-0.20468043469408523,-0.1971219526670868,1.1273155526953351,-0.21071264559770495,0.9194169915273079
,-0.19770780664196339,-0.1994387248133552,0.09918345424865342,15.053326118845057,1.5314794335362445,-0.04055788634341421,-0.42280522870530307,0.45408636858823687,-0.06356930152406332,5.036621184584542,-0.2664831772699473,0.6906360751097528,-0.3537290602772666,0.20559368871886646
,-0.4805994432273643,0.6157585792606634,0.08728463724485963,1.9684140612303453,0.8880918614326222,0.15606273519336886,-0.09737605287890724,-0.08970798445374983,-0.1613186720469741,13.87498998962953,0.47982255194618173,0.24685786936118162,-0.4472821616684702,0.2895124389276671
,-0.22789409425905457,0.8006559596841518,-0.1674456309300863,3.740881801891104,0.41758426601228005,0.1993143642511289,-0.13516863070985718,-0.1594655231390965,0.07540575150541709,9.933355244065288,0.4970622892044246,-0.2994661751935771,-0.01840290414644235,0.568502042923923
,-0.11796667035582482,0.402762428568484,0.010787221018654172,12.731988520416452,0.25591400173770423,0.0067538117339874275,-0.2738510263324505,0.35712904987534655,-0.11207133516928874,13.69828942001107,1.0038751675262005,0.11375383772105255,-0.019600284962478516,0.8191232413304093
,-0.19894327670472148,-0.15686525605534027,0.4426214327798311,9.95772688430786,-0.211576930424007,0.03796681923055782,-0.1956804114405603,0.531377581905859,0.13253073033727286,10.819811460157435,0.7776817490539495,0.05167643084239125,-0.40639445255905243,1.0931398996596775
,0.19455443180871945,0.26189959022047,0.46384447840302284,14.875053750846414,-1.0025868574863077,0.14604625281581188,0.33038023639608727,0.21211437356706586,0.18247425720873642,3.004583612737415,-0.5135313671528853,-0.021437931501612335,-0.13534343470627563,0.7286950521811183
,0.05497433169235793,0.20728308520290056,0.5090607720173002,-2.9359147645325487,-0.26934212246981637,-0.41925043902495074,0.3096292581105533,-0.10274034957362688,-0.005193879206139748,1.687429418858538,-0.3826784981966146,0.725356529950869,0.00032664044716888206,0.8528295519772003
,0.1897739145987767,-0.4403669384168901,0.17466946678455753,-5.387135387177775,0.9463380867826349,-0.48213652972289384,0.20584868533140652,-0.22868450037432864,0.2970340069985691,5.591727702113332,-0.20236729397626252,0.3211359425421072,0.11573839194923788,0.7880926457899083
,0.5330394323864595,-1.0230319943716022,0.33864251103613585,6.018450120201774,1.5353978018642118,0.039923761819009765,0.20845171203037302,0.25054734741790996,0.1986946004540705,20.655304530867802,0.024567738831123367,0.16725870130471168,-0.1623877936508121,1.1482318768565873
,-0.005207412544194942,-0.7021111746096671,0.5200260504498228,23.406252804834633,0.5347902842587743,-0.20019755794943306,-0.007413603001857446,-0.17179452215372695,-0.09214365179782621,11.811440415185984,0.4309884429925985,0.2656680613798676,-0.31256069701808653,0.7979641627603885
,-0.17846334473110684,-0.5938821789899095,0.05950847510678292,23.09926816063389,0.28832796356860174,-0.32826131759316723,-0.2703739015196725,-0.1404227727383732,0.5672422825883278,6.803936684377678,0.4602542747298722,0.3434693895123416,-0.15521670053321085,0.9625922103228053
,0.14628977101525678,-0.17999165773585166,0.12870637075533686,21.779959767361515,1.0331832240192182,-0.3117750782759494,0.1547921991740319,-0.005633983375789135,0.754180398239238,-7.08243671323949,0.46193525958957576,0.4657910316432563,-0.6299637802201357,1.0611959666802133
,-0.16396336775866246,-0.45112764046383125,0.29409159402965973,15.805705894908014,0.02051033067655344,-0.6683154352310048,-0.43356976196705505,0.5565642298432264,0.5773437109354951,-10.011320604204615,0.36369599544838477,0.09847692068821044,-0.7338151944016923,0.6803016644645896
,0.3218630733095641,-0.0572047637381424,0.3047170052909925,13.827407103133712,-0.1390068556798468,-0.17742225787587054,-0.34100710092846426,0.07837041760387792,0.3207769592881544,7.344452364752317,-0.42221365604792854,0.48082163815851703,-0.44242752085650927,0.6023974449513986
,0.07839886956952415,-0.20052273341528454,0.37374929813125385,16.350554477099973,-0.05049462248286732,0.6688976175234931,0.5946311251862486,-0.1276545779958346,0.2615631493693353,6.514597649975918,-0.07643712640163525,0.19515729042373764,-0.23342410953278012,0.3050068310016926
,-0.5019189018480487,-0.7297305941770712,0.4764463624183036,6.868334258386479,1.0464130448551663,1.0626356303574662,0.7392900565275115,0.057801855198970374,0.24374439093827976,-5.01644660906535,-0.37157061105625766,0.06485016050334264,-0.24782924661658154,0.31882446600314795
,-0.5373766692664173,-0.5571514883025057,-0.012045412337508435,-6.03855478551106,2.030892196322642,0.16123845102599652,-0.09484853398142225,0.29321446253251676,0.27980203682287,0.7304773041434778,1.3517866777483736,0.6252534574599609,-0.21700360832087673,0.3764527943041525
,-0.007919675329429901,-0.8051211393939233,-0.07058628111052642,4.365297198378483,1.8494688998885882,0.0020482321296013233,-0.35716009984044045,0.11806940676884804,0.60252770045683,7.711139825838513,1.449881609853801,0.2620849495788823,-0.25508695347667165,0.12179063474062564
,0.8420582098027346,-1.1948639533959715,-0.031684357074975404,8.16641454222642,1.1123426538122891,-0.1241185931219345,0.15649009587712442,0.4662152116191026,0.2762527173154693,4.305568676310812,0.06418357665351876,-0.010812330841819694,-0.15622229081032663,0.5456648255326594
,1.0689561036186526,-0.7600110251568186,0.037002582807434695,6.717037796784119,1.1734393350605379,0.16101218558283367,0.28067505961508665,0.12510951713097018,-0.2357744591798832,4.080949215511988,0.15194698087506636,-0.22775559419223404,-0.2817325339292064,0.5303697731979654
,0.12700401988061844,-1.0548700108440112,0.3263019296479893,13.14709936928044,0.5166829733859172,0.13361159670483713,0.480008652874095,0.10671665430029677,-0.053056940500691624,5.245663366140658,-0.5089266566847827,0.3014611637565764,-0.36466089306985183,1.0059094696020523
,0.2178716780870058,-1.037613314336084,0.20071909063779492,12.238104447037067,0.9141777550122661,-0.6384511722128091,0.9047213923100663,0.4129834962687766,0.23777257364759782,1.590750146656063,0.3165310412918337,0.22424071590309735,-0.15179919518352875,1.3056330541234533
,0.2141466421571669,-0.9815561520200737,0.15868194649562783,7.315759430032761,0.7768308887486444,-0.17947479871133926,0.41330682920245343,0.48575448685144323,0.03660161968349511,-8.577629610880646,0.997091162566835,0.4774774486074159,-0.08159470880207238,0.8348556576721794
,0.08031981806505117,-0.9648302567316487,0.7266767778133211,15.14868017802319,0.4111994189317741,0.021170470571428044,0.29225144431395556,0.795141164583758,0.08262204717854772,2.3645759851064967,1.1161877247084917,0.28598603201705125,-0.3011055396476353,1.3131174567222734
,0.08787250458849316,-1.3467951911324172,1.0021599857410861,10.628088175989147,1.0288469400937177,-0.04290933005795817,0.017424755222137385,1.455642989151953,0.5299297256293612,6.308031808095147,1.1489464147151787,0.29423254544108723,-0.661216281616479,1.3847225573042414
,0.015239822870566104,-1.1380249577117905,0.6145454470517898,7.726371886086353,0.8350290860871306,0.05512261913805262,0.17045667128434122,1.4869607577215866,0.848716180083284,0.6343431630766082,-0.6568311923576319,0.3033602688926794,-0.41980008530962853,0.9665878667293414
,-0.013442434032568985,-0.8417523551064247,0.5993239374062324,10.939315837921988,0.6672161501402386,0.0021401336666475833,0.5297085029311941,0.9197094101878258,0.1329563592249551,4.218348831716945,-0.25748420819782225,0.5647071427389951,-0.5325900852868222,0.7467801033959988
,0.47868850865748364,-1.0531506249908318,0.769623246016631,6.753136677546065,0.6626201026569105,0.24611553815658183,0.5007230579288595,0.6159940902085514,-0.11735518398725901,-0.450485371973782,-0.008761763356549839,0.24533032429474322,-0.38184890816386446,0.31840814967435327
,0.259501456916678,-0.15352428069465224,0.48781004225948466,2.089428863288739,0.8556090778673878,-0.3706364767234449,-0.3543373613090145,0.5428409156897973,0.3018828706241349,-9.511432629495685,-1.5291447691209252,0.4078294509305212,0.02081197487784329,0.5282952692661756
,0.5059419555412805,-0.01114317183541888,0.5137672857012715,17.075730806197473,1.3076108052276847,-0.044249452615012126,-0.15669846727168332,0.14781577000857593,0.5785661676630257,-7.306220704220863,-1.2400571821415554,0.3531334801859384,0.07262298750000408,0.18119101530189072
,-0.027685361368905825,-0.776734103744548,0.32100973498744056,19.0133555235569,1.1469596081038749,0.3232405468454607,0.4024849706120043,0.17729704147357558,0.9125539172686971,1.1488797570271803,0.14574059418114566,0.6340002099976471,-0.22950925719326634,0.23548178683346668
,-0.5715946061752765,-0.9024536044373739,0.2881021319356374,23.129496945259866,0.32296109868413425,-0.23718663046076632,0.08032361737260346,0.6591277053589013,1.0570284897275746,3.6259670670399227,1.23896185508663,0.2580354105581736,0.011441668371577767,0.8358583720880965
,0.013592780185702159,-0.5226114495365721,0.2374527078221257,8.030412986758492,0.2641761983938037,-0.2496923550657075,0.3148387342818665,0.2552821761738541,0.5747728639391672,-5.645136662707543,0.9644679397097332,0.20905487814408968,0.034270897161547485,0.8197520214648337
,0.6984515898986161,-0.3678575401893629,0.12216929689480056,-3.438550839804352,1.4143729725122896,0.2718909007554351,0.5693087067503183,-0.022316569355931924,-0.2133640479010448,-8.583709887812578,-0.09570787671269693,0.4313835468569393,0.01337489534155429,0.028272984585606495
,0.38529008756644956,0.03173391187409135,0.15626646266299127,1.5080839608034056,0.3501671900161919,0.17439837664951374,0.21647138278138675,-0.2971065133380908,-0.18220259398980132,-3.4251446248224693,-0.8438666129901361,-0.031371911350324806,0.005100568945499882,0.41495500452135414
,0.5423365403832445,-0.18635715063162364,0.20277819132364366,17.320083907540653,-0.02402850260363048,0.66114474323588,0.5114537297268219,0.029057494361225303,0.05225496228376653,1.5926272454381825,-1.9143572419779464,0.390952325353533,-0.3455430268285079,1.1134774860952732
,0.4634800848092514,-0.8846675036242013,0.19410884093458328,13.954915985087798,0.6289938640156384,-0.0010152210700146956,-0.03977843405325405,-0.10101528043794557,0.7063585754972443,-2.727997242108524,-2.1147524448299597,0.47748245284978,0.12405087429950389,1.26811916750211
,0.029432151928402258,-0.6861680071483172,0.32187925271343976,9.705239358433756,0.8656375497754112,-0.45888184977542784,-0.494468301444704,-0.0343315858240904,0.6854244120650034,6.063082882769823,-0.06241140945513577,0.37813934370179486,0.28100159377045564,0.5654439459760644
,-0.1707827889267505,-0.4748724333716475,0.20397006163782402,10.616189772972286,0.48731076260411804,-0.1494787888716266,-0.1849519711560511,0.14264947510966228,0.36419617551889566,2.8477803981007366,0.7842684135550102,0.706811302477313,-0.16327259765479957,0.10698336336887383
,0.051229499777813194,-0.4380484766725237,0.03742002897280233,12.45118315339156,1.3317665069188485,0.34849702745237326,-0.2441427709518516,-0.10357814753550006,0.5143366665580846,-0.16646971892169207,0.1703203917466872,0.13186930896099472,-0.21453607906950062,0.3208375053278437
,0.4823162547166014,-0.24486385315928227,0.36468528148255097,20.275506438388142,2.0141087758422835,0.0320431704169682,-0.15375824838732965,0.23017990205918917,0.5028072100506266,12.142894934020646,0.6075532718816913,-0.10600186483302763,-0.3518061824540049,0.4515334027774568
,0.6767879468566895,-0.16018761508697218,1.1680812682023047,6.915767251355249,2.134573271210848,-0.6673466906545535,-0.41831063390032125,0.11910756009020632,0.11091255336304848,-3.683302076810232,1.5777690337809658,0.3179343141758597,-0.7463507413901925,0.4533384838009257
,0.14542350948394078,-0.6876426845894862,0.9044215783707579,-4.725753608665908,2.3941841881468235,-0.74580165257644,-0.12026291464069655,0.26136616812082186,0.14885907039693838,-10.24224290973561,-0.01007946118855247,0.6216967834723882,-0.5221341078336286,0.5229108911462208
,0.15702312667940946,0.3467559425128664,0.7628533224531536,1.1384083574843442,1.7272378465136091,-0.7428052179206018,-0.024597870465180645,0.06499934469059271,0.24117635429053502,-0.438187533117011,0.1050691622587107,0.2459454794011736,-0.3988911697956493,0.6565915310410361
,0.5294178592717128,-0.05693045831756306,0.7309114024219425,-0.8427582360608846,0.9186389429601831,-0.4268143466310438,-0.11903345886411458,0.050589466947280254,0.5630293657395444,6.246336764912423,-0.23765147306551354,0.25792261199142025,-0.3380942039332739,0.9006178726718764
,0.6345522661905924,0.4716086551679033,0.22233442324662225,0.970342099032889,0.5476355960216925,-0.06702525509403476,0.15535759410879277,0.114568244745673,0.6190582523717272,5.5277810404171595,-1.0349560492911152,0.01720389158406776,-0.054072744544575155,1.0977504867902639
,-0.01630254915322535,0.7484688233632046,0.16383909848770864,-6.947142107128548,-0.07368678716127704,-0.7347694561879922,0.30796297861820393,0.2313475608795136,0.8230661028541385,3.215090500742531,-0.44209682990745336,0.5521599593918174,-0.5236176610886357,0.5189630323820396
,0.13281794853158915,0.3340180419566044,-0.014982299769484815,1.1155351229287163,0.6789200961744168,-1.1249646570109018,-0.08372661249097169,0.4559536391690933,0.5840550229300449,7.552302947377378,0.2411440564309782,0.5603026314518025,-0.778655539875489,0.4024359191731984
,0.29935963616601285,0.7898494777835455,-0.0710740403316564,12.560851167376311,0.9714035711583104,-0.6568950572941127,0.0055406219639911585,0.5211039725689655,0.19323137787141376,1.666962146798134,0.36051691740283126,0.3828593047346349,-0.36398438313597004,0.32314321684918057
,0.028158748853355297,0.9505276802880174,0.7372320840026644,9.59486261687431,1.047739076732337,-0.18814442827411748,0.29191653020172015,0.7309902884223245,0.1910220448570904,9.474034917088208,0.23125347647136488,-0.27899407015902455,-0.16626389950808804,0.5290290881775043
,0.06448635791002652,-0.04914214543043992,0.5996678827896447,-1.4744523093290742,0.522549549952675,-0.5734981116501991,0.06631904000868738,0.856932839292906,0.17146864392635286,8.036061043772413,0.5461007726506059,-0.1804604120834659,0.15208372041823853,0.8828791479702481
,-0.009124647341239918,-0.19523934760127262,0.5418001228745016,-3.566546712058262,0.855509943029965,-0.14279711409438145,0.23293041660346883,0.3541127452302006,-0.020146924698327583,1.7008942628927695,0.9323848560002443,0.3117105249265982,0.29620412396814383,0.9201061415901963
,-0.27380843677771133,0.15078820612282628,0.7082741124100862,4.859134409225422,0.32633217203706305,-0.2617314268323239,-0.08507658595768651,0.03746314905880547,-0.06962548004848125,3.4414398954229894,0.032524089543837786,0.5731509603269768,0.6201279585544421,0.43713856925422195
,-0.17626678372347243,0.18958032190421648,0.2794705594917207,-4.68316002330099,0.09778728415054794,-0.01580750056690611,-0.4086815685465925,-0.24039270171906432,-0.1061196271341618,-4.941221704569683,-1.2601907018154188,0.5680713138100256,0.555673775134033,1.016182466857357
,0.35646649395789737,0.08177478852370358,0.13193524368584966,2.696975736754654,0.594315491252921,0.39286812180056413,-0.5619641333197296,0.014425256525510743,0.42014344704215206,-2.953500982677396,-1.200778196066614,0.18445981217423657,0.1921321708506167,1.1216009920474093
,0.4633266954494747,0.06091519054566809,0.2772506367039127,1.3011048055363643,0.2567617236991886,-0.20205482936655544,-0.49038854412051947,0.29424771465971605,0.3183741740521841,-2.8267897219483107,-1.8217872763587322,0.6557187747771199,0.37994485058710536,1.447186166491062
,0.6570382502365862,0.13387309267366151,0.36348862290838485,14.086672603331207,0.30948447330118206,-0.465244393815878,-0.1392861324708383,0.13788589939945847,0.23747161081949383,-2.515896821192486,-2.370995047544904,0.9267485579371425,0.3300584229953095,1.5462400817012696
,0.9657906388069791,0.19847046424979828,0.563503162824531,7.662326115201029,-0.03725167335354989,0.47304030136027503,0.32493180433498287,0.4697857072293683,0.7169599211552778,11.837456571983621,-0.42476129912619254,0.746330468275853,-0.05904032211160102,0.9787674086023427
,0.20446537249010827,-0.32199510367509687,0.5969850296935669,2.49447877539001,0.26961792807659274,0.3938045730370114,0.03489909823878541,1.2201447465952968,0.9410830921774151,9.864642535914832,0.6695167129257701,1.200987510222488,-0.19054874818741666,0.5817519130820816
,0.11361950632898342,-0.4133018149400565,0.45132288968941636,8.624274008348863,1.1377537666530848,-0.041776595606107934,0.14386262413100256,0.6662146217989625,0.7973937995212727,1.471485576066724,0.09537660642897552,0.8004146628280248,-0.01660833584238534,0.5675195980435083
,0.3441104926332098,-0.524760336139004,0.05075871822719501,7.093483354249709,1.113016942153329,0.4740660578374288,-0.018769406721014497,0.24047731170849798,0.41440915088654073,2.4505544538489348,-0.6185929291865121,0.5459039836818905,0.2471969588668794,0.26800961154282554
,0.8521583254370717,-0.6725247376357583,-0.07442344908054435,7.591068090773916,0.7907960130763471,0.08625023283224598,-0.11905211012468164,-0.09534716571391193,0.4875941050856984,6.645881957862476,-0.3436540542888546,-0.09654926234652,0.14941035782492734,0.8539379923954098
,0.5952448107764889,-0.06711384011000521,0.5944633512385389,6.160869824527303,0.4138103882985084,-0.23363201982780485,-0.08907080176776634,-0.15916195478848258,-0.18518879137352895,3.3701262036908606,0.41341402200748045,0.10406851012226473,0.009152070995830784,0.8492455233660638
,0.6269240408175871,0.03743879545688005,0.4367944154253151,11.910609633410076,0.925228321108428,-0.014743267698429452,0.306237255997051,0.19967376535493095,-0.25565175430966397,-6.79603032976219,-0.9489625560119792,-0.24883808223375986,0.1759091572073846,0.35250105701027834
,0.8060727947076691,-0.4550402405795018,0.3935704331590317,6.2703320233807185,1.1498119737359709,-0.8778191417276514,-0.2595596292158246,0.13661207496848243,-0.1034451748926243,-0.9533252666158561,-0.63748222626587,0.0180174837547741,-0.08426953421809208,0.8045431054471468
,1.3073758111357714,-0.6244622785030522,0.26619415718470874,5.37056271512669,0.777069672187621,-0.34563643682201295,-0.3790580580545813,0.6359798164414605,0.0035926843605937654,1.4551002445243892,-0.0956814983665203,0.7177314901582836,-0.20036450790709995,1.2869106480593662
,0.9594289031477871,-0.5640840463460602,-0.16849578724109895,9.25463913835175,-0.27433682906903334,-0.32521853739924483,-0.5222907061752387,0.5557806796950857,0.19788176054795853,-2.4718448809760742,0.30972192624773964,0.22900867513967124,-0.21854070001417084,0.8201644331944381
,0.7930614057794995,0.15253766539441724,-0.48991686901189324,12.792231200243732,-0.23016945127332306,-0.49973692032522676,-0.34295387774730623,0.4029544265954155,-0.044542974510743176,9.11879217879213,0.6505776374927636,0.39928949521049745,-0.07574699761357807,0.5712987412358717
,0.2216758558477457,0.5573512757443817,-0.13393320715381393,13.244979891174092,0.3412044752724822,-0.7445962573418774,-0.8159224992712086,0.6740665919061138,0.5366275121930698,12.568062402086676,-0.6236759301320403,0.8324495025415444,0.1633363881484344,0.3268477459389752
,0.38169521989196276,0.41913484413844965,0.0436912981847483,13.961826599518268,0.24454250927532267,-0.9811751205503392,-0.8047480978771552,-0.11176997866531241,0.7208317528868768,15.39404535067751,-1.096547072709834,1.1018623353188388,0.1877032410647614,0.5261103714933495
,0.12090266288739832,0.6850320806200525,0.074227346492399,8.28333214564355,0.792231553568451,-0.46446332142978375,-0.036280982324409024,-0.25665842657040705,0.5092159190317612,17.808822304048896,-0.183114316717136,0.7974750848315456,0.06487828978030431,0.3472573481384304
,0.23532857606400365,0.42170086887691505,0.5467641671195755,7.822808285281164,0.62635060560769,-0.3902380816175186,-0.4982058610015376,-0.10429288107781065,0.58547710842091,12.804190252309812,-0.13264639851984095,0.5052663376414499,-0.13070691593323563,0.5453117970353312
,0.19179323405413265,0.3069895174864025,0.8468133532868931,11.417292688811871,1.2414142027865522,-0.8021591394715856,-0.8148927845645113,0.18951327445050165,0.36107915886461894,9.656521661824295,-0.4381507254158044,0.557179687104924,-0.40825539176635195,0.007767860183315022
,-0.34801817025896736,0.2772692196111543,0.5615086648690591,3.8070937206067277,1.4449899771138552,-1.0018398516488731,-0.2240038225370588,0.09938845004708201,0.604014213514192,2.1582817389556928,0.3274943655939185,0.7756666225385673,-0.23966539800294814,0.49127513129757583
,0.000316646504613187,-0.04174826696645505,0.04793884490270621,4.344554133867832,0.1514009783699908,-1.2958044034529084,-0.3903749381482416,-0.03810926863790099,0.5853196962049111,-1.3448310566225066,1.0751763345704155,0.41338850548897155,-0.42183383057469515,0.8292184121939339
,0.13397632360020512,1.1580595613841844,0.01749253077230158,-1.9141145554649366,-0.06148669872937877,-0.6745872020315345,-0.40071257710097463,0.3010396709228903,0.22470769953112038,1.1024669133527327,0.13499681381700135,0.4224311461579358,-0.3118463312484647,0.5577604644246146
,0.6073359850705088,1.1278932243148203,0.8280761600329857,0.9496682585263152,-0.34738145648894797,-0.40651219819948176,0.3246207070870001,0.29976159071973507,0.5868235636300543,3.076407432965496,-1.6639971907348738,1.0961060871510315,-0.1529780777934961,0.34374863661658817
,0.31543142276051,0.22777955068735503,0.8307348563940317,12.562387879954793,-0.08004632012581137,-0.17335584185340847,0.6456434259464525,0.05226900834931316,0.7806002806649387,6.825563400289403,-1.26189268219372,-0.10069585942949312,-0.09369303262151765,0.30963851836678835
,0.2456513313693887,0.3308842944293994,0.5444762481017014,8.518404473721374,-0.7153021691181632,0.19992111173968802,-0.07129675834139672,0.4889684650629169,0.546608494304066,5.818813468026152,-0.5835451127450888,0.05805602760554838,0.0474208800828593,0.29036422992077715
,0.118320288945283,0.697987464686271,0.5746328526715143,-6.979945281986439,-0.8765946808478882,0.26356855495255777,-0.08181597822558219,0.5759327935188248,0.5379554380899023,-1.2089488892717584,0.0006128256618181266,0.2702502482983209,0.12531071854348766,0.6566329877584549
,-0.04703015952398073,0.02352262809241157,0.5742855812556994,-4.8760900491274,0.054135307409813406,0.029268858258268388,-0.11041732546270676,0.37493332125854406,0.7367104704157094,0.6518415693763041,0.09574885237778955,-0.037753396385692625,-0.026998932087025876,0.5549888004890046
,0.4421718161763452,-0.6468804022214026,1.043850314812677,2.5511378239014464,1.2913259331081215,-0.38665829670756696,-0.1692556259876273,0.8172914570456218,1.238101686391962,12.03315745512088,-0.34834839886877517,0.5289228635353991,-0.13029512085952338,0.3005867121714687
,0.48550197965208697,-0.9414605857623789,0.4914548949710267,11.0491409292124,0.7102839390210314,0.10762404927158706,0.14636608799352654,0.6291369466004249,0.4843450917111604,18.394598008469774,1.0788975095886149,1.056208484061367,-0.5967791679132156,0.42122480222762865
,0.5367858839290756,-0.4985850342453071,0.04090348087347582,14.693845805441812,0.8025341309855232,-0.3149691985503191,0.18961657983792618,0.1252457391616748,-0.08435555232446879,11.044246853548936,0.7674281659052947,0.3912340808862081,-0.42999259531748446,1.0773331031430786
,0.5431994638529876,-0.09089872270108515,0.4004738307800655,8.582790586621982,-0.0709575354121778,-0.2844656901830697,0.3289759584101854,0.4063416450894744,0.13787115135990327,-3.432165189185475,0.10586226252145647,0.08393832815945086,-0.27127702020457295,1.134055779708981
,-0.10927744059572435,-0.05449518243284112,0.4825514994345243,2.031538911355029,-0.5953683521232985,-0.07470127460037046,-0.4611907650370763,-0.2926339051029971,-0.31429416160834345,-2.3412772864540594,-0.19695209248553014,0.6567995247584965,-0.10414065648743077,0.9103090636146165
,0.11874645791005012,-0.36692592131315055,0.14087031862423668,0.6977941084946313,0.225025614295457,-0.18560965049217162,-0.4473409737003613,-0.1961340672834424,-0.12333571094814465,3.4372586642956664,0.15367779092965833,0.538100791310927,-0.43569962058965767,1.2457837825938674
,0.6854779115796952,0.1887139522693956,0.35960610354672473,9.692905177639496,-0.07552662821915117,-0.12386575743200254,-0.448745587522884,0.12110288223330024,0.4057883935950703,-2.019288498349167,-0.30449535049792437,0.15924620676492152,-0.3846274430628161,1.4734867793409585
,0.6750323852532504,-0.03397792639825228,0.5187485934977273,14.366450768269132,0.7385935215988545,0.3339386580012436,0.23056523695168835,-0.01312476796730405,1.4819807937498286,4.22460054241378,-0.8726509767171018,0.16161266541059993,-0.0013604668446639135,0.5912765069588534
,0.38510326782981685,-0.4804883652339975,0.8208361671690524,8.906621864945254,1.0515684552228235,0.5463708651315002,-0.01266290805138706,0.006443279896100211,1.079831746180893,14.450531975015592,-0.6512523139369535,0.48655271212891665,-0.02073297909531145,0.1195081669587896
,-0.03491343575749264,-0.13202258306583214,0.20676503198413507,1.6210824685420364,-0.12928277162547938,0.8975510187328134,-0.17707134084634452,0.312724220258653,-0.09670285255603403,10.71964045719129,0.03775928808040916,0.5708551207998147,0.15787854272198013,0.7834290452565577
,0.40850253880788706,0.1334283087268255,0.07074743564553275,11.217008775571676,-0.7104419675153456,0.25776340723630686,-0.2288245066515452,0.5572169300730951,-0.33961240423949135,6.417843068071132,0.11315188574437691,0.01848944889871229,0.1712609072238783,1.2820515158225274
,0.5575300839158109,-0.7117695636944955,0.3298628772545643,11.01474822684847,0.26331701853820255,0.25887922914776035,-0.0022325797742440224,0.8965137475365872,0.12913698458132447,7.450402583262312,-0.3993006755018546,-0.020480081492468338,-0.016439580295228948,1.2926054823433932
,0.14773397597465968,-0.8777565262342012,0.341138614391414,5.9199004108262265,0.36470279063651095,0.467152443581446,0.49476225148173886,-0.2087839115914123,-0.14300909148803065,5.451194110351744,0.02260818113243905,0.2381737102723659,-0.29425858580743003,0.5119923261744131
,0.20702274328951314,0.16360461380733438,0.6446451624280386,7.315713818527466,0.09924015031231793,0.4383041217939225,0.39221125569925586,-1.2040029945155977,-0.1648954496989031,0.7159556084485734,1.0432449105532438,-0.21116278941821418,-0.464750497530649,-0.1416436276201153
,0.5626939018240271,-0.25500833140988266,0.5252942467859224,1.7154850236210017,0.7680829015557074,0.05091540672302026,0.6156783460219561,-0.8640919157504814,-0.22612137354016348,-6.731208238204404,0.9427536116213293,-0.11385491809648406,-0.053163822308745584,-0.10328352974482641
,0.3109772753117318,-0.24555672208145649,0.30152373463188853,5.790741159024713,0.09781865773123699,0.18586564396522637,0.4965534032897128,-0.1735281032171895,-0.3616855697391058,-8.11110967698338,0.07266430442176794,0.46286934800493623,0.16083222933714256,0.11173625236535906
,-0.2978761734623424,0.146322652707575,-0.021695072759491923,10.453155965007438,-0.3392532597919218,-1.5578782251595769,0.34648538157530484,-0.7005090851993119,-0.49462134485306297,3.455250550728553,-0.3949798873049689,0.12115373138446696,0.06430203125021494,-0.051725417036782774
,-0.18944918842808425,-0.15944769723064314,0.023005693475672072,11.45422899573144,0.9237660266667176,-1.5987203770345677,-0.06626809162954764,-0.7484778248526336,-0.4388942580262433,4.50517476256739,0.16310361867768233,0.08803684933663762,0.12552758568237912,0.20574327433756034
,0.3745885625856376,-0.3127101050931757,0.5997138067495636,2.1747622496055903,0.2639528857372519,-0.4435802476833195,-0.2457903410444555,-0.10074849367843108,0.3196743222725967,2.307461498077874,-0.19586288687415454,0.5871056952854168,0.014116782529509774,0.9670760096954393
,-0.13440343258574694,-0.20787923734346087,0.3804178576541982,8.226908521819244,0.5411921389329616,0.12714847977852264,-0.17294581288688587,-0.09253230732526155,-0.09424698295139922,-6.81351648256064,0.40767270393141775,0.8413932274285326,0.016727906165850827,1.0712703895871523
,-0.1594802693420187,0.42991432037469124,0.14793739718903495,10.804843875447661,-0.5298240100766178,-0.5084201130021747,-0.08522291366508881,-0.1835792418865548,-0.6792738620257718,-9.241991089653641,1.2385971167607486,0.49920123111224557,0.13170676501987874,0.2177780255687048
,-0.37266243594511855,0.6154723516115692,-0.13350103472805736,-6.325904537843734,-0.7873597915934986,-1.1733681956044415,-0.7879171131002908,-0.13638258580208942,-0.6548865113888968,-19.691121584327647,0.9774679591998506,0.10476476516548261,-0.0918651874043537,-0.31198156137739846
,-0.564153478428974,-0.1882177010511115,-0.2857858244261911,-4.4941864329655905,-0.28465541685387846,-0.7102590111267476,-0.6062068160367278,-0.02412105700656006,-0.21607110834952176,-28.63889070445555,0.13188203253497613,0.358374662785273,0.12594095754593257,-0.17034309287799485
,-0.28712412233741463,-0.46356088667017314,0.20488332727632144,11.564353046097288,0.0016246836431749246,-0.05675698180622359,0.052813512447734155,0.6236212862900485,0.0040872706093341826,-15.46713394647716,0.06961542999357542,0.3901581391792421,-0.06147374317512278,0.6194839602548158
,-0.11814152841426204,0.052984711458077136,0.1794154928876006,15.513508438445268,0.13955430970041066,-0.42022034735474256,-0.17421702775884768,0.8559014886743258,0.2523114996068725,-1.5240072711139823,0.4504790776642975,0.302850092030579,-0.045841353478910295,0.25178175407287073
,0.07057965734653915,-0.4286893143552179,-0.025057303533644104,15.678119122166166,0.48860492720274,0.04149615289709056,0.2914582278365358,0.14277216047922928,0.5658466001842865,7.433627637549378,0.1338932389920439,0.11672221813681483,-0.10254334229930258,0.6503110080660504
,-0.17556890516098425,0.03439392550239513,0.06069066324266823,5.098371651378182,-0.7382512998623484,0.10902306006223857,0.2797720097112563,-0.2669003256356475,0.08163656612629246,7.85650329103137,-0.10110864962396346,0.023866046249849875,-0.00928921528537747,0.8025273112711132
,-0.26522379100053967,0.6168135081774127,0.15519732261161767,11.29424846770819,-1.2444928331100158,-0.33377110051592696,0.21674954690382486,-0.23526731772249732,-0.3859262346744823,-14.089658489858836,0.37525657749408,0.5005237101464207,0.09470074676508872,0.9293546833073408
,-0.202735928652097,0.2143271390404799,0.3829135458919877,4.87174803668544,-0.5184755802459474,-0.8321981311703655,-0.21441368473771372,-1.0179750215925956,-0.37811635955715206,-18.722190809852854,0.5407941835895014,0.6143612515025495,-0.14938671147830304,0.0345402444154625
,-0.0363640464402125,0.06894471203872343,0.45162387403920623,3.7971244816854792,1.0644313303020778,0.044103456277398694,0.3024559873511177,-1.280206486842201,-0.00371343193578666,-9.62362366373758,0.49192034510292765,-0.2674267336244676,-0.023121139051735275,0.1390509648990461
,1.010822199466516,-0.43446491739885074,0.15548719115477402,13.831814915538878,0.4203995021893294,0.04468123953900828,0.6015480629454869,-0.3912120882682019,0.45883818691957007,0.5936632871878323,0.6489293384162224,-0.07110473245624867,0.07694918045176455,0.2028277558638312
,0.8781772005733328,-0.44918127680526615,0.12351918117662265,10.059536839519057,1.1385806080481486,-0.43489664184292376,-0.21626536323025658,0.13526947481565713,0.4401161255068698,5.028739673241927,-0.8927758097470996,0.6366647250087701,-0.17970590538682996,0.19589987940512285
,0.7720620876954443,-0.5133245174557809,0.5449601086127036,9.556991532645096,1.3024272856685513,-0.043983261265699056,-0.08587061228832701,0.08205391004934863,0.3246540232716612,7.912141019912701,0.6740811254446947,0.19786996007397603,-0.14113424778860023,0.7718877589130043
,0.9116012875318574,-0.18001179201566495,0.34064910565127243,8.040223056074641,0.9100839401854106,0.20960798849121448,0.44842188291695695,0.368488796419582,0.09259450326595609,9.058997505690847,1.4741588525040177,0.38854114048893323,-0.3383950318730485,0.29684614582444996
,0.6724342356048596,0.2162886894003146,0.1132932324763314,1.6340613820264704,0.31730865152201054,0.08001241851157065,0.3527423060965813,-0.2262373995230931,0.7280222235743763,10.398507122364984,0.47111827499514075,0.5943534242262124,-0.44546111552503675,0.6246889319041136
,0.836183275804758,0.17424448077190488,0.15943187007343163,3.055108777831859,0.042233867925673484,0.19408566495928764,0.4823751234165685,-0.39238790140283775,0.4396595024948645,-0.7578451899470403,-0.6962171930665251,0.2342994719560078,-0.36835772573331743,1.2675511641423154
,1.4029161610218788,-0.0060989938415181915,0.12221549163731221,-0.04891851993260119,0.46764987321994383,0.17527323871365272,0.490389354154399,0.20983787572733617,0.09857434794152162,-5.6022164056862325,-1.8726022381608796,0.26793952487770734,-0.17490176877818364,0.8132528886790255
,0.8792804625188716,0.18353789321665603,0.10576888752911308,3.5454194362496474,0.2981512956198774,0.3995464496804603,0.028956479750423522,0.36608544612683136,-0.030021685636669446,-8.656597217883654,-1.4412353573187864,0.3478713283755088,0.40094421041334044,0.8732111072826138
,0.18397416979521083,0.1254308884917747,0.15648209868257432,12.382133410745071,0.47557650615729247,-0.15624281667174084,0.011964512562681981,0.1254317447892129,0.03850331081198048,-3.8870460253292602,0.06206318333283787,0.25423219551156406,0.2237075707220474,1.601902060342745
,-0.059221867956659,-0.19767608236674541,-0.10084548752765107,2.506762737978509,0.32563490729238015,-0.9420896083390815,0.11940499515440126,0.23037668888366608,0.15982511942335906,-5.697404409069037,1.4609340673443723,0.23360156720222292,-0.14505763959339465,1.5585418818336547
,-0.500958755506669,-0.6018176490285717,0.17856233473458324,8.997219743213996,1.1768051900431484,-0.7129463316715937,0.10944595370797298,0.4361208208041287,0.0950681349308262,-8.019711865277323,0.5789848009459455,0.48372750735384645,0.14092506782086012,0.5503569694245103
,-0.21044979815652637,-0.6656533538708121,0.2837217049256407,11.367342572159288,0.918337322607913,-1.0826398893779896,-0.4134480713372921,0.045560431345642464,-0.350676093287793,-12.14592823021388,0.026863669570128854,0.741937114140279,-0.31630184121089683,0.19000163085554164
,0.5613533406077195,-0.42637717100494676,0.3111334077841505,7.366268765508229,-0.17490161174053337,-0.6479500206700418,-0.3330507516093728,0.3024208131865112,-0.2363175349257587,-4.2371979975738014,0.12939695432310835,0.38915780633294855,-0.6345051614211884,0.7842616801179824
,0.5724338680668952,-0.7949550792901771,0.2457103733094909,14.597876141808179,0.2896600116890669,0.917101780126967,0.5477814244439478,0.5438606598626239,0.0020869682719602363,6.1288235148959425,-0.2937560769272672,0.4311739928618734,-0.7251258231287707,1.5392605405427902
,0.8232575449103896,-0.7931887423929772,-0.09702638336547069,4.1431223216501225,0.9106263064328894,1.4604066589633762,0.5268645417213976,0.11216962282956289,0.2981537787828098,2.1285424103212476,0.3153602236537107,0.4441424983717134,-0.5195640293324114,1.40837565511584
,0.47880339008268963,-0.8472494718239545,0.11778272271982212,1.9714653916151739,1.0050888892715573,0.7217477926992352,0.4981651692945562,-0.14510919586068838,0.609994394696135,-3.058454112507578,0.8385798732727737,0.8518049903561116,-0.3794318028096115,0.8546137807039222
,0.5185951129973054,-0.594805540641417,0.7515874353487694,3.871623349553983,1.5046627245964088,0.5513377374729171,0.3696307120571353,0.5520006031244938,1.0401303314476593,-0.005938454317363486,0.6785233458176612,1.210059946315398,-0.5341300434812398,1.121801630867056
,0.1004331860241998,-0.463149833586022,0.6005484362990924,7.273809340527839,1.7033931201226573,0.37697544796360516,-0.13825266674363865,0.5431903045721639,0.5929189445965436,5.959088246987246,-0.38075606044185994,0.04323935575690502,-0.3607017358843146,0.7421851910834303
,-0.019746187568333334,-0.516224521687152,0.11334715732369507,9.600534170998374,1.345008153570086,-0.5853030750481706,-0.28351471364742725,0.39878543966160707,0.13261221430257863,-7.376140611194801,-0.20576939118731138,0.21578371637336013,-0.3562766497095723,-0.06419438778940352
,-0.723894943168702,-0.23929414849886815,0.14679800217001898,1.864511625760862,0.4705868280452409,-0.6259629943156872,0.02611347098038385,0.3082891929529897,-0.10593353593183696,-7.318066320205247,0.1302389717005577,0.41952236290346506,-0.17721770854954053,0.11188239290162774
,-0.34125484197656797,-0.7845511202679022,0.7866829654452716,2.5233073512088637,0.5059178538562005,-0.8649526470540772,-0.32952482575985326,0.502030551240657,0.26735795006594154,-7.4768494794440885,-0.036609655449210986,0.28774367794235933,-0.12178874726112839,0.21679222809147863
,-0.18735196949240665,-0.10282987380337655,-0.007350180468239531,-3.9284339842110585,1.866324660186358,-1.2125776028081336,-0.9684831432835531,0.5672748446797868,-0.04233544287139333,-15.36611087520894,-1.0396057431466545,0.34535140300394246,-0.3715452361128491,-0.627710224265446
,-0.2464539401591676,-0.4181897009540123,-0.20361909296123024,5.370888176260391,2.649791824185141,-0.29045695691292867,-0.24108645315202248,-0.05902743784158449,-0.3026503484105477,-2.5126361283856316,-1.9702164041770165,0.1428280732331917,-0.4042964622390912,-0.1994314397348477
,1.0898451472328115,-1.12713419764669,0.01473793986946062,9.696929565293562,1.7098474263655155,-0.5837638134474445,-0.04889325669495331,-0.07872415802239278,0.07561168708245013,9.907531603111597,-1.818790265367354,0.34097969363942415,-0.20636172372174258,0.6772292841760054
,0.6434114690616073,-0.19805654778379525,-0.038358215081900085,7.901488164984644,0.11786682252347076,-1.1371876298525125,-0.1100867336359329,0.49077248269596035,0.2659465069751233,0.9824431420782462,-0.08685749034437475,0.32845027628126955,-0.4980080161003476,0.8887007490512839
,0.13721452202438805,-0.014447786807708318,0.20366690949404537,10.848522082712565,0.11664928818599395,-0.7927424754451132,-0.006405903177562111,0.4455201145064116,0.5476489000213639,7.888826566394604,0.043129806848297605,0.22464558815026084,-0.26892894398613865,0.9664848992741646
,0.06290043939139742,-0.4193956711647626,0.46500564334729144,10.55750180846571,1.0197835624636251,-0.27197048512795513,0.27795925412494427,0.4177798627086283,0.3935887263995669,18.68727743681527,-0.759314833439795,0.08255095179582188,0.15376728787949243,0.956874129618131
,0.14007743363316408,-0.02049764710005828,0.7596241010679736,7.652976884447567,0.8148452285598364,-0.06086727372946017,-0.1843772660099293,0.5539107781278565,-0.0597045535405222,2.7239739318593017,-0.8204312094057361,0.7931386439542918,-0.06402352586054917,0.2355050970536317
,1.0056730958810505,0.35233882991267446,0.7129574561660407,0.9807551926312554,0.4145862079871807,0.2303991500813521,0.12072572740828687,0.5759173633556532,0.0664575847575805,1.4654208907056916,-0.5901518178804667,0.3852111629660278,-0.23073176216793342,0.03819326425849298
,0.41113133771891447,-0.4623996259630065,0.46252365320145983,5.8970818493406325,0.27530969563204166,0.34425451320909434,0.25976495321963927,0.302643582789648,-0.12238305257334431,-2.873721288856102,-1.2340322848260483,-0.03200719212665137,-0.2872308778408419,0.8928951641181195
,0.37156452284195923,-1.4315460451607742,0.5529286656862338,10.714339065535214,0.6575813073895438,0.0005254990005522621,0.16319850787391807,-0.20576278204813958,0.25668451662613656,4.510750225824874,-1.1928031049281924,-0.18687081392531774,-0.005543246747888289,0.7382644199002093
,0.47113115359685886,-0.11403820872598358,0.8141545768710883,4.0561835883748865,0.611491410295664,0.01620592666444616,0.30582667538480157,-0.042645946860133586,0.8767169406180988,0.2117253556408785,0.6126210392738799,0.11163452243221562,0.3341200008743417,-0.13515676292492712
,-0.07290978697241149,0.47810607680803513,0.10456887013545706,1.1930139616288575,0.4022351645980233,0.7537068099505035,0.46663772916813456,-0.4457986551390456,-0.05590427848143419,-24.639601868866105,0.38454363731529156,-0.08471679829968772,0.407321233576813,-1.0175276973633658
,-0.41655233339752734,0.25463789659049174,-0.14211645985462765,5.131719227632053,0.5174696143717099,0.49336362809464385,0.713728219037951,-0.6344512128655736,-1.4428808890092444,-37.14842660848587,-0.09715614846579167,0.15728720585277478,0.1626491201388801,-0.23038618550335843
,-0.47014417877098486,-0.3864963736465764,0.21094971154831813,9.95170412241892,0.11625326750862584,-0.48104928210215125,0.3169463134357041,-0.7025212300046263,-1.4440410862630573,-29.217980024090853,-0.6400462284806837,0.32923365549868777,0.07042022194691525,0.8591019538970365
,-0.7843193358964043,-0.1492186079057796,0.8389324727824939,11.628575182575066,-0.554836180503278,-1.0098292136843086,-0.21701154754135843,-0.07709240662143547,-0.46590164255534017,-6.288314126783949,-0.6538532378813755,0.5167181446818276,0.3117275078558311,0.6860305269980542
,-0.8075189440028551,0.19161946450832518,0.7661338671628333,7.412814446194075,-0.31066555007217755,-0.7180067362492107,0.12353800118209061,0.26360671718455436,-0.15896039345088697,4.873366860547099,0.9961515921939899,0.6417837022782611,0.352354372218517,0.645397831668983
,-0.5155305434959075,0.6435325169027696,-0.02373946736822535,5.159641179214255,-0.2952339692574048,-0.5161651188130089,0.37678115952514835,0.2874612519098613,-0.10489124623422502,-3.9349911885252262,0.9840278618277211,0.3048412397689693,0.4306215763360247,-0.1260080057197173
,0.17324755190766547,0.6283134863334823,-0.19313546759279554,13.350695265552972,-0.9780394156560659,-0.6064833119075981,-0.0468067505947135,0.3695812610920311,0.0594171059942004,1.0898652356881124,0.20006140647929038,0.29208159998661487,0.26852040298906193,-0.3979580998109034
,0.14047719082424515,0.07467454210186945,0.19484906705005217,1.4810590809775046,-0.36337661593502507,-0.07832209635956648,0.05284082423907427,0.4566075438737906,0.16243459146058342,8.926158026712033,0.5937040332969872,0.34195960371338885,-0.07799570657944138,0.5865839472686301
,-0.09953204677027781,0.3114899265272089,-0.3860964204574825,-3.456170806221584,0.10959312580897673,-0.1738401506707109,-0.12409391965109265,0.18594238232391155,-0.46190504150709777,-9.319566447468494,-1.285223986918303,-0.46908791390171006,0.27987358266514406,0.8357018744604419
,-0.3351147486276289,0.577603814499742,-0.21505109201432318,-1.3490939708469285,0.10143442353958813,-0.46256132099052033,-0.2936165582005362,-0.19814008469476854,-0.19706639657458483,-3.893163820717592,-2.102964871787102,-0.11492904965915897,0.0941498918909849,0.7576391639274257
,0.01745330371950837,0.08690555008352485,0.2820140777072469,7.469703976030368,0.6110616823370504,0.3115288900752486,0.2678286514810126,0.023627421454297783,0.13116154126492593,-1.8971646665691901,-2.049018231522466,0.15605599311457988,-0.17898644386729404,0.8938354113130361
,0.21352432311427047,-0.34573437693993486,0.1271072369862519,6.807524923753637,0.12111797682048471,1.0605459977109928,0.029859543287509203,-0.2995712134748252,-0.09324704867084133,-2.0781913236603398,-0.2683563200303857,-0.05277220341040908,0.34863915511383725,1.2923961511160393
,-0.035555269861418534,-0.13172173055531988,-0.09506929701900134,10.365059522686812,-0.05418934711192199,0.46099145967952715,-0.16632290208539005,-0.23507497543117076,-0.2813887321181235,3.0141889645979707,0.14896863835550506,0.5355590818411513,0.27792112707938277,0.366305994738267
,-0.1860954115290149,0.8699881540550465,0.3462436891832154,-2.9392011671036444,1.087130402944035,-0.4854880172084197,-0.3866590190978482,-0.37556855867663325,-0.3210323086764419,-10.491430901903948,0.3584719063126379,0.8929058294869525,-0.3336516745617154,-0.06564692492805897
,-0.12996912502223215,0.6671386918229067,1.0861979310242413,-2.9997364468839165,1.3007703067796115,-0.5408776374642362,0.46160784380952746,-0.24770869916464153,-0.31079322318977937,-13.420470072055261,1.446074209034122,0.37073700155346456,-0.014740694498986082,0.2281951924048624
,-0.19485937512562118,0.2704773586545101,0.44134957957613913,-4.594551119021812,-1.0742509024734257,-0.041011261005095556,0.5062990966521057,-0.14330693515683127,0.2064503188081728,-7.998814191600089,1.0318842919841367,0.5590257354007525,0.29285984205091553,-0.14349506389355737
,-0.3454322202765099,0.6549906927295559,-0.050602830912099786,-7.849076103717341,-1.1462940546065072,0.17544327804990117,0.09027036961785947,-0.3744582151471229,0.4804933369614651,-8.67854441152397,0.023066529903141335,0.3286398350554424,0.3186236600757556,-0.410678087281444
,-0.3804674264032751,0.30162303190667406,0.061327284228711004,-6.884365480015021,-0.33021067796386383,-0.728415407146642,-0.38818014594084055,-0.40608011677391187,-0.07439292152625032,-19.414616627644442,0.10947329151330655,-0.10832037149097579,0.3998600729408179,-0.02056568026800058
,-0.2678629032497261,-0.020326341465240524,0.31811047927031894,5.8966034488188495,-0.736369761625802,-0.4970701180637707,-0.15327102315064145,-0.09779239494909532,-0.6636372576920447,-27.634412854222855,-0.0842144624490633,0.11676307448486423,0.0876615060320605,-0.08851753901942484
,-0.20991519095810296,0.10455670042544533,0.16286797122435911,7.528639602491319,-0.7034573993736314,-0.6241954009634882,0.33666119334215844,0.08959616699321331,-0.6245743588847481,-15.753894357362524,-0.4735524515435837,0.509053482007336,0.042063574218330374,0.0728239612858267
,-0.21128336470061415,0.17736314495623304,0.3718220657545441,0.7379189354172349,-0.8334245676581813,-0.7807970058038717,-0.21720718329842342,0.008624540172542812,-0.08344015415593081,-14.051334805139815,0.7950205230813949,0.8413287940805528,0.07797440461429828,-0.24769977094273532
,0.08198276215127842,-0.4769661913387649,0.520233327051393,0.015460499740684839,0.26846518581132356,-0.5382283228824465,-0.31165878226666005,-0.42807562636941104,0.2537777730304936,-15.638344573009386,1.4167618897965355,0.4468128106548981,0.068050245591979,0.2946372256382076
,0.3750569637495694,0.17527385360380204,0.5075824287623318,4.461260168154522,0.15731421909859736,-0.055433041319873026,0.2623499979780768,-0.0814867133054621,0.4255885357143734,0.4848963796537401,0.42994917829357426,0.10370745055748302,0.04773269173020303,0.6716078071395022
,-0.21628436109789453,-0.5660079716854264,0.6957788137262535,6.56287445806297,-0.4543715215044731,0.3013538647526966,0.18758529310743968,0.37883538115855553,0.7630237017841798,3.425661477107058,1.0054202085492645,0.521370218190332,-0.08862876600821921,0.6414899437726178
,0.10877355014685149,-0.8320688263116387,1.047809997406505,8.087181405398212,0.5346430362760882,1.0720382538824915,0.2150539280665916,0.7005735130996109,0.6283568980201785,6.3880473523805135,1.6163999493473282,0.8442041861100034,0.023760685864791218,1.006673351500492
,0.40225936026277676,0.15904554558191497,0.2829835562904023,11.20814412967098,1.8586421657973606,0.6457070210325414,0.0988672560491027,0.4213384550771593,0.8155740466907996,4.716660303311023,-0.20144255709317838,0.7787290297851428,0.2101720509140384,0.5101958732730991
