event,eeg.af3,eeg.f7,eeg.f3,eeg.fc5,eeg.t7,eeg.p7,eeg.o1,eeg.o2,eeg.p8,eeg.t8,eeg.fc6,eeg.f4,eeg.f8,eeg.af4
,0.8965963229764589,-0.8537662436262022,0.7128131033559599,4.25942061533077,0.5901849850018427,0.3421418591863035,0.13430929398024713,0.38210403898308193,-0.24462782985279305,-0.3421705928341723,-1.544433452396559,0.8975500057192425,-0.30070830085440386,0.23834579368066125
,1.4320519410277526,-0.5777733609494532,0.8963708080578271,4.938463437800115,-0.09865810897769049,1.5836195071879549,-0.008678434842360493,0.7977529687403918,0.029772289433089,-0.4510312249545385,-1.0568875709416836,1.4729537942031325,-0.4337326167745872,0.4615180590060075
,0.9937732970641241,-0.7094380228535196,0.8000972276470533,5.18614167631545,0.9131985481429379,5.86047756275333,1.0533662556881096,1.053107969973432,0.08453899101858231,-0.46258126438148456,-0.6581496142116575,1.7707522254546528,-0.6459348926701183,0.27932908270847273
,0.6169043709112935,-0.9138803541305279,0.9482463490195124,3.4750619724085325,1.409206354627956,5.351455499968583,1.6210885365190828,1.0492592048206155,-0.30667365528498863,-0.515962056163635,-0.32885092813805106,1.0042306580958664,-0.6775345458763962,0.5027550995875356
,0.4572205580867432,-1.17378264012943,0.9373129619104822,3.4883061472107437,1.163794919565134,10.37534219455407,2.1481165341433264,0.5732388184568855,-0.12781763562844217,-0.9446133619746041,-0.28553103611109526,0.5008046347385576,-0.6165725791400477,0.2788211703559723
,0.5380484591464086,-1.2039149905449902,0.6744347225217526,4.60787842101965,1.1137717703657155,5.082090164559887,1.4954166598435499,-0.0980733187499196,0.24345164967600652,-1.2447090044311697,-1.3141721606891976,0.19327762296965195,-0.5606649407032066,0.3925226994961824
,0.8263540097824386,-0.5890552120858744,0.08642077117767781,3.764433353635562,-0.27927767450028157,0.8843827109362373,1.2174026652344514,0.07905964714936675,0.05170133784685197,-1.7143651220157805,-1.9039013111541194,0.03440063482275787,-0.7120160808050515,0.31175968510557794
,0.5585830697383185,-0.863588210795894,0.38894741172704667,2.5121415301730217,-1.207371503945983,1.064707725334768,0.7169675640633861,-0.8329955128760498,-0.009616835897181727,-1.741365045820936,-0.7462744294366339,0.04723821137869254,-0.28948601309268296,0.7730488029984798
,0.41327792627693066,-0.734965314882944,0.7114543072078977,2.1420008388880394,-0.41941755569853273,4.261743853771096,1.1257597814936589,-0.8911915925270166,-0.11565337997577567,-0.38671638712390044,0.0203450271430426,0.3643336812435313,-0.24943135874733263,0.8138554083547893
,0.41757033324537934,-1.2872424065493642,0.44732663574285775,2.815634017494128,-0.49640449680730514,3.6826721216558735,0.4279728396789778,-0.05428338058934608,-0.6619306266632934,0.44247359400994296,-0.14028430936633285,0.7228430283338977,-0.5073974557030223,0.36323221938337813
,1.1226226174705538,-1.6885261149252575,0.27861516432219047,3.46314272309402,-0.43728550310551484,4.277243165435152,0.3071978703464533,0.19165697218778996,-1.3161010167304534,0.2557646120149227,-0.41156006040714843,0.9720219006891093,-0.44265477309328016,0.11110256277699129
,1.0856652164734752,-1.0838323551143456,0.8096416485193461,-0.06157593382147631,0.017273355474573596,4.708437475531582,1.204791029841565,0.6686222340486463,-0.5920157465304356,0.2728293818618599,-0.422973309977355,1.4752861411303544,-0.3168257998334277,-0.29122604421601983
,1.4657121716626451,-0.5820931293120329,0.5714258018721721,-1.8829040151802618,-0.911627660076666,5.224566568742403,0.235078690039697,0.29456888398063896,0.20213313393052118,0.21298974997380019,-1.2168157281590186,0.6937861374016794,-0.45332661562739834,-0.1394263228034828
,1.3607938519306988,-0.8744174440744182,0.5493448288696634,0.012513203897457428,0.20070715258233005,1.5537578019971194,0.659813518221888,-0.09072521491572724,-0.17640633850558757,-0.38356080558122374,-1.1363033813123808,0.2623638456427384,-0.337758728927632,0.7130140328893579
,0.2963398381697531,-0.6930689082886606,0.8410570767616201,2.037496758980834,1.8677780833779585,-1.4567688323439538,2.3164768307846293,-0.43743517939141896,-0.18230876127807713,0.3803863410751788,-1.0630442496048877,0.5317055568392419,-0.5446534781952094,0.25860122357476933
,0.3744933491853176,-0.6686881085955376,1.057436725473938,3.318691795176119,0.8628732970585156,-2.7244870965770196,1.595296145318136,-0.26320046334792785,-1.4840922746867493,0.07268715720227634,-1.2484064500254812,0.7112259891462062,-0.8545203608458997,0.4697177171828536
,1.0040316657373731,-1.0553110215469739,1.2504569566047474,2.264995791380824,-0.7523085328832289,1.4470227276422736,0.8554315950197987,0.18909857764732263,-1.1419010077073768,-0.6445760601693094,-1.359851793159387,0.6348383075288693,-0.7683205732649654,0.4587688242283436
,1.1851674780481865,-0.9591813021354776,0.5452969424017315,3.0679767110125695,-0.14922250734836598,7.684733113397818,0.4128198312687378,0.11035416797883815,-0.13655543543194196,-1.4339235306518219,-0.37304310660983214,0.581960513073071,-0.4030832074218734,0.20524233111089202
,0.7717726892052045,-0.6380864613955861,0.013183273148606772,4.334285441683505,0.251940744185986,3.493312118707979,0.6004884766856945,-0.3877436520880291,-0.12565939725830766,-0.8192593797882604,-0.6399277932139861,0.31316376233463467,-0.15581768146068517,-0.25310171561944117
,0.5929620144353798,-0.6066302052261144,0.35691735551557596,4.422162714787275,-0.413225389355049,3.9230271129037173,1.6469028721059464,-0.2844678115049806,-0.41425042100701925,-0.1157049238553248,-0.7105361066426014,0.3891504177207238,-0.29358581203569845,0.2769702509110613
,0.6783896784844324,-0.44648974301605837,0.33862984210486574,4.0012610474876,0.2838056948100173,2.742298016532721,0.74553999725087,0.3960274948574489,-0.1618001690206189,-0.7439666532170164,-0.3747215165411796,0.17455672908269415,-0.2195583930879091,0.45409058543378583
,0.2200751597310843,-0.3741316807194973,0.07985318106683767,2.669607317639562,0.23948723976960115,2.342972085251311,0.2888270776567578,0.015415777448199124,-0.14899347233727595,-1.032839705094012,-0.3553219985804195,0.3275591862015573,-0.16578953991083165,0.6198854729272275
,0.7790937818526941,-0.7891833570590641,0.23027915738490298,-0.4221521551656907,-0.433217397063677,1.914140488246778,0.17001480378854134,-0.07580566463354388,0.05344931324270184,-1.116974638949231,-0.9765890180347887,0.6939085620582656,0.015249661415350358,0.5194881753830716
,0.4703510041969562,-1.1896023809665424,0.0689717655504673,0.2969872034837858,0.603433615338592,4.237401820786937,1.7136050415880102,-0.1554569286948734,0.11960085826156971,-0.2004562974062272,-1.8489751368937208,0.3841957208992228,0.018631110108937993,0.6918828229139674
,-0.07538729931273606,-1.1340344195022236,0.03185747669136594,1.7503867553721686,1.0836230138986904,1.3771698046352847,0.48423220112376003,-0.6322749463210942,-0.07110350019163629,-0.8705405464908395,-1.229123383145973,0.6323621593455748,0.07187485014910797,0.37694262432799835
,0.22102214524100028,-0.9370932168599749,0.3480413602864131,1.7881197196208742,0.15759923320476643,0.4537082353231046,0.6538350132486654,0.03968508690579819,-0.20321590504172232,-0.9842579258284924,-0.4390244861750159,0.9554927444762985,-0.07057368326986456,0.8086321060201083
,1.2518928371787859,-0.7590089934903572,0.05294363611525005,0.9936442617295042,-0.30243424375481964,1.1474881587063683,1.0474703548876567,-0.1893627485756476,-0.16716294562528197,-0.5927411003361164,-0.46325469707456374,0.25865548042345476,-0.09478421420420556,0.6525449057329787
,1.347140014369708,-0.35138612270872566,0.08808293822519803,0.08571232926876482,-0.21056868203042703,4.4002575715213625,0.8442701293111509,-0.7194759066192449,-0.16511860080537366,-0.9392276572395332,-0.7197630621323099,-0.4614927924291062,0.030805598073557587,0.40245845804826763
,1.7805520030461033,-0.5861300843515824,0.9523777765343898,3.957631163196895,0.07807761950776262,8.87351803544717,2.244171139903314,0.1275511260889125,0.20803423044080363,-0.7893790562420824,-0.6962492431786897,0.07066216478311121,-0.28533258660344213,1.0113260277542333
,1.497190243530026,-0.7389018113865917,0.7998587459866978,5.732957407243146,-0.6392777530534649,4.813158232300624,1.5827886785362957,1.0245669516351394,0.9847687835031796,-0.06709954102879297,-1.0586187820114825,0.05070468039017481,-0.5198710867148246,1.0026438489434821
,1.2407542025169698,-0.5774946090615914,0.5567142657825582,4.139058033604712,-0.2910101236547771,3.6233164965265217,1.042074704675879,1.1033724790167654,0.08156277285569036,0.9282540702824223,-1.4757500555712357,0.4161129608885697,-0.45591545116505244,0.5755778064591967
,0.9948095193304292,-0.4100258778554104,1.019130397424067,4.501068567648379,0.2921133805930106,2.261607159171118,0.5632366342358238,0.3825104681570822,0.1286497897981578,1.556285682128036,-1.6128024585953873,-0.0676406854853145,-0.15404710910094202,0.11747524884217588
,1.2534106160411846,-0.2339230267490155,0.3841593030105032,0.3846490337454622,-0.6498064045422677,5.06318899707392,1.2568892112685277,0.32524156170304613,0.13415045084665336,1.163117626658261,-0.6766229549021643,0.5248765910049659,-0.07585709421540779,0.2534745855275962
,0.308355563671472,-0.22296659040024572,-0.05680081882967774,-0.380718882963034,-1.1153245800441354,0.19398964785309744,0.5620531634509542,0.19767424022497332,-0.06729757534081816,-0.24011887940403048,-0.7521892211040581,0.7835639528749027,0.07709429839681403,0.5411008714054528
,0.25537672000655404,-0.41066671535366933,0.6355843081061616,-0.9304039123547129,0.2134567926648146,-0.5228054819308945,1.114113166519506,0.677884416475968,0.24028393509289886,-0.36769127804781593,-0.9540249043478096,0.6010607062557655,-0.10258592670009242,0.6182276989785976
,0.05845868077483564,-0.6818557999727706,0.48550064144244637,1.7755112228772927,0.8373064816857804,-3.049864695366294,2.510374529403503,0.8491978547159617,0.9186272391887383,0.8855741939900951,-0.6029132831639933,0.8931540759783275,-0.46313716431377044,0.43188544781177884
,0.02640964522842495,-1.1379059659890172,0.3110888957404195,3.8506520640002946,0.6810271263074754,-2.441913017933743,1.6658762458400465,0.06888303621954679,0.30409317167025823,0.41615001365068044,-0.5803790741091468,0.45729675184137963,-0.34275481724873547,0.40432534860433816
,-0.26988615100676644,-0.9674838823824126,0.2724886924102604,2.620098914856122,-0.2374468183876268,3.824016156351904,-0.018532950063767133,0.14693776650773743,0.23024257765268255,-0.13754435520521746,-0.4639741520517481,0.46543765861274583,-0.21012534446782516,0.3187620531384715
,0.7251151004507125,-1.2885260783387023,0.6455932303159815,3.6730828674736187,-0.34405478168562575,10.5681667036541,1.3210553066836335,0.6582373916092489,-0.22215713242552582,-0.23666650924556903,-0.16366771396518381,0.8590895396656437,-0.12464387543435966,0.6134873028752635
,0.8657704880131445,-1.059192442145608,0.7390621118688241,3.7755177433619194,0.09255708184002111,6.013209696161334,2.0910471481216115,-0.05756988166999875,-0.21949994436207707,-0.11434899147029319,-0.5747369159066308,-0.0030762496368707546,-0.07720969120489855,0.8084944322464844
,-0.037923957097099656,-0.668280103088598,0.7021268134943585,1.0523819746279006,0.48001973841520884,3.6956056937620914,1.5939671776341418,-0.25145418235329736,0.3732763424171987,0.254265874426641,-0.5625611665244251,0.3044626741795238,-0.25492826895523085,0.7284710561980889
,-0.07835894294580034,-0.2949993455749254,0.3529523319923076,-4.001336979329847,0.7309886290512938,-1.2491075904314848,-0.17234767850721305,0.5887204342208261,0.7436561306740501,0.7106334384354112,-0.4094006014947807,0.5302781668625624,-0.3177263261787284,0.8013155256683883
,0.014322974826243812,-0.2813081405988684,0.5853068861228952,-1.6354267380194571,0.6755270955446186,-3.495908161505766,-0.36175919455542144,0.9505851161850767,0.2768028215017084,0.06836366115407772,-0.7532748843198689,1.2618669897020378,-0.3238265221070783,0.5227012399778406
,0.3717981300734071,-0.5929809396254744,0.6195959262791323,1.8155856075281365,0.733202531243411,-2.1492006258580854,-0.3858055780776555,0.5033888856838253,0.8491261280660994,-0.6940209342652826,-1.6183674533596966,0.7618615085514626,-0.22283058747540185,0.3680709380917205
,0.8300402210445281,-0.5827204464507467,0.8720448484104826,-0.1826906770769849,0.3976892064747409,4.222134237151299,0.8248303821565378,-0.12536211874428477,0.8558500545893715,0.06867529873273336,-1.0585093047236842,0.15132872211769752,-0.21716670957557518,0.47858572062716687
,0.31857527939044655,-0.6656178430379532,1.1315614292471743,0.12968424695471173,1.0092541932936878,5.301158429370956,2.1898630008401168,0.0927479958382842,0.08780505240907316,-0.1391259942557157,-0.5713382124281915,0.5465608046553553,0.027313009872911936,0.25855944960811134
,0.6166634845567671,-0.7071516640811677,1.0365909576178538,1.6547263101930432,0.7117207789618611,5.213444936506255,2.3163057584933298,0.6365504426483669,0.18930159694824844,0.010007911314362256,-1.4512089687321623,1.2870566347692605,-0.042435338606740314,0.46926467764516056
,0.692669912848868,-0.8774352077970341,1.2111606972645759,3.4453097757903444,0.5713264273482106,8.18991951476485,1.4521585041457654,0.45661477483163726,0.1367617152961404,-0.03440760089124693,-1.9237561698461405,1.3697031183464623,-0.11625080412805393,0.44446249026476264
,0.1280944442476886,-0.9905229995689814,0.42906252584323845,0.8102292710367923,0.38539192357441165,11.371177443859304,1.3514192972562429,0.3848003573117437,0.3475305029519789,-0.0023378158178689076,-1.3802743534943878,1.0880438979423532,-0.1855956306686562,0.04817128178026249
,-0.03005584985446048,-0.4704379929971287,-0.00762832233622022,-3.141472415336217,0.2215164835057731,5.775394460540577,2.1948796298142725,-0.18952318294766174,0.27536458145848414,-0.7997826462660234,-0.6178865788481857,0.09646742659937058,0.1192505116411905,0.4949969545879841
,0.05240098192979449,-0.13153192995925733,0.30761665622495965,-3.2316219869375886,0.42092723329317877,8.093032538409402,1.824378381737575,-0.21709999046427728,0.30115936935584964,-0.2588269092662857,0.42528838429242694,0.41732666208442615,0.1603389192343311,0.8252330400645933
,0.017038066090131476,-0.031150373019005997,0.3513322689834833,-3.5747692354209515,0.18129626991796807,11.311654905023406,1.675212625133491,0.5297644322839985,0.2105122333905552,-1.2914929549676628,0.5577071867436338,1.3572296239278092,0.18038551929718893,0.4447993149158013
,0.4374671785731267,0.04227713278671284,0.14583689403334785,-3.0459057427716796,0.05614876448378065,10.054819211324132,2.1115216510156545,0.2609490539134577,-0.3036852372954439,-1.1932721682532061,-0.31292448997746414,0.6676318402361745,-0.07812527715617378,0.08726147935037284
,0.39458915737692185,-0.002861665315670795,0.07943682799632056,0.9419439554216144,-0.15393576470568393,5.962990796127006,1.881459211101195,0.5428108018376199,0.1135348802204071,-0.6004339608933509,-0.148486239213005,0.3991437111394776,-0.22904976150080858,0.08287479324192709
,0.938963034070161,0.017305259598702237,0.18311007462463247,-0.5632697518247625,0.432982720084826,4.534922177988707,1.6897687630475622,0.9025930421477044,0.23289604687894522,-1.2327483232287386,-0.7745866850682617,0.5928288482159757,-0.022185358585555974,0.5771714204075242
,0.8930054566578743,-0.16252254948850073,0.04680353880438924,-2.9021528091003765,0.4316069369084495,8.198878045068334,1.2232373847899327,0.16940056560374347,-0.18394607250012585,0.00545101380312984,-1.2348044035895316,0.3491109302616507,0.00480761519055284,0.2903757043697769
,0.6020329070634984,-0.03615432446626943,0.1489981906865183,-1.256185702376449,-0.3713829124468417,1.3300438234200704,0.5802300755430627,-0.4162379876135789,0.2673081555504166,-0.3076819710883735,-0.8950913188611331,-0.3706569947052543,-0.0480631747577724,0.16179789324360863
,0.6071280984042065,-0.25091175025194645,0.3030028270695119,-0.4402269478029912,0.29291498626285295,1.0706837783992598,0.6861396666485177,-0.1904182381216299,0.5059210297425542,-0.4953291487975317,-0.8574681221543988,-0.40583636059040423,-0.1921118552113698,0.8766623150727602
,-0.1419227748859086,-0.24671118323144675,0.2711896929659513,-3.010638817199509,-0.5560006255210521,7.112850997883087,1.2902526121153273,-0.5915329307207745,-0.0989827720333836,-0.7252733869960195,-0.5582246438601266,-0.18932688316294863,-0.15986500240204118,0.6203589755823685
,-0.2649679814135821,-0.22243461634098535,0.38192905574362285,-3.0852974908821826,-1.0865203686304972,6.097662588944327,0.9634459783061917,-0.8554670044079962,-0.2161244350078972,-0.42561773471870284,-0.3972448136065623,-0.31041254663063794,-0.1857877850304703,0.3836808882173883
,0.22940818813498215,0.0054114631642647746,0.6277501592612078,-3.767921059240057,-0.6687760840023754,2.3456703941976467,1.0651764978810438,-0.11297295860936145,0.32990424330212653,-0.1607361643277142,-0.9467981336581477,0.2777053348274537,-0.35774959697260356,0.31186210891664756
,0.25849523451464157,-0.09059221692684594,0.17852360925463626,-4.396038425113683,-1.268012087298509,1.2780841292409786,0.8281295163590027,0.2025314432620014,0.44442777459386856,-1.640887338143624,-0.32364848917383443,-0.08928422485697099,-0.44119701020939756,0.33662095342192194
,1.053240416660143,-0.04941224592213153,-0.23235884396266052,-4.435514772076881,0.025487774500020238,0.9780445491631109,0.6230300591697303,0.6696824282813044,0.025149743738735582,-1.382120334633125,-0.8177250139241728,0.2463624485117886,-0.31633896834466674,-0.07661433415135771
,1.5665472460636303,-0.36699890230868804,-0.04677995695757326,-1.9620720516985097,-1.0300224109013656,1.4224457839062874,0.9351555822816242,0.6910340584303175,0.07216716175887981,-0.06700640398438125,-0.5232037159742687,1.0127132308476756,-0.38847248166031306,0.07262521987107719
,0.9116291660244858,-0.6516568753182901,1.0725359968370962,-0.5136409620457544,-0.7011462426336904,3.5613007076324386,2.197770618179359,0.3776972343385968,0.08339582933102906,-0.30624885886439135,-0.21520491007967735,1.2610966816918876,-0.21191718919719404,0.35557724419040687
,0.3495597593797511,-0.32276641799154704,1.0824335479444263,3.8264870944859544,0.04733221676834547,-1.412609184444563,1.136059813397663,0.2901384246062155,-0.10379141688276967,-1.328967553421635,-0.2226050211850642,1.082155539940731,0.01801073339393929,-0.2647648064246642
,0.9182639913490996,-0.16328165396148664,0.7890511043677231,1.7102004742121282,-0.38128314175659334,1.3201335217782395,0.34703298262235543,0.3946825502363734,-0.43216579104922564,-1.3611065571694145,-0.8422742401036735,0.9610795356386136,-0.3454428055570877,0.26741870776884447
,0.8828767492040788,-0.3183345547936562,0.3609293786093119,-0.7990106982006743,0.08469321727523084,10.679621835531561,1.0705423898326039,0.5973866968838922,-0.5773038807072934,-0.12038813711382224,-0.4820543721708612,0.7556797515851803,-0.28830831628559495,0.08884171460171887
,0.5195652155395012,-0.6872891223041685,0.45966719079432106,1.511206721237443,0.9965329912280277,9.85691702470017,1.3716784715590875,0.7165685066748939,-0.5223482684934121,-1.0243912835888915,-1.0362211431785835,0.5087730107535454,-0.22158487511890554,0.23372248443644797
,-0.01083377685047498,-0.9148630527515569,0.16239781922809812,2.2508728220257384,0.11704695133955284,5.640286808448959,0.6805398001795215,0.5087320911514244,0.10221266546432446,-1.3740817612488185,-1.38526345648218,1.177128944146471,-0.3030221343804373,0.8972795356289444
,0.5365479435821868,-0.7350734190466413,0.3007828596449597,6.010292584957374,-0.8795697594172367,-0.10561633585962887,-0.18279925099916403,0.32651955005645605,-0.17388842476536617,-0.7962218607534447,-0.8617848131890692,0.24384187902147791,-0.46059642944339096,0.4564598382460386
,0.6606672233930784,-0.47748460099539836,0.36378619180178456,0.017243037906585885,-0.6396811654980407,1.384629364720526,0.562025811467325,-0.18871369595160264,-0.6663483396326447,-0.7925075745014085,-0.23135502720887607,-0.0837450159302738,-0.18782287638610096,0.5875321863469236
,0.5745308795594632,-0.28838380129130153,0.36984511842083084,-1.944307538596903,-0.46138120329689064,-0.9415231857450067,-0.6284769606028386,-1.4541992021278254,-1.604438292728229,-2.9982633480550507,-0.41756446537882524,-0.44385854131308733,-0.07106819782620126,-0.07211017626413772
,0.6939412091821617,-0.31498583326434837,0.39586084999573606,-2.163339092374597,-0.6741443939671802,-1.2306219176573112,-0.9992875468852904,-2.4620603640247904,-2.5412141682155873,-3.96841861297159,-0.32815554964622906,-0.9852011338590568,-0.20460016165170666,-0.07706187775346611
,0.46187214385942454,-0.4157105238240805,0.7200809107894579,-1.0196990684941605,-0.14267893981105279,-0.5794883584671962,-0.8002822028473566,-2.185169561608121,-2.74239315084017,-3.6056184800514584,-0.5563357848212307,-0.22930005132900108,-0.18168894024321774,0.4521463970856877
,0.36077327925574304,-0.19027482161858444,0.02527829472161441,0.8237401168639213,-1.4398738116220113,-2.775063451021941,0.44063421853862467,-2.242711389638684,-2.0638371640469404,-2.8021820103332367,-1.1259183771975314,-0.6203209567657098,-0.10833812205941014,-0.4324501959361521
,0.3456240714043286,-0.18804446963783283,-0.9630967293826206,0.27556793634299287,-1.9243391104184189,-3.447202117480167,-0.6915255820954463,-2.6972503300735666,-2.4728587794944774,-3.11856107227937,-0.17206501175753272,-1.421744718759368,0.048365457147085365,-0.8348088651197099
,0.28363447095717875,-0.2397021685592275,-0.9782884857938301,-0.7433759830981989,-0.5021227480100598,-3.9891293699549557,-1.6977310314731098,-2.1793773371321428,-1.8844172501844059,-2.302256011454845,-0.2305324324303706,-1.661329339108834,0.02660209653531313,-0.6937259583540093
,-0.020825377729594897,-0.313929668859246,0.08120089920252441,0.23974339214816767,0.31539177980222677,1.3791281554759838,0.19338489348039348,-0.875813054039662,-0.8846305948486731,-1.0316498698611518,-1.839075063492581,-0.3008974012519783,-0.3183056382274573,-0.009691638832008926
,0.01396599338486662,-0.4519207250994071,0.5162219988630452,-0.2336371000023774,-0.5000986853633341,1.1625960837733744,1.5238865871049259,0.796668184894009,-0.09318426726865031,-0.5161676865000475,-0.2689626815882553,0.7678505992499505,-0.2553838738519188,0.410544525785953
,0.8673786141275118,-0.7861372041518612,0.02146352198501854,-0.07744789662356412,-0.5761387879979284,1.3293751776699538,1.189259294466331,0.48977904014536516,-0.2201182222872729,-0.19269215164402512,0.14659995518877253,0.9262977828965395,-0.2260733368488761,0.7141008666213177
,1.949703832023043,-0.6864659876022187,0.32977639589286833,-0.31183712219733917,-0.006562677237880193,7.040135594062859,3.1615693560182314,-0.14358594628349688,-0.238502536491198,-0.14843158897369926,-0.4147653149932495,1.4479064034717195,-0.2632001341334615,1.0055396724664947
,1.249661009886218,-0.24921768781190232,0.8762514403818332,0.6953925512979015,0.6127043996649078,3.3661892659161667,1.757062735872647,0.42057096943059924,0.25630724045379727,-0.7811193579409818,-0.025862254515256828,1.1362615160820528,-0.19545510973717803,0.12007852589067182
,0.6534215565228785,-0.17629504154502532,0.22308530331854431,1.4072350388192958,0.6858095618293261,-0.08378694159914112,0.6698818570515368,0.9630189487105595,0.24458788811651103,-0.5997355191345751,-0.17132551317353073,0.5503502830933127,-0.20872261319775207,-0.20659447418380628
,0.6740991339616857,0.010173088856894809,0.35372057486324104,2.8157836894732604,0.485740287713191,1.5530039590139164,0.6690254417272438,0.7935870500813283,0.45806872136862925,0.32154788032203974,-0.5289783383935356,0.5342972712592722,-0.18018996276611055,0.20736818524569126
,0.5879063857791922,-0.028950292474831815,0.6211129095402715,2.2997622431597264,0.438467242584649,-0.041519486588061656,-0.4737137194936313,0.7748946212046915,0.5980224993206759,-0.2646711861247228,-0.6430890989105381,0.6827275584085923,-0.22138643419649795,0.39895276926195083
,0.8275259113999924,-0.5287814155008156,0.03574492357161927,0.37156379496092934,0.9306309576743611,3.3872689145241623,-0.14231697550872627,0.8686424634807299,0.2946165293722866,-1.0021926094917593,-0.9531411973785001,0.8369159106197072,-0.4030534198786395,0.500083870671516
,0.5499512668510762,-0.07761748854084247,0.32113410092743594,-1.4607144046093647,0.6833838199944078,-0.4906371805550676,0.21335871760745795,0.8869258341060875,0.15915686648580823,-0.8100380213154724,-0.8820605033585667,0.9703974144078602,-0.4686810865141526,0.6084092143514273
,0.23459461081376526,-0.13593337331315491,0.08485279260260802,1.4223571419287386,0.3801176460932695,0.5852646308864174,0.24397809403604312,1.056014926974185,0.5358174597946849,-0.44270555917623766,-0.7565391461436918,0.7645749858454183,-0.11352267690298554,0.20651785623794539
,0.4139745406349822,-0.83392350993079,-0.004610016437838762,1.3634596470798475,1.3399911235591668,9.574792985411111,3.3334976238273097,1.2534644329603524,0.5498588870836549,-0.2588165065309654,-0.5783124463066783,1.1932973841043246,0.0058150451786719275,0.5971974155269957
,0.2829853613481809,-0.613262383776974,0.26080582924529183,1.9771908665392115,0.8149565168472364,7.2522543284803795,2.6365787308955313,1.0649890785722977,0.7450831374304442,-0.5891879177280508,-0.12039170086206608,0.6048501501870516,0.015413100628847504,0.7633204077127884
,0.8894414242675662,-0.6104670159298835,0.6928924611412518,2.5469720140699947,1.370780888903636,3.5396654806723444,1.4877366236678744,0.8230084391361412,0.1795588100775339,-0.8007006878327935,-0.2645250027370262,0.13708823038895593,-0.3090439307167472,0.6882458774874648
,0.6298470586840468,-0.8891567942739361,0.35953330384576054,2.8832894526504256,1.027240744606345,3.3255457916919666,2.152161904476774,0.6084885905903927,0.14374061342592662,0.029036301466513346,-0.8144541028697586,0.3705713212087343,-0.15438195676503222,0.7592002355749423
,1.08666250761122,-0.9908269016978243,0.620027541801079,1.397033711752892,0.463972994352739,8.2298121934056,1.4715554553842625,0.6755216540856309,0.30063690110171354,0.806977998764084,-0.4359158384185334,0.8462469326924613,-0.09494692244584932,0.74536909250398
,0.2386667199668446,-0.7426999050554678,0.9766222541388375,0.6679515544845708,0.8192451131236903,7.010686580903603,0.9651138490740653,0.45898354487678983,0.6503923013057339,1.2702513195854397,-0.6617220092819147,1.2407336999825285,-0.042573748189160376,0.7881183391378735
,0.49027712644151483,-0.5300067483500707,1.0124149911222906,0.3917129508483823,0.4177062386921408,2.717815396897089,0.3456870727114088,0.49440362616747474,0.3207248556622809,0.6826943148648794,0.14662272551719283,0.02428036630090699,-0.06602754830028126,0.6914934244045359
,0.7425359783075944,-0.4743795268957804,1.3144136909139983,1.4782784201297017,0.46942162939888965,5.763708195899125,1.1322684459212955,0.8608623268855671,0.36565192926282286,0.18248616143699556,0.2711791848786446,-0.022789995489942257,-0.31069507134325663,0.1621796144819568
,0.10906554576025873,-0.23933744733803736,0.6349769534248878,0.805240025951952,0.24657515860991502,9.367071379340265,1.0190416441575894,-0.06163692041767487,-0.11397917919622616,0.8824363290697059,0.06281908139481876,0.36710326229300694,-0.46103534369270754,0.34643886808571733
,-0.17209785107431178,-0.09031825388631856,0.2784111045099462,-0.5088438943416554,0.1400746708822245,6.721508076964716,0.8938957852468816,-0.17659193497205686,-0.22475398951935224,0.7678641886840468,-0.7709302100357627,0.3625117334218098,-0.2992456342209152,0.4496056644478168
,0.06935511049111091,0.04512797616504631,0.4909753259979043,0.30992857718589173,-0.4027046323461138,4.616219958038421,1.4101015643255876,0.3548856761051086,0.08283558273545436,0.20771373675627564,-0.7726053555333089,0.8966591765019056,-0.19994911608937463,0.2350093650671638
,0.8169385442134699,-0.2039058942094874,0.6301536028120499,-1.5513044003835015,-0.729347322585735,3.1182813758041843,1.7376079820051749,1.121643469806815,0.3865067837939796,0.009198151468851747,-0.1593101001434442,0.8553522017930113,-0.41137346158945054,0.21835596428029355
,0.38458954722842076,-0.1591891448025825,0.34598099342752875,-3.1400371351624847,-0.17707856124520746,7.027703452723657,1.647888789334911,0.6499419275742391,0.3108846535834842,-1.1790099412187116,-0.1279286946303616,0.3916462299668201,-0.04611601837605494,-0.010485079740877161
,-0.1535511336645759,0.1380250946858381,0.051517703685317426,-3.965874930813114,-0.15827030517817572,-3.744388949727651,-0.17702953082623746,-0.2794433686856164,-0.17545893198148607,-0.798257649925803,-0.3386153129381625,0.29680216692175954,0.19401178668809227,-0.15058745830426704
,0.014420016497859988,-0.20182923554905763,0.37787469269654755,-4.782357853576136,0.05480751034758147,-0.5212818372428473,0.2691180649818575,-0.2105148954832344,-0.5192790550998229,-0.30840902559638333,-0.780120471845971,0.13191883195743093,0.04878908228037604,-0.024216060383002835
,-1.4536199706286237,-0.026740992121079842,0.2178949719975216,-0.8705355939354879,-0.324339355496808,0.8045005430410581,0.12403538553991987,-0.24351637706121912,0.15851870897991577,-0.5381263388881979,0.4445979419779157,-0.4043512571489343,0.188663084977339,-0.08916792572211446
,-2.546647486036141,0.5152916057532271,-0.28722466302560334,-1.5348187636639867,-0.43872778922534955,-6.981915226807775,-1.8459112730950293,-0.6373161525849564,-0.5817738863607776,-1.6814449721677676,1.6215109542141448,-1.2355183496866244,0.3901766277254165,-0.6786638420131427
,-1.6890567286114746,0.6500613242641562,-0.7507907337195862,-3.1137376166011754,-1.5872081887480138,-5.662964601812144,-1.5447664181551972,-0.8508291385286063,-0.7360747519542622,-1.705249334098411,0.800387903219519,-1.1347279705570177,0.06031949796352401,-0.8637071501717797
,-1.3930004104332754,0.46989838355154917,0.10437577509667696,-5.123032197321651,-0.7780212030373073,-2.46126357896377,-1.044742935065794,-0.2428465977614406,0.017708560710679718,-1.8157813456652172,0.41898696544577385,-0.3215470426128281,-0.18728317129527686,-0.39894187848429524
,-0.70430897731681,0.3150830660543815,0.29597806251269837,-3.1862429609429954,0.01955980821180463,-0.5380817956939332,-0.48354036047321025,0.35076081655789354,-0.024697814986974098,-0.8794030791993779,-0.022324223062605206,-0.07313309323749652,0.05470428384209676,-0.27135604221405335
,-0.5370358902140204,0.25070316443788265,0.24350725606433182,-0.5631826749564168,-0.7057597280547181,-0.8215733279900681,-0.1682560775177573,1.0653899457676037,-0.1567452564138502,0.13241623934077426,0.21272068704765132,0.36710096706376383,0.16246962812225768,-0.339489869026401
,-0.29631413324908207,-0.40154503729769725,0.2550396785294043,-0.5335440333355776,0.3048632473113438,-0.5380599368310097,0.11278866767960219,0.9451065470462839,0.43551043396503814,0.5134997030066246,0.30245639675046404,0.11400522138572729,0.1707293125400597,0.8942622860168818
,-0.24926991862536213,-0.3189867873877745,0.3027495445232901,1.2122727815064427,0.10202640570711108,0.7651582438206664,0.831235268567022,0.2224703892050928,-0.06556829915940476,0.4482307863602358,-0.4589795775751235,-0.5119192081797899,0.10589442422551738,0.23960910827346465
,-0.33028034402354706,-0.22784638930384465,0.043868143306278445,1.3690490584455581,0.36740811065382883,0.8372582322774862,0.6590907690143926,0.3143239583084764,-0.5350876418048237,-0.10812166617942214,-0.7865286648401566,0.548008346845614,-0.02235414071475382,0.35904196743853645
,0.36255178239881664,-0.37706055430307456,0.06284262836033729,4.717108638150473,-1.251641631778712,-1.148674646793454,0.19807407337155652,-0.7049033398605815,-0.6331115210842394,-0.3023925824217715,-0.8727083086680222,0.44501377154849514,-0.28717156965266366,0.2315960952017799
,-0.2048761797267173,0.011500993841770682,0.06811248900211755,1.067928204477484,-3.0414848075399363,4.022763524227841,0.1986704065419395,-2.479550599068391,-2.8344299494670175,-3.9425527927978683,-0.7409815138943463,-0.7647639361209034,-0.1091820723884781,-0.21857348967980253
,-0.5262689833482725,-0.09280067894202891,-0.1000923378433958,-2.6310235181441075,-2.0836819834615787,6.501544009174582,0.2917527400225005,-2.8151914968973615,-3.134948552703922,-5.210492491893114,-0.39161407444424723,-1.4050733181915838,-0.1098313109887902,-0.16761580840860085
,-0.1850077075839943,-0.4701578350097877,-0.5787179703682618,-3.302229924045502,-4.437536724990701,-4.1128883334740145,0.022734320400246553,-2.086575353649154,-2.0360650562951057,-5.239737659021731,0.1566014099656903,-1.3676972584827405,-0.24374847001207706,-0.4311322217002446
,0.14291133882942264,-0.046279307367217005,-1.2573363146722945,-5.989603054109756,-5.94275621500849,-8.59283114946747,-0.27083698657123273,-2.375060542427962,-2.751736286460258,-6.438739305413565,0.047165099631963754,-2.0014536364268474,0.06562194257451796,-1.1830520040371098
,0.20641863040788963,-0.1933238110759626,-0.9281259613599081,-5.441924411536075,-5.941497955751339,-6.379940833088259,-1.442945128828031,-1.517202821021872,-2.7488040635822935,-5.265791899003647,0.18515911286786196,-1.4999462745565117,0.031022701387445825,-0.6512205985638441
,0.19168043090477818,-0.5663420519927622,0.33900221005146747,-2.8912635602686123,-3.721211949428731,-5.255676621584832,-1.236947533900529,-1.1576623357602092,-1.7727901047771564,-3.041460552020608,-0.0548400244485386,-0.1747293762118955,-0.5554472723543337,-0.11424662664984055
,0.3593146140398625,-0.9084784500705816,0.762207695620715,0.03995756983113992,-0.18359482948409891,-0.007496365000467562,0.22659496106451432,-1.5479742138386774,-1.5567298198727089,-3.2750731552997556,0.32329329397852613,-0.19283018147606218,-0.1889401342774582,0.07605404764088705
,0.10734599143989608,-0.03197819300226027,0.03359360320284064,-3.3132830949602394,-0.5882643397954013,-3.1814969675456592,-0.030596368459618748,-2.435428362478966,-2.198031117773459,-3.8309252609030873,0.6817924688347327,-0.9326141498086212,0.20980534744291982,-0.13849440686168346
,-0.9423322816543143,0.5337191324061235,-0.5456809941964649,-5.727531971788974,-3.319181675822069,-10.644014101152697,-1.968632001574182,-3.5957497864929024,-4.139081594416747,-6.490352352779426,1.861208290654136,-2.376181917810186,0.48096838745384013,-1.240539007293921
,-1.0849013349161483,0.45497313687734303,-0.5945780727426683,-6.585165242402966,-3.9420943649305222,-12.021497794320862,-2.3224106165845786,-3.6684302910002766,-4.220563201037663,-6.740616814796263,2.241889566279755,-2.799340519248483,0.27806860160814195,-1.6049988034555296
,-0.698046963156727,0.00039542822969124397,0.3285821743851565,-3.739273290572952,-2.2217126008356267,-5.8079394129928925,-1.6039258552590194,-2.1480141185926,-2.7434807921567193,-4.4301154729684615,1.2769767426462535,-1.5696597597411464,0.055193280052485805,-0.26546488954449105
,0.33643303278495035,-0.06444656629508029,0.43354205594856693,-2.06705568164399,-1.119626950512057,-4.78442878795313,-0.9635474686853743,-0.8787116560650975,-1.4621892066597135,-1.7400746605483588,-0.048206520433724594,0.06776853826635613,-0.0663557341989669,-0.32541890733419854
,0.3174130093044243,-0.001190358449434905,0.10542731577910325,-5.595270486185307,-4.999643547958439,-4.696644486229532,-1.0955020346796833,-1.5803934864616622,-2.6228339681161246,-3.7772101937075897,-0.3502799024539709,-0.7708258664125033,-0.16030707667967248,-0.32897288710951744
,0.2510294387540409,0.3039313109107363,-0.7029218833919735,-9.761465608776355,-6.111254394252902,-11.293258064168613,-2.57766039365537,-3.018993004221235,-2.8491030796821892,-4.491144811228098,0.5122152274765026,-1.52579610414484,0.01424764055530601,-0.44748357562816243
,-0.3757421650460254,0.5297389771896533,-0.9542221849451186,-8.544647613274416,-5.520405247584203,-14.828590131028289,-1.6505166669460924,-3.0286278886560885,-1.743962850051779,-3.153401613099488,0.5367357397643221,-1.4642949035172597,0.046541514445629775,-0.49851910630988905
,-0.8695682600121851,0.5562329826354362,-0.7207851822985968,-4.699737059883413,-4.761340736382931,-11.08502081406108,-0.8641012184800458,-1.27139854594313,-0.9575617048651041,-2.5834703063814173,-0.1651954857289745,-0.3688471215870253,-0.3503407097625869,-0.15570384323538006
,-1.0395139414476553,0.10167501270348221,0.0005706813479176753,-1.6961966380032503,-2.1636998942425505,-2.88010127038826,1.2472949117732384,0.059240044386070646,-0.37371252270709415,-1.8639442581054035,0.14682802584899524,0.2661388995444952,-0.2537375905593217,0.29870648710655123
,-0.3537454276977275,0.34460766326847625,0.14731863164407938,-0.5716097723604237,-1.6279028041958101,-1.3412672612173948,0.7855326812354093,0.17276888581148728,0.14388565106876977,-1.0697546386913466,0.15732340882903909,0.22526957575667206,0.043330726483697624,0.38229588592499797
,-0.7012474500229499,0.6987586037569538,-0.06267842798812262,-3.799791035218869,-1.4870046453782912,1.3666618553242726,-0.4876040531681001,0.6318424247707862,0.33396291014834584,-0.8552143549063776,0.8731439592443048,-0.25864997373168613,0.2669555630964124,-0.23511846807803644
,-0.20157033301724503,0.4865319332710476,-0.07456982582046759,-3.76368355373955,0.2364192109998347,6.737703803742203,1.1650319284091426,0.770359017637669,0.8265557943712878,-0.2425597670599617,0.6569858654324721,0.1383726248938833,0.12219149956442721,-0.1084662540416172
,0.3179890262762343,-0.3888400397171612,-0.15363392691627617,-0.19246201090792311,0.5887574522138406,5.793854363642255,0.8947133209072792,1.2860873722510997,0.3696007244383474,0.5971976567696262,-0.017362112873651164,0.9829649265291088,0.19172501099575479,0.09069381769344169
,0.8346222456691362,-0.03951672443204667,0.12176621018552328,-1.52987315858714,-0.21687877724649668,0.7471340942020268,0.0725461336457357,0.8955724360494552,0.20138999480110145,-0.47564474065991014,-0.781173019866647,0.5130872585088662,-0.15954752848295925,0.06361724071433161
,1.2769549918448195,0.09057033484196642,0.3022275879352234,0.6970108288823653,-0.5576998779576218,-2.1155859287826613,-0.5880074138299328,-0.3365175863851798,-0.42334470463657,-1.247760941669519,0.3797059596260724,0.540383260724229,-0.12180874560343531,0.5571906830369548
,1.1824096868939846,0.22214633973036882,0.02541841518013925,-2.344206468184659,-0.5016153200994421,-2.523914972117877,-0.4644996060746364,-0.6780471439708066,-0.8258727089637506,-0.6052307920934509,0.43055487430946765,0.6917720297971042,-0.02144890645262708,0.16570355582070376
,0.9198002091192198,-0.016039692075779616,-0.15658864447868845,-1.1503785694566988,-0.3736810379304306,0.8242213084336448,0.9904814521796577,0.4361607125950637,-0.02274883028848822,-0.6884515608373458,0.19394444575098793,0.22295267764895918,0.09645232530968403,-0.46612291522511384
,0.30740672881751796,-0.4808986707516245,0.09656514967850786,3.3807173380249886,0.8398414319978285,0.8122520337215341,1.3683768939832068,0.5498179510111694,0.1994106758347798,-1.154199738059814,-1.0352845888785822,-0.08031732400178736,0.12351283705472046,-0.406017219769824
,0.4391449164796084,-0.3084183213701457,0.7303157080091692,1.843085310759138,1.261560306285113,-0.9144886043263124,-0.06574566981770058,0.6339407290079112,-0.3728735432327979,-1.1495050418575359,-1.1872623017638788,0.22436451447097544,0.09353427148534348,0.8071533639231043
,0.47523712523770045,-0.38015277450877727,0.6935761082644963,-0.250860910696534,0.12964504098025625,0.6319852105715483,-0.23063406211563856,1.0492535934401621,-0.2697675570528027,-0.6666523175965423,-1.257166921835848,0.3259875733493,-0.11481187416014418,0.2746215728806348
,0.328455834782103,-0.3195223688185546,0.4378158003075298,1.3789903093163676,-0.684926516886776,0.5333333500316054,0.2923125547162202,1.1849917649904314,0.41065140664663746,0.3702106118422553,-0.3710410720790716,0.5808177974864187,-0.19031439384599633,-0.5050131750553732
,-0.2595000870332597,-0.23177043913509948,0.30423474049133964,-0.455997412250726,-0.8018372697278702,0.25810829319840267,0.09432387536729245,0.8672583025361115,0.46411627961316193,-0.5910625408008555,-0.18349393900113048,0.03510681797794643,0.07228430835609867,-0.6071674276731502
,0.234242129319343,-0.15541850129577522,0.5485603031173594,0.7887025674753296,0.32919886181899183,8.133792682980882,1.020273574936642,0.6853594703299126,0.40258116650622744,-0.9756647196911392,0.2551992451608198,0.15646012257340244,0.041401980022094546,-0.13512475464280935
,0.41122002182868517,-0.3316962028699092,0.6383632325818281,0.709237909925861,-0.11606467225814836,10.797567533997492,1.6432166724332447,0.9857252288461351,0.5478736191163351,0.3900609248187371,0.4331345522004927,0.8071031134956262,-0.011245761719638848,-0.08667717664824741
,-0.578463571525222,-0.24921976022236877,0.2970855361748944,0.5529207835966035,-0.6728306236142656,5.697761772937544,1.1650660531458108,0.3820748957994544,0.5206334083758567,0.4631231269613656,0.16791439764033944,0.16785750021018336,-0.05214462325820653,-0.40693330775029546
,-0.5395945090390615,-0.22204061510812606,0.049763198242249784,1.4207066315482202,0.4411757592046509,1.3310826683361139,-0.006576567884983521,0.08498776450458113,0.005370697518391587,-0.8721463342916359,-1.0119676901674852,-0.3505211829477177,-0.2826674701680408,0.150073695119363
,-0.5458881114825949,-0.04926361813384464,0.275379183241645,1.236651516912787,0.0674480311403938,-0.5344685785038451,0.017473799704064336,0.7712184939848197,0.19335022787873443,0.4537037272400206,-0.9329798372312444,0.5681730340024775,-0.14327065121161903,0.0791498534236256
,-0.01609066969279503,-0.3718832850295476,0.12852281110320754,0.7045380565576571,0.4011323920944745,-0.33340019598513726,1.6135500904549664,1.0999065037551128,0.30705022388876435,0.7399824329779139,0.4616755903605231,-0.08292946548766619,0.014026791729946085,-0.09837280406504943
,1.3245132855937585,-0.3281914961296445,0.268304582465087,1.154801260289584,1.1978537385798358,0.6249478299209569,1.248146274079657,0.6729224039217837,0.28833665828053334,0.222345018953945,0.6196496153441883,-0.04623854606045991,0.038502701406988867,0.6709183266260876
,1.0958250845156476,-0.2738680667121773,0.35053070168747097,1.9776905759240428,-0.2583311975557024,1.7655904668097857,1.1276489755025887,-0.07261799549176425,0.004778954032817166,-0.021784002722354458,-0.6677392648624255,0.7795362204728498,0.029251117952495582,0.5252182473875997
,0.4517876661136904,0.07744324968422307,0.18683496478987904,-1.3817828143702917,-0.8120155404897339,-5.275435008373421,-0.9665647655191612,0.0737076024756297,0.4417706850828993,-0.4715467451078949,-0.594681375249918,0.5025667028986947,-0.1677512536285031,-0.08551499401935357
,-0.07149980302966569,0.48532897617513593,-0.05821672395221643,-3.5291774530402535,-1.8422788819332399,-9.058442219473806,-2.059313552655617,-0.3636832573370799,-0.12881448688981653,-1.6727912825779523,-0.2934505908816544,0.0957687361545135,0.0037455882082357457,-0.2376398855532315
,0.38436085447858304,0.6886244367809857,-0.32864856231708117,-5.354381765195311,-1.7635011688424589,-1.044235414229502,-1.2888570007457598,-0.6913247332985769,-1.0523723407495549,-1.9629127202244925,0.2902997066509119,0.07190820036687856,-0.052252323481435124,0.13396326932042094
,0.22515662412070309,0.3459702181307468,0.2930160595170458,-1.161309779384131,-0.7121700654288079,4.177804431040443,-0.12521291258411554,0.0861297281331137,-1.0516977708203545,-0.5440456243526376,0.531205187571936,-0.14998999389439993,-0.17250373272245903,-0.031510501250178714
,0.053351555498162326,-0.3622687949034422,0.8414444000319734,0.19948796472038327,0.8498513259477422,2.5218138603068385,0.5938092608826314,0.947919317124331,-0.21401956812396955,-0.08324459924608704,-0.4693222154435583,0.7500695065403136,-0.3408174318890312,0.1037930048405923
,0.4795717877404318,-0.6747851571993995,0.7885964730323413,-0.5454624358191192,0.3914036484034152,5.04640233714707,2.0852511643730334,0.5198993740208936,0.5539009211927588,-0.4855594308577639,-0.3701157397023822,0.38727475997073557,-0.017474021157747155,0.30719849743245464
,0.7741077490192414,-0.8154653953035692,0.7159802296480322,3.2764964322301204,0.724731680232615,7.823122698816899,2.164531356507616,0.41960399134066095,0.055932232585450874,-0.16736256955441,-0.120669774599751,0.4577488210845885,-0.2229563131076459,0.240376226972343
,0.6708011871022483,-0.4243889099033731,0.6290883662060425,0.038295947144676844,0.25006279633856415,3.484601128099421,1.9878673698409712,-0.06395087376520889,-0.7176031032497384,-0.9775636023787152,-0.5193064004922622,0.7005421818248501,-0.4847772355770967,0.386565298951671
,1.2535616883485667,-0.2514936880085938,0.23953775975859987,-0.3302247467585577,-0.14096752810082494,1.9003908497336703,0.8423671174318407,0.6233954585102434,-0.35952172128290844,-1.0060048450351158,-0.19023751914361403,0.6945269138135263,-0.37722655106443037,-0.04037901585220665
,1.128681993453289,-0.3959425837061979,1.1222501076472071,-0.722759592447128,0.2863015830769879,3.575022553508055,0.4810451686532488,1.0661929929965581,0.6131353174290392,0.25968140590887445,-0.667512378322388,0.885612786471642,-0.2858275107404897,0.42860589045151326
,0.6337987267214864,-0.12809963879492633,0.8352375353743084,0.16799803423701698,0.44568616945357115,2.0229883022296256,-0.18114003224389444,0.45480920348558856,0.7187593140552797,0.9329260670454932,0.3015903020618046,0.672141790694648,-0.31267311253087926,0.08513665765846723
,-0.09390831670446535,-0.3196631272459203,0.3377744463684139,-0.3824955318674399,0.37482180080316224,0.36021675667182873,-0.05224462005409076,0.5600588175991381,0.26816333774873424,1.909624296888142,0.09899795479488568,0.7904867900578832,0.10062960824752677,-0.008129026046624866
,0.113024345485716,-0.6484486545148997,0.22381334212603235,-1.8714399506781052,1.249308159434615,1.9366214162165398,0.5792057735810326,0.589512370363851,0.2730626198477874,1.176811806914043,-0.33914080025269433,1.1074956103338556,0.03581697831882562,0.327552208495985
,0.18851244283538937,-0.21795790946608562,0.33884029954779815,-1.3380919255365735,0.4064338872492456,-0.3281471113072866,0.38387429836718295,-0.04815118014513088,-0.08245481608650125,-0.16481463157094622,-0.38019657057166906,0.3740441172541137,-0.19721167598108236,0.34482145976212847
,-0.13346856552146721,0.06220997460066896,-0.38836034714264767,-2.985981727049302,-0.17322103652414791,-0.7890486718762384,-0.4860727515781185,-0.18736599517030794,0.0196185538894237,-0.5969832766476909,0.15481402315302126,-0.3513200089279773,0.13159373041293584,0.6500630059744095
,0.3266873282737608,-0.30576178826561595,-0.07916856786290727,-2.321563800833942,0.08967543644923141,4.128161504839427,-0.23271542552610133,1.1647569757640808,0.7215646748375147,0.31207339131431755,-0.5464180036755921,-0.07239397686107815,0.051828296717665416,0.39357699396498147
,0.307367144310464,-0.6905260261595467,0.02162461651127395,-2.649974946664934,1.2602780010904844,-0.08010979415765372,0.25037437677290353,1.1410914812794455,0.5801210458001106,0.6842785807435339,-1.0614298116603547,0.6573414189951026,-0.008302282999827994,0.29288296893087656
,0.4472532486604637,-0.5474688106969856,0.23534768393981548,-1.075919365389523,1.2817035947471704,2.1289028168643407,0.726465427486021,0.7302456776055165,0.33771952581317555,-0.5224802496689587,-0.9244894095388074,1.0015222496878202,-0.05479657953424963,0.4268959152143986
,0.30183431439573005,-0.4722971759531153,0.7769631380923007,3.7774247274108936,1.1728312953007176,10.824847624480524,1.6274234036771855,0.10820326599757789,-0.15635664388711962,-1.0272272531990059,-0.7450880493726906,1.0258900083002045,-0.31701930208552853,1.2129096166787996
,-0.38673220493104277,-0.13123128836267828,0.42909222225881855,2.813240984404404,0.6455972124721859,5.705109406295931,1.5318394023719062,0.10314955318237808,-0.7800417578655516,-0.8929680714952711,-0.07172043384000379,0.2647482246002803,0.14582755961263283,0.5453927193583368
,-0.39190860600602223,-0.0436395047332078,0.25398973160874777,2.16570836592552,0.7346065150925645,-2.9384776527141407,0.09975812018794442,0.4333161314537105,-0.10395191991694339,0.21596733084727185,0.07078090739426007,0.12332843728446927,0.320571744222929,-0.03912760307560925
,0.93546975558693,-0.41893860085095636,0.3508754915586303,3.8624727878520613,1.0011693915852478,-1.235060901462288,1.4843051607972293,0.60626332282651,0.07931665418049548,0.5330967495366097,-0.31488700360216976,0.5252446277249171,0.16386334426236596,0.371536521279242
,0.8207176004070643,-0.7588918119020028,0.5375860849477984,3.5986239456239395,1.0753079078036718,3.684347622311242,2.3546397403485573,0.9963894627186104,0.10454839906154893,0.21525640717044467,0.09951679163641201,0.8314099990054374,-0.4099297395761805,0.4059356947823506
,0.9193680341980548,-0.3727446286158203,0.5230161415718172,3.9439232104883373,0.3347157581738002,-1.2504223538016976,0.00407154593402654,0.05171833926744385,0.33210756035288413,0.15057539310335688,-0.10942120217493914,0.36994123136082213,-0.2913133085180182,0.5378078615394564
,0.4937499425161512,-0.5038748701552754,0.549517830141048,2.790203556212661,0.8667669731522307,-2.8148042887831135,-0.6529485997318337,-0.16475156231196886,0.03610756311675191,0.15145879073511292,-1.4244917881416068,0.4014769050798436,-0.09859474657468699,0.8641179365317309
,0.5785510441980304,-0.2886454901729678,0.2860300365810331,2.5275149716491305,1.072830870628257,-0.7259505143939485,-0.41789957419484003,0.3184202787776985,-0.17711393446706417,0.34247078560883226,-0.5828499078239777,0.4196281078637515,-0.18590994080616974,0.8267887201012114
,0.5235459690663027,-0.3109505979146523,0.43638975640698635,1.5328563795240582,0.5498052206781763,-1.0361214022509617,0.023617559296097154,0.6615369701235752,0.13588585107819373,0.34239902928116434,-0.340146215662643,0.45183369561368797,-0.11229989465115083,1.1393125688028638
,0.8523599346089724,-0.2041910900717792,0.5770727280477397,-0.39099313597226437,0.9923109426098824,1.0605482957283792,0.999085137145326,0.5615439932257954,-0.11411396554433116,0.09256177821141762,-0.5387700043639659,0.5254495215700549,0.001345199324553897,0.5812230677466712
,0.9083911912188282,-0.3506448716572957,0.37550687433578595,0.09578770282894988,1.0171349155761724,4.770596766517906,1.5878206399003403,0.4026260327401065,0.36015165003635147,-0.1815225459321079,-0.7736214393140186,0.4688894128453685,-0.12875268613357177,0.7602420333726562
,0.8028930089654309,-0.33372248569945206,0.1676845298389162,2.071213061163711,0.3400197867424589,-0.2653342966408993,0.6541680044720406,1.2382395870809206,0.709597594527196,0.43186130033691644,-0.850348971889464,0.7538326378472039,-0.27334133175449254,1.0400607524409482
,0.05175970937979746,-0.4627623502612885,-0.0014603911827321555,2.79930542432921,0.3364273962832688,0.17579110290535213,0.7578944825365471,0.7628094192210688,0.38308102486666645,0.058139939624124,0.0010100655989934123,0.38219983992758544,-0.16003931188204912,0.6731266056752264
,-0.5829305234508168,-0.3433121608694489,-0.06430922435031551,-3.683326892031182,0.4127078626104794,1.9665546696880913,1.4297493298778856,-0.6045573291276898,-0.17517342190861937,-0.7884010918098211,0.4439492127493048,-0.3766191352888894,0.2472535612533273,-0.3669304103850633
,-0.6172807720653429,-0.42866966942554513,0.4912760883626846,-3.494837613724555,0.9527232054253127,0.9520393873956136,2.5218793956083414,-0.16981804774892406,-0.09028885441799726,-1.3460110643537142,-0.8343931527946695,-0.2191144058892482,0.10121209225191478,-0.15574954213484787
,-0.4974377937056725,-0.2842206409811967,0.6472102778978086,3.526093716803429,0.21504566484398616,2.229675953779975,3.0221830103667697,0.5248689103941132,0.006433453319551328,-1.0020134494940602,-0.9618765552015948,0.8775502041887109,-0.40515207205797216,0.103895614614354
,-0.2751012713640411,-0.44908527446776136,0.2149547255551331,-1.0381809389355128,-0.23009730697445918,4.655144673921617,1.2482664031085149,-0.14205452603798518,0.2182617104155528,-0.6641736084450188,-0.46871362403996175,0.44570898094343037,-0.10123782869032123,0.10288072632447684
,0.49010476724459545,-0.31407470594053616,-0.08011027480457057,-0.9478254816449171,-0.07462115884239037,-0.47315902474733773,0.35269408157035514,0.08510826747390239,0.3571025430491051,-0.9120611563643032,0.07180682421230941,0.46950125597854586,0.05014123897684027,0.38581504114381443
,0.6360747296576154,-0.20059085031460186,0.3867542276886403,0.14278912095536217,-0.04912657059570209,-0.166055430128416,0.364542731199457,0.12788193631466785,0.6133240871521357,-0.6319698003268651,-0.02923511726019169,0.15918466584576654,0.018806990345280047,0.1673949324273392
,-0.43049496015939837,0.10246057006088766,0.13148605831911192,-3.1181109243577216,-0.08944421934598437,-2.0500188025365196,-0.2519219417016643,0.4948754836688513,0.5557350971344082,0.06903759301912736,0.33669519539091675,0.3182445595863091,0.010192247509336201,-0.11526535615632999
,-0.4794829063135269,0.306381731778158,-0.38054946571180354,-5.2567488322738445,1.051248321483674,-0.33029645975823463,0.42998718671841296,0.6361346681665274,-0.1537039647927302,-0.3139270381763293,0.5424935320386024,0.4696167610475354,0.049548094376540265,-0.2985886468302915
,0.710593500271262,-0.0031759002656885364,-0.22769020947174684,-3.748838570534211,1.1523053424474952,4.826208411625994,1.7673483110186226,0.8193668573927597,0.054071484407175525,0.8450100121118586,0.13754847175553522,0.3819867956618005,0.25420474060420123,-0.31706118997751637
,-0.5126652286222615,-0.4287419552629412,0.1874483839849877,0.3035528712387267,0.8698519487590165,3.512996229770625,1.0154472994345647,0.18378483381846022,-0.17530308149526397,0.2791469170389788,-0.032874150582767575,0.21936346041841678,0.23128065881159554,-0.5360281493174145
,0.03295540750521736,-0.3274890317333865,0.2348734855439471,-0.17535684980123004,0.804709347943808,6.611745482960635,1.407393342494807,0.2030184367955568,0.24576519235650526,-0.5172019570738562,0.0362902182334552,0.9497402443591555,0.12061849990708728,-0.33720375702200056
,0.9118236892249052,-0.4166935287049964,0.4196975641137741,-1.436370538559616,0.7918621332401192,4.6835880930678995,1.7385699037756615,0.15993817562764348,0.11435027009331981,-0.5925861595949581,-0.5019853668415627,0.8685074267880329,-0.1871533942440141,0.16504230434980124
,0.5656915919571958,-0.4494098174384706,0.4759546977280886,0.3487721060590676,0.7478635034009125,2.7962743275277977,1.3336230128731728,0.1341610613372687,0.14132891962518782,1.114643072887365,-0.05895331356654963,0.393369026690725,-0.31530114784848196,0.3626048910206319
,-0.1118501380358366,-0.09694204225896481,0.30748587865654137,-2.2932556081598188,0.8491986462057528,5.189814932046272,0.6552971049526495,-0.36936094737580144,0.3480036342517076,1.6289827300418458,-0.4127932064543703,-0.015557338764193044,-0.2496873230370741,-0.09804148864467598
,-0.22154887155974046,-0.32300890733854115,-0.2713381989162822,-4.779343061376464,1.0490079640930106,6.2805706397567596,-0.001947602311011264,-0.4714499030840099,-0.14114742455364213,-0.15326174419018324,-0.4544073824089493,-0.2891983995909113,0.19568958299000158,-0.14660939281720356
,0.11085039163594404,-0.36691887711112725,-0.008730754452060396,-2.028026997050731,0.42618275957195034,4.781936377730553,0.9134291193826393,0.101439296432856,-0.5093598171739241,-0.8557569434757861,-0.5100892210847834,0.14856859680140982,0.4638943424906526,0.46107822943682664
,0.13977259369402814,-0.33473104827250777,0.5172606684708126,-2.034558227749851,1.0424824450256718,1.4624751974621908,1.752474025534561,0.38930453969729084,-0.17948044270284697,-0.7703400205562047,0.07831561370448027,0.724882622077325,0.19913680582579504,0.8366107237141113
,0.222405687413334,-0.49489699244172713,1.0370235026037418,1.914935771666656,0.8894717603604302,6.209834612485932,2.437908648285474,0.555073313740091,0.17540738538008055,-0.7146254097958953,-0.12589171634860222,0.8415224734195947,-0.06295604113901217,0.6959492585464643
,0.08321498353805705,0.1854231783410356,0.5061544445810452,5.43182081809634,0.27678988473224836,1.3918641691593885,0.9451349970238857,0.6650122123533961,0.3280053894551514,-0.10156374812329119,-0.33342185985078265,0.8819049056493667,-0.07086799556533564,0.1394950203891925
,0.24492198278204186,0.21373773685079456,0.22800681742924017,6.194243100041182,0.2935012929480762,1.8847255567519967,0.7850332124332798,0.8131084037227692,0.3340650468268899,-0.27264932071524833,-0.024089974276018764,0.6823972151836387,-0.3841979555776535,0.20583086138543924
,0.26581601117505554,0.09615237931800973,0.463540887915772,7.6121403842538085,-0.16006496805775003,2.708391756287908,1.0195207867685456,0.16367116482008937,0.1092219119417937,-0.6657057678243359,-0.36794651677174856,0.9111513189472589,-0.2638443972609312,0.4790903030873062
,0.5207271122730073,0.03743755241947298,-0.060245845285597135,1.6443128763396344,0.5377813225101817,1.1835811630486655,0.7408562201921963,0.18106882908380675,0.175186235787051,-0.5972207782515924,-0.39399379706758236,0.39879512333349715,-0.0956309529612634,-0.08208113194011267
,-1.0047583280562746,0.9509605371414078,-1.4710013493624676,-4.6510599773091315,-0.8830416183324169,-8.29560941270701,-1.8520211815348544,-1.0529894837022442,-0.3441731098434805,-0.8198445863104233,0.458835715262975,-1.2765066456445568,0.15642283785942107,-1.2833669185818453
,-1.0051572618527904,1.0152894565193702,-1.5223243935573922,-5.501490421954772,-0.8343287924391515,-9.849123173404664,-2.442098503627425,-1.4624827193670027,-1.1099255337001086,-1.484999680329422,1.4434260635739349,-1.6012211070940017,0.33424099265018836,-1.4034726476803963
,0.33359700837905515,0.09335064962972152,-0.8561180470682299,-2.680411150680495,0.40769831918980926,-4.384848318286191,-1.4364562789784094,-0.8366068861790537,-0.679446304385132,0.4296016038227635,0.7464184346142727,-1.0782761163835601,-0.021261387489302567,-0.8145842486835205
,0.7781305215818134,-0.1850428429828007,-0.4741088410384251,-2.109083907709896,0.48268154015863407,2.285498278836546,-0.3828732016844469,-0.285410515001085,-0.8142993612204982,-0.13300704951685513,0.37667235779204755,-0.8515587182132156,-0.1537850398935315,-0.43000112823151776
,0.6342959949028298,-0.22126366293953867,0.32029615919818205,-2.2663718549802754,0.022668547235149515,6.740081980888525,0.4029085993019145,-0.15855601911621256,-1.7169059860029967,0.24760959039791916,0.9729198018903648,-0.3253025860731678,0.03457669068031748,0.3489135080721147
,0.6079307922550097,-0.4391275667195346,0.7189120748991956,-1.9146990546223892,0.30672673745564394,7.320540960898333,1.3265435269979138,-0.05110235990519714,-1.0324660317636767,0.7560095107818463,0.5408498297774827,0.6767519091447088,-0.1000670192252875,0.555009438849067
,-0.16758520296613155,-0.3818252418319811,0.7559540788823061,-0.24988391722949338,0.9642106664412763,-2.909861878337273,-0.029977679243488167,-0.18420357976266935,0.7614049273918584,-0.24579358256873587,0.16727799305689872,0.45259054329323417,-0.0353837106457483,0.39053819003567847
,-0.14519298560656219,-0.0502475053643191,0.37127991243734976,1.0576514848736012,-0.9147478089653536,-2.643000378215393,-0.2195777062274784,0.06310074747278012,0.37319027830293855,-0.9021333391924372,-0.22408731339197194,0.6168945798997495,-0.04782498042069296,0.24195208165874466
,-0.9430754955872458,0.6686546072091012,-0.42093783505818866,1.2913609891775257,-1.9200283967536491,-5.088644724649985,-1.2018197072130126,0.31782770029303625,0.23355622908602058,-0.146188142279186,0.08942091441472266,0.00028915447170012814,0.17174771323143756,-0.30672029554477215
,-1.2029288324818137,0.8189265211168866,-0.7539698396785695,2.351778842985353,-0.9616139443353624,-2.8524180275587723,-1.0321189649141995,-0.07931558301862446,0.17983599378645435,1.1305656365764611,0.2855568655448076,-0.24949625607961454,0.21075093057328798,-0.8857172189127478
,-0.5795987377079891,-0.0567452895007728,0.1735587914763454,1.0014397668796424,-0.21942164392506716,2.3530447519088264,0.04737565967445613,0.6888161333569724,-0.1497466315859365,1.25961315251009,-0.16316407595369029,-0.0014282139900407501,0.14810180994900557,-0.041775617639946194
,-0.1618379948491169,0.027296055873310927,0.7003397140887612,3.3748314530998647,0.05866518545469003,0.7703779845340798,0.5760815749017769,1.010842397470677,0.2719211690851763,-0.1373760253268213,-1.2389024674640263,0.337067329276672,-0.250746435627188,0.8738877829347707
,-0.006168568036064493,-0.06437080567291875,0.6500507892463805,3.766924385250366,0.15481641850722183,2.9159680450870504,0.5073306096615063,0.9114225360261717,1.0152759646833354,0.2755060000472934,-0.3996925719171736,0.54052943731934,-0.3706375361841446,0.8923076888632
,0.8229333032304905,-0.5299812376318693,0.16365739608250632,2.6870861192397553,-0.03599052240581061,6.95354844220615,1.90660303934821,0.6644420453320765,0.8368751465913948,0.4727071958109847,0.4247100995734642,0.8784731214527908,-0.05699307653373783,0.41151132166848275
,0.8047531800093799,-0.43111549757081535,0.19525531464246626,1.1169198466147907,0.8294818947147927,5.6925265310018665,1.2299970818564854,0.3989352604589584,0.7463202164652463,0.01324533958570897,0.021632113885814354,0.9954152002079688,-0.1908138509734073,0.4156651731063796
,0.8287214562347572,-0.5739572044706961,-0.1398877423114921,-0.9612275888197858,0.6647600761850313,1.2419458533437813,0.9461833790925999,-0.42954176727513926,0.061813974927677394,0.0655495161061419,-0.3832927554585526,0.6912880030937582,-0.23658726663750534,0.5278425038682499
,0.7025211164899317,-0.2234423691611379,0.301963814557042,0.13636490370949209,0.2249491944066617,2.7811612365744223,1.5619217757895612,-0.013896730617736922,0.12368179501710022,-0.042177760487046086,-0.8164432812463189,-0.16132147815846942,0.14862372215063446,0.15092232364263897
,-0.5491104724361209,-0.25350336091620645,0.7014523106222164,0.7436279875416081,0.9658555156179015,-2.628008429336104,-0.24348013944342795,0.28265958146616627,0.6684261250823866,-0.2414531554060499,-1.0290612185287555,-0.34651321906301813,0.3245792815814734,-0.008514227642628158
,-0.2681966057761645,-0.20129279514668136,0.6458735372276116,1.1619292175946065,0.14887730927981446,-1.586760885832855,-0.4053781039498747,0.03499041298431405,0.3994749022951909,0.09978655402935932,-0.8790827083587208,0.303529939206228,0.030687277916039153,0.44768342215816187
R,0.6646244050944332,-0.05751532615495228,0.2617618020778952,-1.5305728812026118,-0.8102577401007637,3.655099968907206,-0.0647210880179592,-0.03641915837463821,0.011130753137513043,-0.3151347906176525,-0.104309428150124,0.4760701064115696,-0.3184650245990422,0.4790185544177244
,-0.33110999588270557,0.4895022601019961,-0.3527415187041414,-5.205874682233438,-1.4087682169091307,-2.5672794768809966,-0.40149063678431257,-0.4744043168720164,-0.5398523822693405,-0.6062000249178519,0.5180018212989511,-0.36615455297427457,-0.011712901219605883,-0.44475491002206463
,-0.36114557907567874,0.35604387862070763,-0.3335067405512149,-5.608041460650801,-1.4567882357332174,-0.26835394952123487,0.05428223571678672,-0.42253866027009696,-0.3933865818841217,0.29385978474344093,0.6700954067009083,-0.7033789574822125,0.39274705145440253,-0.313852635508586
,-0.03609604502374039,0.25063530128352995,0.1539348883283263,-6.770605464211705,-0.607465774608179,1.6934679129449974,0.7818035477722927,-0.1115487504408471,-0.2646085826603483,0.9249446171668398,0.3029052028695863,-0.490054326028011,0.2188388661038971,0.01855801151505868
,-0.3865121646971991,-0.0007525598199997221,0.6343649282989952,-5.21695230928701,-0.416033620526454,3.1125693836293324,0.7443272168536843,-0.41182799734127784,-0.4871768924559972,-0.18133940278060434,-0.029138292298326568,0.10539779370098684,0.046377383795121754,0.006617022067280399
,-0.5533112528750515,-0.1420493429584263,0.3601531543267657,2.7776029882272844,-0.6880820627800087,0.37934306906445464,0.483979647869662,0.005399515404321253,-0.3288561464829277,-0.030965444837390103,-0.2881272184149133,-0.17072312256482303,0.40746418159463105,-0.1509106294927155
,-0.7311864121747591,0.11587026294669041,0.08425400400022773,-2.8173800896662926,-0.387194811618889,6.9594326034323375,0.8555979250685106,0.043205550320292274,-0.12351159489114376,0.08733538565146333,-0.10668040614534213,0.2010933838540134,0.4578656862279169,-0.3438180983518304
,-0.6122099524727327,-0.027998959356981292,0.8315431621144952,-3.5701870006603205,0.15017998858631867,7.910797348119037,1.7210948970629987,0.40858520209629867,-0.07322087110285537,-0.055858251577620394,-0.23683702923660757,0.8437890333788701,0.1817355277734612,-0.1472949772693919
,-1.2938421543758656,-0.3024974697742096,0.7624818283884202,0.07797165295337671,0.12771753962050217,-3.2745949772828937,0.3757490044373549,0.806029712885933,0.31025071362242657,-0.3071273541185594,-1.2089962496277316,0.7960726567720091,-0.01771059878002606,-0.452853485360044
,-1.1128271868107933,-0.013307701516031086,0.18930338648165773,-0.09137037476214825,0.39693125850676914,-6.0606944788504,-0.3767435217138005,-0.06763941804532118,0.45037613144250654,-0.5224899235934211,-0.8630865665898618,-0.16933233500008918,0.09068955285183834,0.014206864791825244
,0.3768493939369698,-0.16623936395463892,0.04160485297179412,0.17681747242591878,0.2092755287191842,0.6148998082394881,-0.16781041560947965,0.2675807137152814,0.56965635869474,0.23883297106800702,-0.8787425656238611,0.4012863594304249,-0.48855799421519464,0.455234110498535
,0.4541146161554594,-0.48749744419298896,0.058243920594250057,-1.0769887211309146,0.872848997583637,5.957538209712388,2.008732248279549,0.3379086407247249,0.6319328746820195,0.04227990829489368,-0.7044860672446774,0.9375022687164669,-0.7362373500712531,0.3505265877709041
,0.35302445641388097,-0.6168856206328349,0.3196435941216839,-1.6055210730534861,-0.4258007330877938,4.456016269053313,1.5460808011384082,0.7457759259732646,0.6697379435178314,0.45433780148639563,0.1366347615862889,0.2514419390068966,-0.5303413609760292,0.22896207418838585
,-0.21574695167862823,-0.15779276264712172,0.40700011574156447,1.28430463376453,-0.3729992341816346,7.586904716892446,1.8835700861459959,0.9480659256576696,-0.287611086101447,0.7751235662370957,0.09533387723298821,-0.007511173039678233,-0.3867357428985951,0.4873648319006176
,0.13574090249960402,-0.4650490890002383,0.29282336638417134,2.6103233154029293,-0.9350290472924762,5.534396138492136,1.4951829664379581,-0.39869422729748244,-0.4691502188263169,0.5140273066195477,-0.36380575479721355,-0.31772749410574025,-0.27917495067537873,1.00208429930164
,1.0174987794450476,-0.9119866348954007,0.585612609081959,4.959305411337295,-1.403930635442071,2.109214414781541,0.7459437563970213,-0.8683656865633613,-0.956231809993744,0.9320496791490629,-0.19938068918716584,-0.5518738651187658,-0.38788499182347663,0.779694432387178
,0.9509747125713459,-0.7386957616199656,1.184426797645082,5.032846320653438,-0.3058649807643403,6.60030648005,0.7989954629886534,-0.672339830149321,-0.7015409478012657,-1.025908718061496,-0.007691247712749319,-0.22823512117823147,-0.3355285124430041,0.9959381546857399
,-0.12667294266316095,-0.37996251723831936,0.493580149493627,0.4231841153357398,-0.9431751923496401,13.419902598793737,1.4716177846089005,-0.15624268591358687,-0.238188449757364,-2.080942536835775,-0.5062385739685088,-0.08579656725392401,-0.07302287039419506,0.6065398146693282
,-0.1573735569963839,-0.3261382933600663,0.10149056321312931,-0.618138901387097,-1.0289507845732593,8.999188696105339,1.64056609820353,-0.3065913821731661,-0.8357035592180083,-1.4317510558593147,-1.2148944298464048,-0.13913020087757577,0.0028532169473208975,0.22046785586699782
,0.3277625570650597,-0.43063414992175575,0.03670885345209585,-0.6389833029296739,0.33130558302514235,5.037390556788951,1.6066375229260634,-0.21904737042372543,-0.3952428247813022,0.47979764829972776,-0.9763828692189366,-0.1594786902640107,-0.06646312502974354,0.035439786588233234
,1.1905639435780917,-0.6297632211035338,0.296756347916092,-0.12391280620378763,-0.786362753833716,7.0104365973768745,2.2503580458024834,-0.4607815065935256,0.47968519876014104,-0.3300343198946949,-0.9813657794994118,0.5515700429861057,-0.028878318641239662,-0.022787393005555552
,0.8371974913913406,-0.4612863063345573,0.7852777645710813,0.7550359398949771,-0.6780053611400115,9.064765015377404,3.1540111777047257,-0.19311767885647632,0.4932358010079391,0.0004884307875427599,-0.7688982494176132,0.8957029846201099,-0.19925055388165872,0.4621144206779091
,-0.17214990335090266,-0.36534328251800063,0.790587819851312,1.7679891791585758,0.1932274185658295,6.344519322344085,2.479323417339588,0.8923565192027163,0.08229726347330785,0.9143366083136285,0.27625885892856367,0.5336771500676862,-0.17545358610554437,0.6580938163422791
,-0.5507691910831932,0.10791919635864537,0.6926184563027696,0.826398899639296,1.2911889001490482,0.628694667419839,0.3246198115986545,0.5414847351115195,-0.13862194266150865,0.2863444977044754,0.41043381929270495,0.15737049993161129,-0.22522385068677744,0.22269363914563034
,0.35617408283361063,0.004096270757772322,0.497134705973165,1.3905674720708572,1.033916609105962,4.234135017881001,0.9289156153655848,0.536765685993527,-0.4339578280436243,0.4224523361634286,0.09185755491677337,0.8806996314519924,-0.30838241120157456,0.6241778204961412
,1.1049436705607305,-0.5054982829342244,0.14662559455659402,0.9301829016528702,0.14215372948219937,5.030260399599238,1.9973550037833976,0.5052494480669381,-0.18105336094842325,0.4873303591795285,0.18906720193701737,0.4647454121090329,-0.31205231327534977,0.27902369203230265
,0.502978432279655,-0.4298254967537833,0.2908295107559492,-1.128470353369126,-0.07287582300793806,3.5065030201766083,1.3809973184403792,0.4649087008660109,-0.15198635020012546,1.068643069249604,0.045066156114245026,0.24960168178965592,-0.5395875770941723,-0.07249672078472362
,0.897837142568871,-0.5566067828325736,0.24247575877134706,-0.39325258479669667,-0.17401612022856408,3.5130069310515206,0.875304810226094,0.09006561874704629,-0.5233579908993844,0.3583019842770473,-0.17673767645635247,0.9506115194571523,-0.5400416696827277,0.4470007529957952
,0.8581222811997462,-1.0961405707533074,-0.14469723796905118,0.8028397299204405,1.0563174123295163,8.519279043027808,1.853751324941556,0.19457984840150616,-0.006643681883388055,0.3017770840978947,-0.263259656828806,0.3515910141957217,0.1349174600791273,0.9380572855130194
,0.43883772644323266,-1.315217162650986,0.003833682037794974,1.931278531097479,0.5493336838492464,10.890085582626964,2.419472640438256,0.651886653088927,0.5257716248354416,-0.5087053997939017,-0.18843660936210144,0.22162860647142935,0.19364124205101332,1.0712132297040946
,0.19198676276283336,-0.96410046704293,0.7382832101648216,2.856774535611527,0.1810796976065983,4.645841139944795,1.3034786213221512,0.7577561632086754,0.6003468859494409,-0.6892045291456752,-0.3702417314094903,0.27874273522511056,-0.3609347347040149,0.5972481608575679
,-0.06624305256662387,-0.07546133781390886,0.3263533412317874,0.10492007463128897,0.3324546574076418,3.906135380158689,1.0633384086613709,0.505392282523707,0.29641075752666446,-0.8980850843848217,-0.23793601395553132,0.4114851459494786,-0.31212550240187736,0.39903136848621057
,0.06121460029789541,-0.18166796011956557,0.07975153583271972,-2.961664551912262,1.050372000194147,3.6499574531364467,1.8585386102653578,0.49425153079918516,0.8035836077031203,-0.8086550655863689,-0.5985119382139904,0.7600895730750344,-0.2045680316993949,0.3068600308513
,0.6876491904011296,-0.707796923601981,0.04693160690122042,-1.0222804292576773,1.542964581105219,2.47305455799268,1.1578981956061702,0.33375056597583674,0.7502598754584873,-0.6654547959545345,-1.063431581112883,1.5106450086150711,-0.10384119016742252,0.39199449859719987
,-0.012128936825385314,-0.49234612335649064,0.7562192634035987,-0.33418915644904224,1.295771220583995,-0.8273332009120129,0.6414498164940182,0.20845404843702678,0.16798337247502043,-0.559790657206396,-0.556379187396273,0.9678390437776362,-0.13549412596512087,0.5112925582869497
,-0.05904166564271532,-0.4692102606694338,0.8257652398324881,0.5127051492738799,1.4605097341791509,4.890155385716305,1.8956554669707149,0.4519054209935049,0.6064005092277651,-0.40978501243675286,-0.3794069047332535,0.2546916184709367,-0.3956190343437275,0.6268628535401989
,0.4423641151140751,-0.9344926260636358,1.0003406693132448,0.9583345743235512,1.3826023183413292,7.587067463436728,1.5032556920987163,0.594750402454913,0.4637902584379114,-1.0591369958479437,-0.9548502827583542,-0.009566756971299611,-0.37636136205698806,1.1244421780912885
,0.5326470986093172,-0.8215978956965024,0.6507853135645871,0.4985238106311556,1.0086486976568978,7.018259692706081,1.633094978096415,0.24421093145475578,0.10588403664592318,-0.7996253892771664,-0.3911735178672864,0.050721040172187475,-0.25034616945165705,1.4303589489589972
,0.7744577396327947,-0.8671908526341993,0.2995339781412286,1.5000085325700678,1.0577790064999024,11.615154094837228,2.2667967146172208,0.28953208804196734,0.5068581833966977,-1.5587559303926959,0.18514827215332222,0.24011967264303047,-0.5116652641493881,0.8797819357247885
,0.7401314418868808,-0.8805928748908224,0.18772484407805878,0.8585936210185181,0.7585839937545373,9.843220400784167,2.1789933447158343,0.8735071381614208,0.5453763994057196,-0.42108824521590715,0.2702317091472725,0.6395437533504545,-0.5261358262615843,0.59144260029849
,0.4336468868756626,-0.9046762024217954,0.6307792792631898,-1.0791168837648861,0.9688804392711687,5.375792716749399,2.278863327600344,0.8965882374286923,0.2315559442542323,0.38498392164206535,-0.10162095798105707,1.4422154855170473,-0.570962174790408,0.5812316721290552
,0.4343653072672892,-0.6214840261084797,0.7246716109569634,-0.7271439448621522,1.6460735799179813,3.7013199091619584,1.802387676192544,0.5672227634106926,0.2226569377862406,-0.49424032847883975,-0.29994653215174233,0.838663087160701,-0.27270723897152965,1.1040424837563991
,0.6174829304141678,-0.5167800080125406,1.1596755788640194,2.2270734924203763,1.7460748618565967,12.06377600210332,1.519918109950929,0.4673099553956639,0.5090308918966739,-0.5037786216548864,-0.5260796495515668,-0.17827057007417604,-0.19134190365146792,0.9186274875238097
,-0.5849719503842316,-0.09735858593291928,0.4920943106258252,1.9858480567075913,0.5071942602298612,-1.810298420554924,-0.9031791953742486,0.004626983301015541,0.40173688681602443,-0.3335208682405358,-0.5608239070443278,0.24684402969545863,-0.14810318940801945,0.15421682266767245
,-0.9888315069653827,0.050464418662762967,0.2494116494411532,-0.7113167893674814,-1.1207714352325617,-4.615301254217718,-1.3709527887765436,-0.36707850828642064,-0.22323620527509883,-0.6682273626735664,0.11860666511616069,0.31695408307252093,0.10761401842004426,0.47401889710966455
,0.07866701119302913,-0.44426544771831505,0.5514920172739183,-1.9285781842933047,-0.8796499483182797,-1.3727298751681192,-0.021401038218805565,0.5527071421297363,0.13265969710818049,-0.5113796451354367,0.310184439009526,1.0869268323464158,-0.024449796880170793,0.4912985821769872
,0.8186034530724494,-0.18415621197435358,0.481113436845853,-2.305620198984577,-0.7060852366658179,0.7766606390433966,0.8005787258098359,0.6279190564161905,-0.1817629045091101,-0.026283624883962117,0.17544280004090174,1.1073862657517552,-0.21123206371681968,0.06390278402414043
,0.5383983313497386,0.025152033427011115,0.3533446171391059,0.24779376675273437,-0.20951979799059203,-2.555336013871409,0.03001820137253947,0.444663102529905,-0.19693262761959562,0.04800846794670953,0.6148112475806212,0.5033982733011884,-0.046356368145413634,0.36818414260149224
,0.20540489631151254,-0.1485636096206979,0.13255379366262326,1.962525606294089,-0.0024077336364530136,-1.7247997507462722,0.326811994616363,0.6355677355749333,0.173538399636397,0.48160162627520753,0.6618997037505927,0.39790971645298706,-0.008891969843629161,0.1722478596826133
,0.22094672663599402,-0.6074007072732631,0.09852858206767034,3.075018791789728,-0.1976847643819185,1.5978210405264632,0.9486256992553987,0.08940739599932261,-0.6593661875387621,-1.0320160249297508,-0.07730967844373354,1.0108255618243154,-0.2131078441041757,-0.1379238743619384
,0.8957302907091527,-0.3639517076925392,0.6216504132673399,1.7150317462447136,-0.5267595015564062,-3.39530401939367,-0.42493049383391235,-0.9738923008453206,-1.5998513207701068,-1.136615845543794,0.2793315037795775,1.7457459544553602,0.023852835089538817,0.03791664140034847
,-0.4519420137448609,0.08240968789308586,0.650939873786544,0.36599805702145866,-1.104928364992476,-9.875432827589748,-1.4834693862337238,-0.7555016363166108,-1.057673437425091,-0.8549569918619362,0.10314372146798986,0.6489128947028435,-0.11767419339420189,-0.026483139674406655
,-0.9311245006099856,0.5600655500767585,0.40554900426986784,-2.935687106156462,-0.6525859058049371,-9.349750392931098,-1.4325899832551283,0.13695796837587512,-1.0895568200195627,-1.638111383436497,-0.2295772772149877,0.4487070579986538,-0.00011499869215569003,-0.055114478243180554
,-0.27250709739140105,0.3739354278844736,0.1345101574439879,-4.0137527692374695,-0.3101651248075466,-3.294621202317177,-0.8048838715060392,0.8855110617382739,-0.7717167790147084,-0.4872632039046018,-0.3323962853057575,0.13311938867964804,0.1409255057180301,-0.2169516668717653
,0.7394952175859777,0.38564385343274277,-0.059015222009984485,-3.6920007408450473,-0.5213046137077171,6.228988129163138,0.5517562975334446,1.424520411814399,0.47480485168811826,0.17614823334935598,-0.3138329956617309,0.5619996965608205,0.006441690637258834,-0.4520501350781707
,0.517630695930686,0.6107455625338981,-0.17400671426901554,-0.9376590404810148,-1.1024618445585173,2.711075979268635,0.2517345196218099,0.4340871918705095,-0.5985861608441451,-0.4907365220263918,-0.2403642637726991,0.17933012209353125,0.12836006625949203,-0.4480836677355638
,-0.3988601755195371,0.34982024923472843,-0.05032173924167787,0.08687080786478599,-1.234598715937289,-4.190088279268679,-0.9944467940698349,-0.11481470327315801,-0.889739842925901,-0.6481856863322267,-0.059127627291068005,0.027777716766212605,0.15042450065469173,-0.33051652828030986
,-0.4002484745493222,0.2902605767471565,0.5465597705513213,2.138088524795671,-0.9166054395363336,-6.198042979830776,-0.7556295796840173,0.2952506720143533,0.01878591589893899,-0.3783396225739493,0.4925100875763269,0.22396150393073977,0.07463379641680729,0.23040578025316819
,0.12800377338869412,0.1553426291535565,0.33612519862330187,0.20326712986617318,-1.1470769958584803,-3.8527675938273194,-0.7550688555447492,0.5961497241953744,0.5586744566773397,-0.9526194662440903,0.6074750277863459,0.1921471963188441,-0.11468010076012079,0.11704388189633987
,0.7077254133333736,0.10123452295239073,0.4449540136526043,-0.4401598668437499,-0.289526361993108,1.3879554517488855,-0.20245810715598217,0.2906959463000821,0.8955938440572226,-0.3365597966202511,0.3762281739999719,0.5691504992991694,-0.23562070146868794,0.1393156568407515
,0.4706033911982211,0.09750048667792627,0.19883368015252365,-1.6367780383339865,-1.2911617599960057,2.6628844752121608,0.8693437328992111,0.04336437831273088,0.8976630172495754,-0.6837602360708447,0.20089809727221253,0.2657185147459882,-0.04077581099064449,-0.17400384897955068
,0.39968002455768786,-0.30404029774729935,0.4331374277780852,-0.572801100093139,-0.2939791769182061,1.7922340252584148,1.1972149164132382,0.6392586878256843,0.36989070592836254,-0.34437663988423284,-0.5221223774730892,-0.1039975269705734,-0.344139395453642,0.34407071172008485
,0.48771516683790744,-0.2803150971095758,0.5940799262244265,-0.6916405648797614,0.8839951896145817,4.037018190720269,1.4840671166467754,1.0210390752205691,-0.1662469103223935,-0.8172366744857554,-0.21930960808218125,0.44525881471915857,-0.33927232976237176,0.046237383268601405
,0.29619763852194186,-0.14642860433023,0.9940185440030211,-3.0976026518851985,0.4085781918829052,-0.0671421259944309,0.5918717581379838,1.5764846813398485,-0.003948615962509644,-0.5161191818334121,-0.30925188857423763,0.8375889637102065,-0.3297039739615796,0.30169231561715026
,0.4108113419765143,-0.24790681055832126,0.8569969578383244,-1.6743522489753373,0.5087039313698806,0.24729891309745,0.5479739983146391,0.7199979118303329,0.4731119774330307,-0.47922743116483046,-0.6248479336995626,0.8763682470184502,-0.4465965917520954,1.019665763524609
,-0.005265276404601163,-0.27548129458172477,0.2852076723726583,-1.4184598090192833,-0.25540114299012096,-2.9210666056562125,-0.45552932606576174,0.8648920502816917,-0.009306802147038645,-0.34674909052920105,-0.22505325067293933,0.6480946770734467,-0.3189256133467166,0.8686079674803726
,0.19346555925887945,-0.4382537739841423,0.5390468883912442,-0.6343839259508065,-0.1838809691337941,0.1790332480558398,0.12944308793611278,1.3104957289499426,-0.11459609107324899,-0.21598856725131363,-0.8649689166076147,0.19981966028482204,-0.20671627464109357,0.4031292748290359
,0.6671180681606462,-0.34478966732081695,0.946561815201965,-1.3499473510249937,0.3758717161178524,2.1269782135434476,0.15331289469474027,0.4354215011654856,0.18199451211167944,-0.08123186962750654,-1.2844717034527429,0.38837437755210436,-0.2612816084206132,0.5477103645665488
,0.25790668188134913,-0.20236241756854145,0.527395540863322,0.4958605352571164,0.128156618717947,-4.37166888213718,-0.4822681740424005,0.296271888594519,0.5423650155850601,0.4657266405609518,-0.9995193560135736,1.1146410733540935,0.021751241599295902,0.5049381270775885
,-0.11067627788161492,-0.16827735123633797,0.8237094339126408,3.9172842458517523,0.6914987464013981,0.3496016610093005,-0.021917230355974558,0.7269888479035832,1.4311861534704235,1.0736258024827345,-0.6161551940990235,0.5185944447079917,0.0753319702762548,0.3780764360099063
,0.0031125613078351586,-0.35325161730083077,0.8222363787035893,2.0671052978655173,0.8650344828495963,3.1849846598990004,1.2109729725988891,1.2802762929061366,0.7650612816930714,0.6993476072854963,-0.9518915800879955,0.7011180115556045,-0.1443982518293609,0.8104687310746295
,0.17384809298977147,-0.3385953093961277,0.40247159650557707,-1.9499227179599308,-0.7752522979925203,-1.016999965665758,1.3808598393755365,1.2582803060328278,0.34724094636328073,-0.03496944922155771,-0.3333867470202016,0.675718275189899,-0.3164886555265761,0.6139055359973399
,0.8374885176569882,-0.44636301410043805,0.32746308521215733,-1.5237381525091063,-0.5696865626184735,3.2022953944568644,0.9902801279590142,0.3934715226653895,0.1837999262278353,-0.13174496616779685,-0.5326777204694226,0.670590041711827,-0.11798522144190973,0.14859934275054615
,0.14251755599946117,-0.3708773454839732,0.6533103590261607,0.4885908988318156,0.6962424170365168,-1.638274618831857,-0.5804884721381582,0.7065009607285826,0.5210351649791586,-0.40592828573839196,-0.48198582247037225,0.7071765850227214,-0.01933333506871282,0.09414946503402022
,0.7818302965797774,-0.431207783487826,0.4950996280856435,1.465090663507864,-0.08559387359861048,2.917394532558347,-0.18135290725536063,0.9472891154001557,0.8303083166950329,0.5683057094179731,-0.10330937007660237,0.8341744106383349,-0.42679659329523184,0.5491486099287298
,0.43685593911430265,-0.5028557303933112,0.42643811400671744,0.73884304267824,0.7217698425833772,4.3806269048889055,1.390629486741757,0.8770460404077736,0.7500362022857133,-0.14643084021266128,-0.5920087177177512,0.8565196152550582,-0.37453637704937975,0.15631815086201656
,-0.0058837532163872695,-0.3926863908924357,0.6432153815829557,2.040843189462191,0.4688449397909071,-0.7186088808497527,1.1749027344518164,1.0008024543754042,0.8526075351457952,-0.9332096405037384,-0.5746063455952108,0.4471611626410115,-0.3379507387677818,0.09449931194917709
,0.8703239130177842,-0.101748750387699,0.9796470766029209,1.5641483506242646,-0.16426759167515084,-0.2625574071365856,1.2995452946579462,0.45622352569351765,0.8926633422084695,-0.9430856846897391,-0.24573988147606723,0.2617938011627374,-0.27480072076236434,0.2255439741665617
,1.0530080933386212,-0.11138840330948915,0.491446376909913,0.298930765825701,0.9122862012087327,-1.1176101267371639,0.28000295009531495,0.12003023357914792,0.49628450766607446,-0.420920586443678,-0.4485155212946212,0.4764641718801548,-0.38638545516967665,0.0748270824428846
,0.34085801894391327,-0.1437426262920733,0.38901527572782196,0.7107100963385337,1.071388981964253,-2.2306589312721927,-0.11639714851246782,0.2679780963481178,0.36825428023641943,-0.8542298233578164,-0.17493590496424963,1.0776164086012787,-0.26183518048825694,0.9348004877365927
,-1.2963573729379487,0.9052259381235331,-0.33911786089338963,-2.136656835309028,0.35784596711146,-6.9253130742121165,-1.223651319746572,0.6248958515850239,0.1829996390660196,-0.23465754357410337,0.4348175868836361,0.8320265059754006,-0.14321142312789586,-0.09036374351084667
,-1.3340762511928677,0.926127061784232,-0.5716386586716788,-3.6860183380324245,-0.022734944507100705,-8.104375233058347,-1.2381050605448292,1.0064484028279383,0.08334590435382178,-0.5540323348595008,0.5412681925228398,0.025531598171345572,0.12443768759452896,-0.4786364207057836
,-0.5952986885353773,0.09490507445321697,0.04483978765642905,-0.7035090158042455,0.8914271087030788,0.13278104086778417,1.0735791381620645,1.2466824839896138,0.711164362813987,-0.6885679497379013,-0.2151640588185183,0.44221884378092047,0.12367050665862295,0.08631725772958891
,0.14913426571521685,-0.5370146883441741,0.16380698772467794,-2.209203064595505,1.0639501294217872,9.953886817832396,2.8142952189206496,1.1322306604422963,0.23324686972619357,-0.670707363780795,-0.5696261677307352,0.08447563601719393,0.1583639700631419,0.09335935602499801
,0.7448037745394411,-0.4695679083151498,0.24813329417310787,-7.938199033098079,0.5268956119971246,2.3649092140784393,0.8148007294446057,0.8590205479758551,-0.16871897315332315,-0.8571956552693334,-0.7326246422476461,0.04108718215724438,0.07081401833060398,0.273123395375125
,0.3862035322422271,-0.42510896858841324,0.2324388866987193,-4.36567000501918,-0.3247759688202813,0.9738114659572775,0.512750483164164,1.1395481257047555,0.04164883513532604,0.004197325243810278,-0.2725484896438238,0.07631758074816708,0.11693712331938916,0.13906582532890915
,-0.12534526322949935,-0.25405384530604486,0.02567222240506301,2.3529562765190373,-0.32553223037857554,2.744633023273994,0.817399422972271,0.8227355256771351,0.7721361899946957,-0.48325932872868893,-0.20796197984691953,0.5046420357378842,0.12935659993843904,0.01281273168667492
,-0.5234291533514105,-0.15122372493981612,0.004530478055003972,1.7853783100094411,-0.39139513939416964,-1.679558334947194,0.6438704774033651,0.6627858094333129,0.664943145857365,-0.009455599202592901,-0.2006301916202826,0.4378551505908895,0.15759376435629527,0.020040382594155654
,-0.6946452211126247,-0.48537536107380214,0.17407497481473214,-0.6027195515820001,-0.032682051494071676,-6.405980937673202,-0.46783319893686254,-0.19494629958021714,0.005245034606615603,0.8263878128194538,0.013584317485460563,0.5985527254112547,0.15291610811996156,-1.125646071355427
,-0.0332888837220574,-0.4549608156393154,-0.1865752219477918,-0.004203219717477906,0.5446479497617365,-0.1948174834183759,0.344308199743113,-0.45088257668569737,-0.20923106450726564,1.030494791522736,-0.15231425362419448,0.0620319443105079,0.11106664102805777,-1.4369833661304736
,0.14625357276384476,-0.48115786177487063,0.2735165167190305,0.6151338764181904,0.5937211019492904,-1.6317306329999275,-0.014354961626566035,0.38181744582603194,-0.024321324177285247,0.3306086079973202,-0.026836323925721373,0.237568248415288,0.008028854769707074,-0.423593541517843
,-0.04350458334848372,0.026995235381756178,0.7886216604969647,-2.0384595985026746,0.19920720755127921,-1.8381206496107136,0.57879749802779,0.9471798136083858,0.04870502264754585,0.05715174745769632,-0.03251922635450998,0.393355935573999,-0.07900514826519554,0.5537930876260475
,0.13000206772373724,-0.24311820547262472,0.4051465791612925,-2.2906861344445097,1.222118699821361,2.0144782460627884,0.3325335877052404,0.8172050217639639,-0.11430979768059339,0.5902977498776617,0.37435103999243824,0.18929093287261134,-0.33171690168572737,0.5425108447892082
,0.09779042907873074,-0.6460600852228728,0.3454829889079948,1.5503905506143583,0.8604875582370122,10.693718962631293,1.5974219669269507,0.42259165461741677,0.4570326017427749,1.0944439906743066,-0.4431809790383056,0.6145835901177024,-0.43592325604246146,0.436684102576148
,-0.20376627695460958,-0.29504047789149307,0.040001392256974154,2.2676670607086638,-0.046857163822811,13.769834752982828,2.867166869020228,0.5881217152790599,0.8457580200752483,1.252511526873979,0.17768767278350373,0.5591054851429855,-0.1158421846086564,-0.053029633979837135
,0.002026584125528596,-0.034464907113749735,0.5611716573438563,-0.030842743642645835,1.2875116562029192,9.89634497476827,1.5501452778661184,-0.036018216880102795,0.27189763680030293,0.7600751500288448,-0.019903528546405792,0.8285621770031305,-0.3822680885223061,0.2601777898994227
,0.8086610352627341,-0.06745693044466139,0.5150256103390636,-2.825337620135813,1.0048684012997489,8.783345552744127,2.256360097237804,0.19664253871767548,0.6239546979161039,0.7752088513768833,-0.6813520530340746,1.1408423427085854,-0.4554722423316197,0.09474894205600726
,-0.05910403478563009,-0.5417847877368319,0.6960689049968416,-3.813931857348933,0.5563987803343399,6.443775153992223,1.4812868638841785,0.4015375466758118,0.3551901382765313,-0.05475741135427395,0.056469013146694065,0.3827190848063666,-0.21857859527703036,0.34327460958113626
,-0.19310781947489536,-0.6688717222379749,0.828357420877312,-2.306635613982101,0.7124390508782987,7.5700864130815635,1.5462223784129483,0.9476130694953561,0.2895804834585515,-0.4951800693569106,-0.6907317718743836,0.104016776151437,0.09989536896484506,0.23206025118775758
,0.3285754892126875,-1.0982987605611674,0.8626634541128838,3.060758433342733,0.6375673447157991,4.422510671860068,1.183252628486582,2.0441510456360743,0.5455129947055973,-0.44090374139005767,-1.1082015180600926,-0.04376742185930885,0.2568640575256191,0.020631065469454517
,1.1610107200016533,-0.6192626639924028,0.8827089523455002,7.5251494382705415,0.07113488226691207,0.7571862745304979,0.314668344392136,1.1146880366824954,0.7341961534319676,0.03186862933056016,-0.9703483333837374,0.2983712924752602,0.04711740374323289,-0.06874659022808181
,1.631876428735519,-0.3506066693000856,0.7570993720855066,5.141398695822288,0.5758201280385061,2.5404106356105607,1.0137204417182346,0.49079077546953265,0.5018898357903169,0.5234723767274574,-0.11404928500057704,0.8892407116254079,-0.2738166055043997,0.05187967115185906
,0.7903225503380168,-0.08412081264227324,0.6081050428611109,-0.3140125991898848,0.5388962252232965,-0.34698262750152425,0.13481731795834834,0.15698993589543117,0.8708101174715441,-0.8516468781738817,0.4388178910086811,0.327846525027749,-0.10311196182860138,0.18516434422459097
,0.7435026369627051,-0.04601964172569008,0.18890465178178772,0.5776584674150341,0.007660904394896353,-1.158651013939779,-0.0506904901699738,0.1309504542526455,1.3198203056939048,-0.4987210990613972,0.40974013368899836,-0.1368174188653057,-0.1596132775303871,-0.22530469303369777
,0.8981086415485465,-0.0805309723224185,0.005059208322012843,3.1161571359255777,-0.28409699440122255,0.893804789772629,0.86607535396823,0.2698762556310374,1.100434745266108,0.8966634657151665,-0.5550825233552383,-0.2801320571792859,-0.5051263458863814,-0.2931390140932855
,1.0644026313783388,-0.1624319107000695,-0.33243768891920733,4.973163806277652,-0.18805792983635106,-3.3107732967756904,0.05942482915896706,0.4681786600884629,-0.11046685670932868,-0.3329946629274645,-1.0663199711785902,0.48492327150628844,-0.4582622415644952,0.18889274063303418
,0.8443873156581534,-0.09071964669126537,-0.2705308559584069,1.7248737561984397,-1.7932176320403532,-4.65064501948084,0.56341990220403,-0.07672795667115792,-1.3990492981203166,-2.4015962878247876,-0.554565138704902,0.9642461988419793,-0.30784214774979834,-0.3789393171115707
,0.4098777602430417,0.11866239535335749,-0.11920778333261253,-1.1780873419040534,-2.6408098257818615,-0.7978036921850189,1.4238357789664262,-1.6132262136557955,-2.5961955531469276,-4.691917078713451,-0.263533736971751,-0.4382036668067536,-0.175340636692177,-0.3936638935574686
,0.24113810679886363,-0.03976696887612694,0.15757489225804472,-3.1710163712864063,-2.3192775914855197,7.897346341879592,0.9403207965342247,-1.4799821655438776,-2.3600909846197204,-4.788870488828527,-0.11415902480683347,-0.36456404644894114,-0.5664190578169267,0.12034234628829477
,-0.49518244241351583,-0.4721450405664252,-0.010812912742376345,-0.06238171778500573,-1.5669961320693901,2.113570184324171,0.16501350431849798,-1.6648729143974832,-1.9201829859007438,-4.32635746278602,0.0018188350934887321,-0.06559829444120371,-0.29696415109305646,0.3819464421513138
,0.13063269345940365,-0.654388308798806,0.118680197468521,1.9719341293659773,-1.1843782123486344,2.950854575163175,0.7655212423003205,-1.9101779014186333,-2.5025801567086408,-3.884644557351014,0.05672469198012695,-0.09453707199678248,-0.17296847932531875,0.046774656226270944
,0.8562911808701499,-0.2831098073745996,-0.23037621786351065,-1.418534272292883,0.5830672896471388,-0.18841572129284795,0.6225795402589924,-2.0214568700598052,-3.077568855633619,-3.185540033656093,-0.6393798082042755,-0.6730285481072985,-0.1830043117708731,0.3761724464632094
,1.425102702328671,-0.1914215378172483,-0.48523335239695464,-3.1206941087433977,0.08106215645527813,0.33970336600754775,0.9717815230254047,-1.11527681627784,-2.2213397843783893,-3.309335564187559,-1.1063448025776537,-0.01807381961420693,-0.25802215262601574,-0.0013033241293268331
,0.07115896973687262,-0.15122676410939206,-0.49504486270551107,-1.3064830467633455,0.42444496040323865,4.562013882581636,1.070724199033672,-0.6489580694113272,-1.574739232901268,-2.2146812914013347,-0.5829397495430314,0.09865787114065672,-0.15572745268487917,-0.06962194490731534
,0.14342491108091426,-0.3289183261975675,0.3713241578500574,-0.42711777987302896,0.22103535593298443,3.0557801842614905,1.0984953969559488,-0.8497121238085821,-1.4914681384071582,-2.0936853514252673,-0.8967305018821409,0.296292168431086,-0.1446649954206757,0.35408744430106914
,0.855299730485018,-0.3917172622636383,0.2988472406406025,-0.05444992592699555,0.21915216139654595,4.249057812930565,1.1068095066299566,-0.9034492123428668,-1.0138874864822804,-2.079656592677778,-0.6804603610403241,0.6139509775810579,-0.39949996882530053,0.43298636277538016
,0.5506581270943404,-0.30959763034295945,0.30456865078328194,1.1831985420835311,0.3519853807016231,2.2683681542662675,0.12739046938488377,-0.6206394330340783,-0.6454293173327159,-1.7979439864725326,-0.6552378202538877,0.5567945707738138,-0.16159264551023333,0.2133542578296499
,0.2451151579772074,-0.03425151948718069,0.16290769644611158,1.5941118748256515,-0.4578542195307213,1.3168603948801965,1.021906776568139,-0.6882006228757827,-0.9825744263514781,-1.3658328867555822,0.17898876756523086,0.48874829730729286,0.011190506443725514,0.017897150024533296
,-0.09155219941824605,0.06264471577944133,0.13415522516476674,-0.1256471241622741,-0.6970032957666706,13.002726528919833,2.690605926600073,-0.7220305747960213,-1.4485017045562594,-2.204299896149294,0.9143383321263464,0.5518344694661657,0.15691438675969152,0.0041513125737758574
,0.15876653053721354,-0.08372689444540858,0.1880955541258208,0.6090063047157696,0.35867468436096106,12.08083825810223,1.5339668084083964,0.1548959884914828,-0.579118694602145,-2.2492837984788134,-0.215113150046664,0.8060607835201715,-0.24536872333238094,-0.15170757320933936
,0.7435773386461697,-0.2838073820424466,0.3540895142527045,0.23362085231400861,0.6750526325788727,4.821288145927712,0.8369243117518714,-0.43504736767371555,-0.7565821094600013,-2.01632178626453,-0.9336114308541951,1.1103752011285422,-0.18091822679354064,0.07270805983187711
,0.5118992912107074,-0.018655000226814808,0.44386431086601597,1.6526739346593258,1.1647593458768888,2.567686249770591,0.5727079809719823,-0.49493759419221156,-0.7484747320372095,-1.127514293907487,-1.539290585819001,0.5712755114152398,0.1026663632420047,0.3442566577133085
,0.1808631115879911,-0.05931395389698416,0.7537850414403491,1.4459558211992918,1.2513994259558423,6.71767068166113,0.2795449615562425,-0.27569890168754296,-0.09994323922477981,-1.1648957746357769,-0.1489508604249685,0.3879539961264637,0.003705912486236164,-0.10439808330468905
,-0.060545249409780046,-0.18847490739615327,0.8765850298058572,1.1163234594871962,1.7194186526956723,5.343074183609656,0.02048215872648017,-0.17953276955560707,-1.2178272734601545,-1.7598034788902237,0.3519524754917923,0.2028685585704636,0.030711273743549768,0.2900933959116031
,0.02326061770419164,-0.30933495784870485,1.10055738263086,0.9324236777588952,0.7354241367567375,6.806122886487405,1.0076872246674222,0.22014614860160533,-1.6505003741349187,-2.801905693753655,-0.006304311548050375,0.7747193203179125,0.07765198180131892,0.37421233503867785
,0.033482079502981106,-0.4914830261159841,0.6456301204336455,1.5611072409438245,0.3923175873999294,5.200820352536034,0.39744908133608137,-0.4302949673071902,-1.4344725963198541,-2.4203847556217553,-0.40784071722788967,0.7761092630822688,0.08518415994877458,1.193748047816058
,-0.25160205257215307,-0.8316907401324661,0.1117879349861713,-0.298591876638358,0.01807260731461537,6.129231665972342,0.7003695032450962,-1.289615643180696,-0.5570330068370214,-1.8340331046121763,-0.9784234414085614,-0.5013265320703819,0.03778558416396467,0.9749502246885641
,0.6277825560714411,-0.20076785578491446,0.4925354048235089,0.5048670474433489,0.9920013596955459,3.9563546773742404,1.1456172403670244,-0.42189667237806056,-0.7133471043451698,-1.142501066522789,-1.4283031613452204,-0.601476881724843,-0.104250268908701,0.7873324487760059
,0.25886515663960247,-0.08140540433558975,0.7297019858398276,-1.2677953650769669,1.1722456423303793,8.534148597886603,1.6765937328550824,-0.000719466172537898,-1.5316919610845856,-1.738626552030285,-1.1307694845354985,0.398270875834888,0.09798831457902778,0.14472770961191767
,0.28174499804476083,-0.30199673401995764,0.9067467713016255,-1.474566474927441,1.0707138294632033,12.070559807245655,3.0291680899306384,-0.12240177505834994,-1.0054319270117063,-1.8283693757935624,-0.9604496628791358,0.8537258572583502,0.025404698232212974,-0.15146473642720298
,0.615037846992689,-0.020591268088706746,0.43449325492907404,-0.26517164497873497,0.6092635772109789,1.253333761748504,1.3077983754003017,-0.8184360041513,-1.2827629691516058,-0.9509426360506795,0.2495982686008932,0.7890497844263848,-0.009071903538302822,0.34271213771931286
,1.0616384382698338,0.053761113849949346,0.21204867187413348,0.10253211703777215,0.7085712732283318,-3.4581069432321385,0.3349259773236402,-0.5664483367538468,-1.346538363141643,-0.29231308043647564,0.40033607709180974,0.03821135860079897,-0.30592106660199314,0.4931815609661784
,1.3171360588665553,-0.6448243997248134,0.7393494707829669,1.8555188478621534,0.9107950392747818,0.5197591016259265,1.9007619975630832,-1.1413585991751702,-1.1417815906285136,-1.8263872417358156,-0.161793790038502,-0.22209817231529422,-0.3639019360850237,0.24654518268723957
,1.2866082342934548,-0.7161748257022855,0.28911024158060894,0.7322215474480671,-0.6461782580377842,1.9925932641731308,1.844040538938756,-1.1565317256575283,-1.301582085372954,-2.268177896924318,-0.3792906999480066,0.1417764099823322,-0.34771348804691854,0.3675934353132502
,0.6604826168168175,-0.47323489299376775,-0.01267079205137392,-2.1949712562830315,-1.7250821313979625,-0.44093153179630157,1.3150378154070361,-1.3365140742260866,-2.1880606791318242,-2.6650260161981487,-0.13347601358508285,0.0787803258906159,-0.05417397869514614,0.4563092049725695
,0.11584629538790024,-0.40344889420477814,0.3740786768317328,-1.9547927974678365,-1.0913407501464185,0.8037136209096368,1.617968815533397,-1.1436055502819957,-2.056678728910877,-2.1146582635179016,-0.047177552447336096,0.4111123892067152,0.0072117308379884655,0.45960793414031886
,-0.13404081356617673,-0.1829527475094658,0.7300904150578509,1.3501956397021395,-0.03724379069100641,-1.5414440862078405,0.7612628891539909,-0.7639047578464013,-1.114884313661612,-1.3088047995551153,-0.7720865721911048,0.30667202249386905,-0.506819711556882,-0.04917337138900591
,-0.18032103676961841,-0.2610492520493606,1.1001783691356994,0.08666543414512061,0.4380085081990825,1.2420020013448776,0.7967036235570129,-1.0954659118842187,-1.5512402303950783,-2.283486450881852,0.9226251181041735,0.3619765157141708,-0.5881279180487468,0.5176898077654094
,0.14111408735321632,-0.0036809014926989397,0.5176699419415576,-0.6258161137473491,0.34791847527766484,3.4258846599190416,1.4229988365422919,-1.2582161876958393,-1.4986499894830994,-2.2007200449901063,1.1224075418891186,-0.37175463817680715,-0.18379021369289786,0.17273870369397612
,0.5891708028086138,0.274989799347962,0.014794371739392692,-0.7103204735011844,-0.4672902273070259,3.09033767264393,1.257517542259961,-1.561471705985294,-1.4806453981308554,-0.9081550628016207,-0.13951188411630755,-0.1114337724540596,-0.18276028608318265,-0.26719588677754286
,0.8883365385445835,-0.18126630318451623,0.20747320268929098,-3.1027279846988516,-2.1096304554239116,-1.7349389489613039,0.5624861195392571,-1.4219349704182542,-1.409302803227904,-1.2204740973717343,-0.58542123414561,0.3975103256502845,-0.19100892517802068,0.14766071599366895
,0.8442963893605048,-0.5841575637893381,-0.37101997941743864,-2.1854922885059684,-2.364660517005729,-5.605742809059571,-0.9902982390661107,-1.426628772826125,-1.531055845541582,-0.9896131749040871,-0.15941155242186322,-0.4396072644832571,0.24702311266267968,0.17594615574241948
,0.9143878746257669,-0.7495707299069688,-0.4295548635555475,1.4081768061267101,0.6424823161339026,-2.1665157657917242,-0.8153345124239156,-0.6712637689629116,-1.6886651427902095,-1.02775265089065,-0.41484056903284644,-0.4101442355002555,0.316961651736075,0.24415206269780815
,1.2759771303444787,-0.8788407746821342,0.34177148803065854,2.1052198087075253,1.2945587272785029,0.630054962584837,-0.6069615753329376,-0.8844719432786736,-1.0383058394970515,-1.6363122083372852,0.08138189166044646,0.38561545287606336,-0.19820021630828494,0.8130137570294602
,0.705080022316139,-0.38681856029600786,0.5872029396798168,-0.865669588082427,0.4437511386364438,-0.008349381084035231,-0.5085147224626909,-0.31848342026976467,-1.1206595653205396,-1.8188117789920637,0.5220027854290423,0.5596319728637718,-0.0930867050245078,0.5559834821130529
D,0.8728202180028259,-0.33617921282088403,0.08441276956971983,-1.1403278334040505,0.02733798486248329,5.72089399403288,0.31148476579280077,0.25313721871263134,-0.8055116474864066,-1.905334633791946,0.1682767526519978,0.18641551085613345,-0.05604810906288231,0.8238460013949832
,0.8576162576771134,-0.07285338436324788,0.2264367002240965,0.8346606248177842,0.23505484220823072,7.29252664953017,1.0798208021289046,0.1619808234601791,-0.24626687574584694,-0.8218866168858673,-0.36700614026492834,0.2798111900680165,-0.05212882274879649,0.468301379442378
,0.17727436325944046,0.2616884800320498,0.46939620733378673,0.4046323146808416,0.08628526898088712,-1.0333762848186312,-0.05191925996116171,0.5393418943166197,-0.9235405522438255,-1.5370529121129795,0.046669190955609764,0.3654945100704384,0.02675351113758422,0.08250688838311968
,0.3280195931335066,-0.18651529729825841,0.6266461997638814,1.7472944591154171,0.009493448411683317,2.2098924452825632,0.8426491418960975,-0.36511251640561204,-1.3561444482207206,-1.6877741068996532,-0.028282067264742826,0.6288494854621335,-0.15462989851154768,0.3905473991416679
,0.3663465440778216,-0.7398847217016897,1.116207552056108,3.306476962551127,-0.0357188873772033,6.117179837221047,0.9971239197889479,-0.7920611591317483,-1.1785638450384603,-0.7104409759284568,-0.733152896912729,0.5822433301823272,-0.19133485240005463,0.32383929031029884
,0.20102618495530197,-0.6893227552242367,0.6385860760934146,0.7191179992970329,-0.3515410721597681,4.706253615655832,0.04358038834755961,-0.765076207935938,-1.2022473789363122,-0.4927030398759424,-0.7231308507069063,0.6703282003641142,-0.14435110877946294,0.311809890167685
,0.6446571446449773,-0.575639147721526,0.202224164483441,1.2938246659369592,0.5734970422732782,0.5792457193460065,0.4175585511612661,-0.7269657830388006,-1.3573724239133043,-0.9071738940121656,-0.3313137673887928,1.5741827900596974,-0.6058042191119317,0.0882703095362944
,1.079357953958349,-0.8871900949749087,0.5922117625703691,1.0170688255217282,1.240338660665952,-2.099615654221962,1.32452769045352,-0.3255735666715215,-0.9119211694026013,-0.42744962831501404,-0.6756622948274235,1.6461181198501043,-0.8059185133032344,-0.01571674562477519
,1.1307154942515933,-0.9134730671704107,0.8491876500209506,2.603518896325817,1.595402107889137,4.873377755711966,2.7011975561157393,-0.05138211179757255,-0.11843636906481214,-0.6340890950551292,-1.5431581150831366,0.8290276837797038,-0.05228808979667282,0.09963053393453751
,0.10588775678813736,-0.6378499948547675,0.5065814737218299,3.946605612744878,1.4372660582750068,7.292646795950312,2.602281435616019,-0.037848750863275306,-0.8089830155101227,-1.6232522704983485,-1.2369672885470244,0.13378653528464562,0.10420293047062373,0.16976500813462206
,-0.1803635742765652,-0.7173892844135205,0.13283408793937754,0.6029392585179202,0.9812306909404797,2.6858962922528917,1.420479944030661,0.08635873098247855,-0.7774729522545384,-1.9539793874515472,-0.18926313992567514,0.7886613813891387,-0.018663047976753146,0.7458455347510293
,0.3503087366690851,-0.06700698875255712,-0.2928692762218217,-2.2214879861577708,0.5334655176102118,-2.9255104252664936,-1.0802275151470857,-0.22730743470332862,-0.10637572281462514,-0.21276118713901335,0.33198234042925834,0.059739119781847504,-0.10798241158126609,0.1666130490123093
,0.7508560308948712,-0.10679769031092383,0.02713834902336982,0.2427699836116224,0.09020408596045253,0.8328272099316585,-0.20956777547895977,-0.5156294761713314,-0.5246758048689473,-0.8045513452678679,0.05407885152384576,-0.44943130746052695,-0.12376932756233276,-0.12136657460423719
,0.6887537956224792,-0.3490009702295196,0.31841426891999447,2.744773519299506,0.6416420843937326,1.6636556346578686,1.0596356389090797,-0.17068568367059067,-0.15515824863854902,-0.7012207796229227,-0.11405303522437973,0.17418836407126756,-0.24824649323124395,0.15943937626702825
,1.2432334657240898,-0.10074294052303268,0.472328003488117,2.0996937032571235,-0.7010960262609547,1.8887172450256424,1.4591953446436918,0.8975399282864954,0.4580613137540812,0.3320536395555158,-1.0240692689997923,0.9656191908482827,-0.42506372808913506,0.0023545197055199816
,0.23844405109786407,-0.1483326421394273,0.7275188476557938,-1.1409406272767224,-0.5050148136519914,5.596986258232254,1.435804680909372,0.38913722505506715,0.17309164271997363,0.5915666442584869,-0.927454514809683,0.3897976338976384,-0.2154795635925653,0.06630125007093052
,-0.5408815854234555,-0.6058163544850609,0.21384078140818666,0.20212792083346898,0.2684388230369017,2.843894131547846,1.0978475652697157,0.24076593095762588,-0.14142845108773247,1.406273628784723,-0.8252246480841673,-0.02620254641751362,-0.014126169516411099,0.4577370573573227
,-0.08867338283829763,-0.5220461216753648,-0.030325097529433867,1.4993684589864666,0.7122993276718366,1.38383792043634,1.4603607804441185,0.5302014245422662,0.26869666612060816,1.3494752701511263,-0.6026911570007892,-0.12542677615137585,0.10611615009920469,0.3538166046669638
,0.43219698140135693,-0.3556952749165463,0.15512387194219357,1.675534962097023,0.4419683146785136,4.4963367237692475,1.7263024783340315,0.5039087550863365,0.8314349314573631,1.6563747963685718,-0.1102434247833617,0.06751384915878597,-0.029245246036926985,0.29449468765955283
,0.9323530875084176,-0.6337744625351861,0.41311025804244755,0.2560396510033487,0.5443795099694254,7.8496604067267155,1.7482056648178101,0.7177489171157693,1.2047774219998375,0.7052325752862698,0.3068444635149107,0.5948423181467357,-0.12670417970631184,-0.006004301244413063
,0.3646645234259414,-0.311001825214884,0.12167547006159832,-0.7285902233428971,-0.26700193185872156,10.009402094605113,1.3472757230757206,0.37338764409551545,0.5382703066097725,0.5329337457667991,0.64977623070605,2.3770937159474426,0.026357779814911785,0.13201071179352086
,0.4409261819353253,-0.4319794828561144,0.24911987142700182,-2.297244373782775,-0.47847895163333287,8.543535081948527,0.7846501271408101,0.051902542556662636,-0.03669492305582563,0.35638420203439375,-0.1459700350911418,1.6649473207842014,0.11534280066169596,0.4530338829718998
,0.6635457868437975,-0.8047444181211962,0.9262510042612192,1.0807576317977727,0.7156652730852427,4.088470178790047,1.5865108937582626,1.0063839930623366,0.4654728089659811,0.6929554954933191,-0.12021704876998987,0.7965713239539378,-0.22105935642496308,0.5472459300024569
,0.9043367642080076,-0.8897691269671073,0.7426010099081334,2.271152229921936,0.9857016098561575,5.1340688086265915,1.3686391404423928,1.0437754666901846,1.0326335443872672,0.9007923512379723,-0.13311897675761242,0.19838071367541554,-0.11339103454196121,0.18556853163483555
,0.28859360932810507,-0.852643491433529,0.7529161799655139,-0.9976815006899197,0.8493862094592227,5.732121197631608,1.135348218219333,0.612934192852131,1.1012718930699819,-0.02913055812843785,-0.7200766994893747,0.20102428325446062,-0.003757050538813589,0.4060028702136623
,0.348619800848464,-0.7655310420610375,0.3248912337792118,1.299268040684939,0.4149066622982029,8.047991871057999,1.6804557605769115,0.7339013201472334,0.23199918483751544,-0.1684507080737421,-1.058408616575428,-0.015549144594431234,-0.17970835873922894,0.6105826466637465
,0.41667912304357363,-0.7063597690956364,0.2779357852178116,3.2282221038056145,0.6367306618730953,8.740729133281432,1.7709933642967686,0.8952609155654129,0.09816806990305968,-0.2532694761414291,-0.6045913907615738,0.5448567442642653,-0.12802836338455556,0.09463676689084567
,0.3949137942158679,-0.4872304002828442,0.6012162416489116,5.45117589847656,0.6901852149965326,6.863395300877492,1.9131380389207422,1.1597482790763805,0.4960549622205712,-0.07663368755567593,-0.8420151234165801,0.546511739410194,-0.1908148520198259,0.2360360827338183
,-0.016214897969599032,-0.5589817355777345,0.3660453917062115,8.022747755800511,0.7288508083363895,7.847870535290608,1.943352422657047,1.164194845043531,-0.09888312417485645,0.06309345850804472,-1.7232879904655736,0.21580000881437875,0.014704607452945084,0.564104817573941
,-0.1610161564513686,-0.5544002213050516,0.008264747501506173,0.33143871132140873,-0.47264824577403747,5.702615380757067,0.664922247470558,0.4179291061500696,-0.30610409203942796,-0.9408243317163894,-1.2315062031624735,0.2830159276922866,-0.1573373757587643,0.40234780125835246
,0.23751619031583562,-0.7220798362366215,0.2826171798101418,-3.633385532624116,-0.813417086641188,9.228175591465607,0.8642962368497173,-0.5925665507042183,-0.40083302649194397,-0.2685741126379488,-0.568357047412544,0.6624802202597944,-0.09625009885571245,-0.11700017618185099
,0.48661790416672257,-0.4748243364181156,0.7880388793232375,-1.8155184935115456,-0.37889264602655237,4.540776227136395,-0.3887407948269885,-0.3301314364439817,-0.35914052891405873,0.33424532669629914,-1.1859740669024408,0.49055014459695767,-0.10900407016637584,0.01946629139863205
,0.5718421396487354,-0.10096449679362135,1.158115215848825,5.5557893998506005,0.0520126856720166,5.4182697315386115,0.44904958788878624,0.1459001471900274,0.2674979265381598,0.48770068795194776,-1.2821751087710958,0.2714189997156332,-0.39457443512919865,0.6316087035749087
,-0.1330628779528246,0.366334889857576,0.20585720282292666,5.6051980367114185,-0.32287329032389456,4.480914681923402,2.149582598373989,-0.28863037904787786,0.0387817431301046,0.3852115124802566,-0.6069133976507683,0.5254330343969968,-0.45291224410847003,0.16272637474703094
,0.1818290434587244,-0.032626401008547495,0.32368153788998694,1.9183463610097309,-0.577232191237503,3.226226846830799,1.1119107002586852,-0.42125804904409275,0.13210615599313014,0.736416313832042,-1.1764062066313037,0.695845616328863,-0.604308308178213,-0.036447223221341855
,0.723365134646712,-0.2658148458051751,0.5311824643279385,-1.6543135084113103,-0.29729081848912403,3.1722182942347055,0.8999832704148192,-0.5797644629909282,0.3849512398432871,-0.12493269456123444,-1.3255019566277433,-0.01661937866042555,-0.7346668764609562,0.7089902371785957
,0.1552880027275415,-0.2784237270450347,0.3203600891855711,-1.3985664723876907,-0.24244770993682438,1.1246915361576604,0.480475878460341,-0.20756455321052433,-0.4157120884550634,-0.7722674792030848,-0.9142557396637576,0.013264917883729145,-0.37386351350260755,0.7545279726009663
,0.5239530837927835,-0.11506256665270971,0.2564043625168846,-1.087148097523172,-0.3901467468940024,-5.091883418708543,0.18314804876112536,-0.03618131735534524,-0.8374146412745136,-0.24319147116041023,-0.8555696120101668,0.423368642709857,-0.3412611057540418,0.268317411409437
,0.10866901398291383,0.5790202874602021,-0.19661852968982516,0.22131532792074723,-0.7835020697645529,-7.291118202202553,-0.010273913775265108,-0.2393234735906532,-0.3578766988412939,-0.07071306007741116,-0.7600081630289981,0.41251761511751456,-0.1052611582621833,-0.7274397414935312
,0.010184320838249715,0.26124174608799805,0.280591901318923,-0.014856767005709861,0.14989947976029652,-1.313018126934573,1.2582030177580552,-0.6100811690099555,6.76756040821527e-05,-0.8350674279413531,-0.6943768235785361,0.6673339527369561,-0.2014240505014273,-0.38091933966145397
,0.12760413511688312,-0.6272891255049361,0.5076513009339444,1.0475430780139043,0.27518838783598665,3.0776167760377677,1.7951014369732592,-0.025927777659080328,0.3868494025666407,-0.8142879457302692,-0.08140464406906558,0.8617969040884798,-0.43368412648464005,0.3957369316519721
,0.22901045911370702,-0.36315500512825427,0.5052302294139108,-1.5017858625856326,0.9109153419904136,1.4716277862565077,1.2579644983164209,0.09884585444810373,-0.2909515394024846,-0.2864692626179601,-0.266600492523358,0.1680856252465745,-0.35710318214495934,0.6861690163751868
,0.4665032746399352,-0.3679048893172665,0.7963053563056095,-1.6167450773552208,0.7475212839615913,3.130993218624391,1.8005275156640888,-0.08176578178447017,0.028940591177700467,-0.03924107435813787,-0.5417899887029609,0.31448111207237744,-0.238618587062148,0.36645201716423365
,-0.12972187525307174,-0.18979078511299322,0.746229603575617,0.6629040321760843,0.4762113105951469,3.1583121859397427,1.3430829982411865,0.2450003367638966,0.19874137752728385,0.4980799050902668,-0.40810182068228446,0.8361123979530547,-0.24050920204916423,0.5648675164888093
,0.2548260575799361,-0.45807795040796795,0.41976450232815143,1.2309995751033638,-0.8272064730083859,1.429637204004471,0.4562387839932233,0.8755399693002415,-0.8882006146734586,0.3290843067393588,-0.3369339467896083,0.0749182425077575,-0.21236320832860137,0.4801015395223853
,0.8875420231077721,-0.7782374257373769,0.36760627270978025,2.103891793272683,-1.0593577862128716,2.633278545904683,0.5456391885754625,-0.011266326886776042,-0.6198798729748202,0.22812882738659254,-0.9112119669589216,0.10535773751769804,-0.015100260637201787,-0.12957835478774815
,-0.3473528688272898,-0.5868215716985914,0.312094568398072,3.45262718525674,-0.3063915790210491,8.323931274457497,1.8990475279573515,-0.52489357977473,-0.30308785480730316,0.07231889912328636,-0.9984240060913403,-0.061347746822729005,-0.002238864972063156,0.048496423264567844
,-0.07346285751696173,-0.6248101138536081,0.45721494876778873,4.362884400814994,-0.4849397178879999,9.439959913106502,1.8506017559988792,-0.4911703608647339,-1.5667428270695534,-1.2212941599694453,-0.6292586202818973,-0.38316410190439976,-0.2162712138017149,0.5843640371777225
,0.8239560289629706,-0.3854178623098205,0.8333319316097487,2.842070395344269,-0.9380934509149974,12.22839895358305,3.2270786513384673,-1.6903064092912699,-2.150331190687773,-2.365262304070998,0.009192313103789384,-0.06268464793437425,-0.4149490083466944,0.6331889818276116
,0.2291716027955893,-0.20058064621833033,0.4903962666697529,2.161644985782879,-1.7960262219218317,4.664962092136847,2.2209709032550053,-1.9599704766526713,-2.0830690885740677,-3.1654484993149725,0.041136651960973394,-0.4173684468210568,-0.26563947348754197,0.1630917766007096
,-0.10414817208730073,-0.010871561843192611,0.6814471061034267,0.03183496767965924,-1.3000473436469069,2.085899460492287,1.0492599327319454,-0.7339557887585996,-1.1100800996586475,-2.027243442379173,-0.003105904900086472,0.00012944997689413957,-0.3294342860028252,0.2241340278202079
,0.10033929490887904,-0.14367485993015147,1.1195307657788178,2.166470024053049,0.8935212102119121,3.3731018728013793,1.0176439634205525,0.051735967203814626,-0.3594815096699852,-1.5632580481903307,-0.91144052169848,0.4736283827409262,-0.3582410370432016,0.33258732322923756
,0.37531671297683483,-0.41287820348419685,0.7599361316566675,0.5745963275562902,0.4978982854754078,-0.224003806125468,1.8236187786084528,-0.9947075975340474,-0.8881627177508898,-2.6463698210302744,-1.477585183019812,0.7749481742804791,-0.1901636490404087,0.14637639121870097
,0.5464391581753048,-0.5234640572914577,-0.031855348838057386,-3.1922105174372577,-0.43775750250635265,3.897523052472837,2.8181537913222097,-0.4813806463311225,-1.0872234744002316,-2.341027181612996,-1.0254025674746043,0.2773271734485383,0.015091610493151773,-0.1594641511465384
,1.2033095256300108,-0.5575526538746903,-0.46317239232966145,-0.7743215672914752,-0.2760507783247201,10.88370135309594,1.2193277983748816,-0.9404461738966615,-1.0868355249932689,-0.3589027545487367,0.04758102102148394,-0.3990359398632658,0.1042774428143009,0.24241366363365968
,1.5875270883504908,-0.41379504969073583,-0.12232506554793289,2.27343112602264,-0.6492876101151286,3.901808305785085,1.4884211541052934,-1.5305733245403443,-1.9880019901311778,-1.8779675165419074,0.1608724927028796,0.03144695619440064,0.027587955317198532,0.4691553839427894
,0.7380889846819448,-0.6471279675712261,0.4773039387716153,-0.7324934927796677,-0.091405489746314,4.42170308431869,1.8025405863168082,-1.1888624170462383,-2.3832277937179738,-1.712779919483093,-0.9630312292516076,0.8343490091788277,0.03393832683105237,0.45238799411515396
,-0.254229304038151,-0.08840438787580068,0.6511912740261934,-1.0866648733451096,-0.6860121723523669,0.3128958501135291,1.1116994724733755,-1.2709416281857597,-2.3433780465353524,-2.1516333819743916,-1.20420054881636,0.3476871307267975,-0.35475956824917604,0.19938719729131246
,-0.1719048091670497,-0.14490592835228533,0.8355764282696351,0.7751233665945126,0.821252783915813,-3.3050641597879578,0.550863666070416,-0.7785599446851528,-1.5413977120615063,-2.646542986156159,-0.5644144621166354,0.6174340889561262,-0.6597991061903686,1.111264065220855
,0.37969110793180955,-0.6438101670788062,1.0034153075871213,-1.015923967428884,1.2881474060290772,4.220130123136806,0.76453098174965,-0.124809180871803,-0.6567817461339867,-0.35692282400369035,-0.11604807107363246,0.4596504274973394,-0.24363040071189465,0.7656608885141013
,0.3490898924502274,-0.8083429021021779,0.6985380647764136,-0.1068892258315809,1.4455033266081336,12.015300450038904,1.459255619360981,0.2042060265048661,0.5445932380723404,0.27473820505732904,-0.026324821403699152,0.6234262118644379,-0.11090059426497408,-0.032174141986108476
,0.7843644187543194,-0.5745583984271586,1.1820949725558594,0.4358854532099927,0.09822048666793258,8.085204558802761,-0.2245291723847085,0.6934477599834791,1.6618302481520566,0.5041328398608008,-0.43778464998313155,0.8814270408911962,-0.11761518855337641,-0.0678722783310421
,0.8180660327923985,-0.6538477494007984,1.0264667194757733,0.1286184077901365,-0.46076635629826684,7.031107060968801,-1.3808315498551058,1.4805161410232728,1.1308962698375298,0.4818159390830084,-0.8258446143528463,0.5791652394176291,-0.13473521201040478,0.17706709573738497
,0.8599835188508029,-0.6730215244915204,0.5385440386634308,-0.3860241809138899,0.9639717052453161,9.208981423698297,1.4570724990115733,0.33831983391709014,0.5204233478513993,0.6884377992099708,-1.5479828645417668,0.5584972247283717,-0.41495110197454266,0.5127408491223816
,0.9219017427266828,-0.8564601009025216,0.5152153429750577,-0.8406528080253325,1.308476985606559,7.3083986778061165,1.6575903080808154,0.4057741576152622,0.6716657831861146,0.6196458411016068,-1.285791009218348,0.7358948628692864,-0.23551088531165199,0.027509824837715066
