event,eeg.af3,eeg.f7,eeg.f3,eeg.fc5,eeg.t7,eeg.p7,eeg.o1,eeg.o2,eeg.p8,eeg.t8,eeg.fc6,eeg.f4,eeg.f8,eeg.af4
,-1.0785380268805835,-0.1292393895359871,0.1368087713698825,-2.8761913073168284,-0.0882783110990254,-1.0049484018738628,-2.9855505901483084,-0.4988503433694487,-2.150629593146245,-2.315508287563045,-2.5729262103828994,0.8686215761145352,8.588936818059127,0.11349749594726069
,-0.6629754317303821,0.4764620713044975,-0.008729232148683626,-7.012948103359705,-0.6045809434112998,-1.7228659756226423,-4.140022066220862,0.20627700114401618,-1.5643996672229896,-1.4450024880365109,-2.7030688238410487,0.5437117475384127,7.714445720828597,0.45636813873932924
,-0.1588315764971516,0.2708785769245234,-0.2227468052656887,-14.820363243692666,-0.9791655018472445,-1.446780151283121,-1.8280218649306574,2.7608637483236187,1.3397941042943617,1.2140313815553434,-0.002182571233021789,-0.01114759508791807,0.9621369838409481,-0.4121568261809373
,-0.09372566834359333,0.17049455421704768,-0.16029632254236742,-4.863454895241525,-0.7778959469540616,-0.9006091465151674,-1.358340587677834,1.520803659824172,0.7878855212754506,0.9524701196285424,1.9222668984186044,-0.09567070885347066,1.980478867707132,-0.6631984966128432
,0.5004705599559791,-0.014058885354320311,-0.48427190666286324,10.757467530310917,0.7269806757997568,0.5042693911940723,1.188427167556677,-0.5635093878928727,0.18663253572994684,0.7482958055218987,-0.059555607926669585,-0.05389162386719121,2.299725158623195,-0.40135949900608614
,-1.1231638499001364,-0.28321522660072146,-0.4193436695130846,-13.010697705611928,0.5464063093836822,0.46644689474264117,4.279729222051128,-0.7652366344864635,0.572528887180978,-0.08292053841847394,-0.47173750970062955,0.37804119765552846,4.766918255964146,0.24578751289874803
,-0.1043299508620739,-0.4864962322839077,-0.023386748271866823,-3.319135102761679,0.16012689117540474,-0.03136913089498212,5.8251490606722225,-0.3734074834816522,0.5241092476719371,0.7446248135221873,0.8173468159516583,0.5172226024685566,-1.8940343905755175,-0.39616807777790436
,0.606049913587333,0.10532753618864457,0.17067902223469392,7.590632842570779,-0.5542471523492577,-1.1284059452283406,2.066585483353566,-0.8850058506164077,0.52559994845239,0.474442811460527,1.265215090363689,-0.3728649020033855,-1.22551400689948,-0.6170333455404595
,0.5639544863330871,0.2981607353532344,0.00029842225148194026,-8.57161651641151,-0.7582481818007288,-1.7564392884133266,-0.7256121012040204,-2.1926018020376614,0.6056873318321924,-1.0311051115615302,2.1810957707714858,-0.14352654627494207,3.9089331039046638,-0.951269542167614
,1.0008249535156248,-0.42698210110596657,-0.018011477440466786,2.9753535921593484,-0.4848060746970047,-0.5863685523965043,3.3298799881940733,-1.95294948876769,0.04214872516841702,0.44709277446051254,2.196947807813432,0.9205650231029254,-1.8537438260149954,-1.7108832043895872
,1.6386347246458215,-1.1711356869833367,-0.2783431606470933,3.120722926842612,-0.4363896390646716,-1.0335917291162715,-2.3604544834256216,0.09215841806621736,-0.9510394755306756,-0.2641686151455764,0.6190398137955683,0.645070867056016,-1.472539610317988,-0.8693790320241964
,1.2877598977866913,-1.2032675188568993,-0.29512118669360987,3.2503872396019493,-0.44464156019686263,-1.174974802429417,-2.5741803380531194,0.6535463359902383,-0.641730156922411,-0.6591481997799664,-0.11988793833904215,0.6969119690344611,-0.7988624026665817,-0.9630768844093326
,-0.02406120930972896,0.16692491049342345,-0.8329877529029693,-6.021510752015291,-0.5188484488803208,-1.659555299812713,-4.020726107089269,0.2019850350201807,-0.7970726573915595,-1.2855038701790602,-1.0065657508155146,0.27930601562425816,0.6782336202594471,-1.1800912397928174
,-0.057454464143036815,0.03614310624468535,-0.477922423189819,-0.9120191605926589,-0.8724529165180908,-1.124895448704081,-2.792354549940758,-0.18124430850520956,-1.362169697415372,-1.2503279745625608,-0.29580064836646547,0.4087133352060391,1.222539713176115,-0.23590537163886885
,0.6371676357772498,-1.1376487645103892,0.26786583517797014,26.463774365481676,0.582475513182295,0.6847814860362699,0.5355902925142481,-0.04120473714712927,-0.9666946314658235,-0.6904012655949052,2.1657717505579317,0.1710436230712151,0.7932390649016519,-0.15113630863716931
,1.3150346663607517,-1.1887897176889275,0.04164376423434657,27.480095129592662,1.4307405274657317,1.0598781970939408,1.151413222466658,0.2595110623634905,-1.369796689391543,-1.4638154239734469,1.8562455941902698,0.5033893186736781,-2.7204974456763056,-1.1484604965868164
,1.5428256538523175,-1.5723265195961886,-0.18790950885202926,31.381262507822754,0.5223665887211386,0.5970125729794523,3.577805320200923,0.8834893509312093,-1.631123856283162,-0.8887912174154652,1.767770202623786,0.2737204687108366,-7.3715782320547065,-1.1831736686620045
,1.2061391721525707,-1.7611464613571164,-0.3355358158050874,42.267643047262666,0.3577967142267023,0.8140648663365785,1.8858126620299167,0.5790868212753065,-0.37472225519384955,0.9450533941552595,1.8388505100190449,-0.7256886482606997,-5.470803736907043,-1.1239583151578287
,-0.22727262829620723,-1.667597955547059,-0.46450348708504086,35.57333895141771,1.6751288484960483,0.9623483962435398,1.7615311508826996,0.5251422204409298,0.48837647450386307,0.9051877665238267,0.2595763741358455,-1.2690026394227492,-1.9452943188520002,-0.9087128504894462
,-0.3882366912589538,-1.3216759232803033,0.015805105976717464,18.4273190380722,1.5152842786266683,0.4131759548353705,0.624251412243985,-0.4542803082650297,0.6589872458315527,0.9562243048642339,0.43237169419160376,-0.31873478455329024,-1.9146881521637604,-0.662823531474074
,0.6159447037780968,-1.2764028308619446,0.3406340110884536,24.232030461134794,0.6571143073710011,1.3156377490332996,4.853680982358127,-1.122405171415339,-0.13915396404781516,1.7276870326064182,1.7276766294283676,0.48320063997374285,-3.481672753278843,-1.3632822978644181
,0.23517695703675331,-1.1468711392738664,-0.3486106769946598,12.610278648736102,0.6480979016353612,1.5931577089128828,2.4449752630585415,-2.760310557581832,-1.5684234257943508,-0.3337357518730903,3.5117384148081108,0.42637276027532,-5.210136492961227,-1.7862064072745305
,1.6652491927804172,-0.3367528281317854,-0.08902315290840479,0.06130709867369086,0.5287679092760073,1.3681667400183175,-1.6465630363082273,-1.7086387904829732,-0.7614565449297414,-0.7760783851557231,1.5284454926309106,-0.19849626187658292,-1.0962253284946404,-1.1784391138112567
,0.7035024581347296,-0.5188261681567115,0.06560876564240868,18.717063215776797,0.19806997666713344,-0.31387029825062956,0.6194642036225055,-0.4613366024585789,0.43725963718228916,0.2999533011557976,1.2323565518379542,0.12351705425566903,-0.9559780356983368,-0.8653190222355199
,-0.9491702546140748,-1.3152934372705047,-0.06353719654932122,11.220620093297482,0.394196822398714,-0.7737231612288162,1.0807016772248996,-1.9339906149315422,-0.34341233812572997,0.2242470938458932,1.2941381178107871,-0.11521491388506293,-5.302798442339865,-0.22820301718153685
,-0.7349251320531235,-1.9238602399136389,-0.23885743538981222,22.660898044480046,0.18870251102128238,-0.3456131915323912,0.5749502841675244,-2.4688487396218273,-1.2738328676379136,0.33981666127594745,1.3010876326976766,1.1029655063840516,-6.416344108280395,-0.4233341913134545
,0.17014375529949458,-1.2555142064826865,0.013463540124501877,39.742767029430624,0.1795815437836722,1.4536381478388474,-3.3094760992834407,-1.6311139536332075,-1.5171380119321312,0.9404339807932363,2.243113486914421,1.7430377482784527,-2.036008958157296,-0.10309585100263596
,1.54535475684628,-0.8904447016916422,0.28443070392709147,11.070400014325912,0.8620805103503417,1.0346665281373981,-2.601571810900176,-0.1537345683054289,-0.685354830347722,0.93478190330084,2.356035705151101,0.4586590934833285,2.0372859910245564,-0.24179150013635378
,1.1756704834102074,-0.4215754714453435,-0.1300856621172019,15.844033232109753,0.8106083980750635,0.3538206414896647,2.4373990998390207,-0.5512819979740995,0.22916582383941989,0.6509774294768288,1.7395530604436367,0.11023690595269767,-0.4779468550574221,-1.1292794161296973
,1.8019051969722435,-0.9732929953543805,0.14845890922600824,27.447828926438014,0.9757599390092738,1.5064673452846618,4.638204461948766,0.1321224411678359,0.47637081902899975,0.08918812478058348,0.3853573968670392,0.7399308360762259,-2.1348710014210273,-1.002350366300854
,2.1618145840880945,-1.2247976664677567,0.06829261537541051,21.119673187768907,0.10879786887122436,0.36464327152010084,0.38605240845905936,-0.05069763630149584,-0.01230099719459228,-0.9655982020181978,0.7235599990415628,0.8262471126245569,-4.039623614838619,-1.7362103014125068
,0.48378453624261675,-1.3930377342912308,-0.1643863026878779,2.549092839251192,-0.7108281184949194,0.21604426620672423,0.9138838068378099,-1.749010061768863,-1.2741982404629193,-1.3096329523230137,2.4549524584188633,0.7517359199484059,-4.6136708324416835,-0.7833169210714597
,0.6726085361360642,-1.479935812261098,0.1266672892195591,12.151326146896412,-0.466651136120177,-0.02241874077641623,0.09542802044396664,-1.8180225534615262,-1.6193176636853834,-0.16986318104451933,1.4015956516823933,0.42763374860262254,-3.8070753556616874,-0.6342533826313129
,0.2770557184256694,-1.1024860600035167,0.10494255316739914,28.350057544671884,0.5390423394571935,-0.28128705305716306,-3.5361318532735324,-1.0776270533381869,-1.0988254134382571,1.670994136264067,1.203705394088546,-0.20779898128870838,-3.542104231296599,-0.44065875399712684
,0.027786599407837807,-1.1831091230407016,-0.11773382238135116,24.277959088003385,0.16807068703104502,-0.10476544095561781,-2.977777228646178,0.6877048320805897,0.5994396102071972,2.2965838144563513,2.49169176475222,-0.15829557092621374,-1.8981534773647575,-0.25243381640880513
,1.019993934039356,-1.2171324148677969,0.044892825823771534,11.217225600624511,-0.3853251869718355,-0.17595067398375536,1.9199894516981768,0.5915724537245066,0.6009622103932509,1.1115313260392248,2.6346638296248783,0.6127043260025355,-1.6066683721832486,-1.141551926155953
,3.257587351458901,-1.225016203543457,0.37590801605666846,19.95268412735921,-0.043968571781032806,0.5490732462429933,2.297058146488439,0.5117559423445539,0.4014857281904149,0.5116107956141703,1.4570060289594107,0.0927640731773538,-4.363861916722615,-1.0364828643739747
,2.055840201654644,-0.019925594249909587,0.4193494196127589,1.5319597834712881,-0.7062191993275837,-0.3532497543279482,3.015273770236546,0.2696010115835347,1.0723757232614173,-0.3763096376963072,1.7499032902677674,0.6377234743427245,-7.51608096991165,-0.5492973988622704
,1.271427152507439,0.1829192396766695,0.2316714382756594,10.965872814338562,0.04589184645127398,-0.08239577561637623,5.379589452359787,0.5792500820288264,0.46464753997954367,-0.8673986218576982,1.2797011337507984,1.6675689787998964,-1.317639351112642,-0.428024418511701
,1.7145535694109477,-0.5905516386058223,0.2646050273566803,23.914477315282674,0.141890466468661,1.4132808630758196,4.455023561955844,1.5412901307326743,1.6029624465866907,0.13511799886653475,2.3624599552049794,0.9991730504743118,-1.3745985992311756,-1.0869406503333912
,0.7247190597075603,-0.878784845986302,0.5575065947906352,14.817748276189565,-0.1582984503148325,-0.4172119924659327,0.8972023377028714,1.7398040162956723,-0.04457393253033732,0.25396017427683837,0.7066599969239988,1.4366039132840782,1.7178370296086176,-0.7462542556554014
,0.693902288381103,-0.34008996154995036,0.3132959951499172,1.9082113266587937,-0.7374697676359048,-0.1434467172070103,2.018453976044256,1.277697074410259,-1.2553364444407733,-0.013994827012660967,-0.21505323914433797,2.3151336741084667,3.399738719703071,-0.4296432136160945
,-0.5898244725859726,0.014254010125941076,0.2423074719260251,-9.119772108629867,-1.113481120278093,0.016949298631061437,1.8369257027265224,1.7378644461032258,-0.970839909242729,0.48701482474811103,0.6577753603178761,2.0082107867257406,-0.8252788619427706,-0.2197147574078452
,-1.2770571408044542,0.3569255659691028,-0.09443831671545638,-20.926020766907115,0.10590511011472141,0.0044502034271196094,0.7877219701826613,0.7592875877093955,0.6852723753851375,0.23710954775210305,-1.2136678484827046,0.30792876754640314,-1.2441605102562543,-0.20870215874280706
,-1.9629779360944366,1.0007143557848261,-0.5751907035245398,-30.264937619374223,-0.26809849704114413,0.10628479469109264,-1.8237412964578896,-0.3677761650780765,0.2301837543821361,-0.5538027822662787,-1.3150450572751131,-0.8662644502584173,0.10629788321968643,-0.14074380391331964
,-0.8349278225394232,0.17752783334748087,-0.34897316454292143,-10.105298681007003,-0.7965098461053914,-0.23939246145417922,-3.9979117067376424,-0.6422934514285572,-1.3461989124671574,-1.8356684916042265,-1.5322559939757958,-0.7712743444811168,2.8976694245702546,-0.48872661397247047
,-0.836170904333111,0.39708054025464995,-0.8960294471385964,-7.0878830344565,-0.4954420847554089,-1.0226676326611224,-4.035016643024808,-2.3502635795899103,-4.849808627601746,-3.165945980783886,-2.6159759506514426,-0.1356432983696626,7.198976557662204,-0.7914599176425943
,-1.0529115518437344,0.7658502353848606,-0.5441198785231937,-15.033481353630215,-0.7806816822382638,-1.3990961561631006,0.07348929787777113,-1.4347878558100173,-4.050121727553909,-2.0958203818549257,-3.102718157764742,-0.10515640774257942,4.713987542718064,-0.5844820405586141
,-1.3252057283343879,0.33791893605191314,0.02033231652564655,-9.194342611607022,-1.0814036093352477,-1.5906846471138119,3.22140291131548,0.056032871413841834,-0.26081541271434133,-0.49967734697152794,-3.3097255681426434,-0.13490880804001204,0.47618581482674366,-0.5288265919331878
,-1.0185149704136338,0.12571385544282884,0.5846819286389707,2.6961662623784726,-1.159499926715482,-0.896615989195822,3.67045594495017,0.13075288689212494,-0.7875528824809345,-0.4429754001154826,-1.219726035233863,0.14040673909595747,-1.2898983830102373,-0.17306281314331848
,0.10089192661103807,0.05641251858581873,0.20697034596860295,-14.911701143090024,-0.6871569084382539,0.8625729635344996,4.02561748512701,1.326106337843349,0.10101615628559986,0.0918860792223687,-1.8416139500697752,0.03583613880023146,5.197238654640767,-0.29371442239128664
,-0.13890582443090985,0.4480779099560889,0.05253267852594329,-13.690449295454348,-0.2049916617528169,0.7775862097814906,3.469916332126867,2.446221254085292,0.8966969742930498,1.6840875603857812,-1.6198029289731768,0.29064225082638184,5.72696565443999,-0.44341723909611613
,-1.2796340139775282,0.3548878696638096,-0.009629991302824931,-3.570853133874201,-0.04610302008424583,0.509986411400626,4.937261784475642,2.0940165746418327,-1.2158422302740304,0.937686930057914,-0.8834309914584719,0.5720521950267499,0.3670932775244396,-0.429664276241077
,-0.5779634704360812,0.3659937986132044,0.058219616703726336,-5.996728239618464,0.044548639209889884,0.33265147183062466,1.7372865401103499,2.353731890092437,-1.4105121053343899,0.3740324714426199,-1.0939499193326037,0.30012584932627295,1.0011981414128548,-0.7024480323562049
,-0.045632016826004526,-0.14724044258231236,0.3349233859800502,-17.727295893034636,-0.1347925000316257,-0.4194376686288139,3.7813472952539207,0.31756635918521947,0.3119498492947668,2.0211032740406925,-1.5634776980755818,0.8622047032006279,-1.4239464320353936,-0.9299712394737142
,-0.3496061810500791,0.38516674760769276,-0.17332353123915847,-16.919555202044975,-0.28788320022390423,-0.4084438508117363,6.750209270818837,-0.5384908477045189,0.7995028511356608,2.0224895038266983,-0.4458339333552148,0.6883658898150131,-0.5642218714039212,-0.7116963123231761
,-0.8086117906901209,0.516271763350143,-0.38925165080886975,-7.905322508864257,-0.19287259214593377,-0.24951788853703882,-0.4837003862125958,0.12270911749596101,0.8918253053883469,0.35736629265054676,1.076466444741899,0.0097619514404409,1.7979857558237862,-0.3850567555598777
,0.5097724518819656,0.5204526621054992,-0.3692356893675906,-3.847325348661911,-0.938636539359291,-1.7950042554949497,-0.590259452252465,-0.44865737659985805,0.0952854462953365,-0.8848223811882652,-0.3522145639667115,0.587937441949757,2.4571987961123827,-1.1350319646831046
,-0.3792736466997651,0.27672102035513385,-0.7111358327478596,-5.619599593987073,-0.47395848061007295,-1.2351138464860443,4.43509484476676,-1.7730385771888546,-0.7711338039308694,0.2070276606491607,-0.7240125279874352,1.561038628533732,-0.6620452547889742,-1.284963733080856
,-1.644287797615884,-0.0806880327357677,-0.5227813394785874,10.302964577092588,-0.3322717088407411,-0.5255807104328217,4.321482666925978,-0.028309005811064714,0.8792558541730667,0.2482542934001367,-0.49087244144540837,0.49266718569911466,1.2853800960480026,-0.16447406507924103
,-0.9036374055977747,-0.17497323644412227,-0.22927772285106246,14.627657040471727,0.12151402434158108,-0.16549327019435137,2.9270178893955534,0.24103168596604535,2.1268163838637406,-0.011658756462966342,0.865176582802038,0.4532215329069491,-0.09250114366050695,-0.6706906048188489
,-0.8305167466873928,-0.45193476770894286,-0.6003514393122653,3.9265088772639127,0.2567504368969801,-0.3233813383684326,-0.5493141988784865,-1.2237283275239823,0.7685766246656499,0.9343743764868716,1.2092081715934435,0.18708499479378432,-4.599215808736203,-1.0917813743555769
,-0.27276508729999527,-1.0225506758833571,-0.21019773138851539,4.642877793016124,-0.6171723185925749,0.26966960290583697,1.6191077527417617,1.2054026103030864,1.6366896593057658,1.2882909357997097,0.6107550999082725,0.17950016579130001,-3.5452571665412056,-1.4078607601945963
,1.2761301609192621,-0.16289633777752274,0.3689716942331956,-9.815812024913019,-0.2425467446300285,1.1769863713530038,3.1634119144361645,2.150991785245518,1.3381704736484363,1.4093336826982363,0.2880662916928956,0.8479273884083908,-2.874429391276073,-2.071148483880253
,0.7227944598469594,0.5778235942500375,0.42757191467392286,-28.328288214291323,-0.8198075993838626,-0.11595220346038596,3.517507124217139,0.39391575328274797,0.32241767115438374,0.4370085379947582,0.032630672003634544,0.6266044324205675,-4.981783453229425,-0.7667707592631428
,-0.14430858324649254,-0.5685090652939084,0.1739403666309335,-3.3985640744150367,-1.17330264355468,-2.1532118178514743,0.9716752905600747,0.3453308527651498,1.2204117406223278,1.0810809167203028,-0.5626702472577045,0.2172595896750501,-5.885223551681998,0.03859905114309557
,-1.8667809021846915,-0.5171222628529636,-0.22825727013121838,-4.6448028407298745,-0.5546433690839279,-1.9729967858197321,0.45867259584773745,-0.717642452646348,0.48232606248703225,0.516375391804262,-1.0630399026254143,0.15032020773307136,0.8035295276430884,0.6926003386127609
,-2.131393669739616,0.1836913245380838,-0.05258109642516706,-6.300516205019836,0.12916876954944784,-0.7271162493995742,1.660784720807312,-0.5491786869364454,-0.8072617506995127,-0.8783828089376925,0.0537149953289733,0.23889531837879388,1.1933281327303735,1.0013252142206086
,-1.530169426626355,0.5314125457758522,-0.09786395519429666,-10.576485335756121,-0.6021389906565224,-2.028509162732053,-1.4189428519082306,-1.682364716513756,-0.9053157352858955,0.4047155421090394,-1.972390900649918,-0.4532936944450296,3.894972707567953,0.4644018927829449
,-1.040322229213769,0.4548686289603213,-0.2483754251160629,-8.661379882062306,-0.48097639379279994,-1.5160118560639646,-2.1429968004303808,-1.0368065473351251,-0.6592086506712906,-0.9973575872079814,-1.6836301129348499,-0.047623432058989765,6.176232772082666,-0.15857142645220298
,0.9732148004019242,-0.48657408832170884,0.006269001174227859,9.16921971545989,0.5484100025099764,-0.9520857720543788,2.195556544788302,-0.8112128994617139,-0.8277565370122142,-0.8731882247598534,0.3943687360059653,0.9795236492257275,5.795880983199412,-0.7556603893275659
,-0.4909601460494393,0.26809542297146405,0.45326038416670505,-7.856159634769435,-0.427702759424218,-0.4251089348230847,3.593690313947515,-0.44019551746569924,-1.7868347518523973,-1.0364828362510323,-2.486656646760449,1.158824114789426,6.876279331210636,-0.003055335133028358
,0.2665341902150746,0.1631650229681912,0.5506025546422092,4.679676285509471,-0.3622061061423955,0.5824436509899669,0.9504196518526311,-0.7408171192113823,-0.8414294448858554,-0.04640765083508459,-1.7100140161916357,0.8006092995190771,3.152679682722143,-0.6203019853277973
,0.7489633887388365,-0.634519630646757,0.36013914313197765,7.74672176574715,-1.0784078375466073,-0.13618299223557317,0.29985162550854094,-1.5384535230659386,-1.384664801844055,1.6990924339682059,0.5299430350116117,0.7134742215941052,0.2908313849962999,-0.9299691385725555
,-0.6939874654142334,0.26579682443736635,-0.42150103606037015,-5.520919577239334,-0.47511132773521214,-0.5009384373349351,-4.374037901462425,-1.5239459383673015,-1.4211925951055029,1.0821001915777335,-0.02566642208349003,-0.13650895681154485,-1.6643080399243881,0.013072191338749945
,-1.2720019109252594,0.662583986899344,-0.9501963048967815,-5.420788436447939,-0.9449572616758545,-2.0158691331457432,-4.69926891647415,-0.8809146083450884,0.31297513422699913,-0.06530006807791003,-1.6317092675781377,-1.1611226889354636,-3.613030419580466,0.14429311588184293
,-0.5027588226614514,0.5974858875162625,-0.5634619758094218,2.307531608357606,-0.6640155431869896,-1.6618246830666599,-3.196749237012455,-1.3723087246636925,-1.1774371983620808,-1.6201652334263585,-1.358994267935181,-0.35650146294695756,-5.107894815252584,-0.17534129717239103
,-1.0490960457139353,0.3069608239207845,-0.7317457699890018,-16.035787422299478,0.27195860870889943,-0.6342936322394787,-4.352096896626901,-1.1853256535328722,-2.1447430724956287,-2.459823789047079,-1.6322421040907384,-0.5619306854977684,-5.0804213594150776,-0.08807289466053103
,-0.8675267923085241,0.0016224350689546137,-0.4156593148395072,-10.580519539271867,-0.8012791622542759,-0.6764984332224173,-1.7599976283646592,-0.3090256858252963,-1.061511499805683,-1.3729559579059767,-1.488718722408009,-0.2351830937871554,-2.2675591764750807,-0.18412670307437437
,-1.804997403906611,-0.2578802920086537,0.12739008295421242,12.866366877015325,-0.9969017550099286,-1.9548861469808314,-4.548238401478736,-0.10653000621451031,-1.1634638400477002,-1.2375765765657305,0.6178369143053352,0.17629091720734533,2.2247496446346093,0.4153689539486223
,-0.8377751469930397,-0.21973148562680805,0.13172373628815176,14.045120948834752,0.3670752420131126,-0.7804132239491594,-2.8144339060758288,0.21303524023670853,-0.23309227945222866,-0.010490224835607522,0.6011316096163288,-0.3076005016927938,-0.07899996554356892,-0.25736505549615324
,-0.7797494561698387,-0.6527197853063378,-0.13569254883240456,5.855494512607282,-0.15929448191560078,-0.15643191992695743,-1.1586070327066296,-1.301709428572168,-0.7749285997305175,-0.22513091682390604,-1.274652644658836,-0.5913362687809396,1.7253280985313943,-0.020671672266227153
,-1.1239612143677589,-0.5841263509816446,0.08249569708075831,18.48030371628344,-0.6120009195580672,-1.0114725959838076,-1.3289873708055462,-1.5968115025464815,-1.1811507869491156,-0.4214782725437789,-0.5995159074915196,-0.681307064415619,0.464251955707221,0.3882442249385013
,-0.24939541816483476,-0.7369715135049346,0.3230736041337635,35.03355622179653,0.2912567314268688,-0.27040617140556616,3.4937639488244723,0.32075192761390026,-0.12389658276325863,1.332849444825436,2.0057314061465723,-0.18889843374718251,-4.975476907450977,-0.3166951940089007
,0.31396970274549985,-0.9749311184848649,0.1049254325568631,54.027343698318006,0.7538577062572607,-0.09789139456342422,1.3933966024789513,0.9978384375658723,0.024166681408999035,0.6251301812622022,1.8089881527886134,-0.5963239466795907,-0.3121134458164249,-0.21081373048625324
,0.26353617289907516,-0.8755707942391684,-0.23455186030297212,20.451220799134294,-1.2152191460500337,-0.513768742440256,-1.3052604364754774,0.146424629106712,-0.6465592478450276,-0.33410453810767426,0.7817565156825361,-0.7053747265570094,0.46318258362332504,-0.5428533976805682
,0.7852747262654088,-0.9638318057958858,-0.31521703848488286,6.128843050081011,-1.6050742568552139,-0.7938907527534808,-0.9076121660048675,-0.957722941877511,-1.8534336914151173,-1.3122281288400492,1.0321217933353315,0.3395716670122446,0.23470069599682583,-1.3179827079006867
,0.32146560955229936,-0.6834422980572465,-0.1957423887826012,2.607079299152429,-0.7177470823410563,-0.2142335806615767,-0.36470466251223266,-0.8326092635863984,-0.5309018528369488,-0.7712184224013676,1.2630945359865617,0.8120619974931865,0.5181643485369938,-0.9706428074969918
,0.12511410595604017,0.009135088758876052,-0.02028774202150733,-3.4575133404558227,0.08052116909972307,1.3726515028993123,0.5862605268740765,-0.4253608726325669,1.0650396605198356,0.9169945540533019,1.1458815519073944,0.38745276324523736,-3.0908851543621805,-0.669714553781236
,1.0328287232028508,-0.02669581181047591,0.21188772825693597,-9.610268995940297,-0.4234333164130496,0.43895368668180074,5.736998837415801,0.4195521030344947,0.45562275004802055,1.163133053622518,0.4294494882501051,0.5384976193327102,-2.0715516025286256,-0.824805834911041
,1.0321660726092796,-0.20678536612570714,0.4058455241721923,-13.363690767653386,-0.8135067445668746,-0.2937252549691051,3.337085734261401,2.3072086778788243,1.2827638183214194,0.7596944481973051,0.2138475173650003,1.147698706365192,-0.6882089003849915,-1.8487040672713342
,0.18093591035971102,0.09798399252161141,-0.2332579198644018,-8.86053308165071,-0.8260895063265826,-0.5815111447174279,2.9614293407763626,0.983176031626487,0.4294329880121938,-0.4760904133878128,0.26851473276979687,0.5222768148237998,2.048478525174019,-0.7103060685535393
,-0.9846391902161274,0.07420889615814108,-0.5080323413633243,-5.642599110361642,-0.2806460580284664,-0.27593208876511127,1.2315156227283655,0.503529845929747,0.36237703495199075,-0.91116760846504,-1.0485945770043075,-0.7346903255302926,1.8345759312846632,-0.31341755782073494
,-0.5981713139387839,0.1730812465819618,-0.15662804249358572,6.649808780600828,0.32634382284770047,0.30514443016807363,1.9630622693189923,1.0233926853905546,1.818635980770545,0.6517161188139565,-1.6285580917896265,-0.1488175689588055,-0.6898935407588309,-0.7206268011136748
,-0.40209970302831866,0.5191572917977173,-0.6454448075230717,12.805403183713194,0.4736639727501788,0.32416730972272617,1.867219377495484,-1.2237160171802848,-0.5849258574714771,-0.17655444346807656,-0.7991893081577506,-0.4187754109585427,-4.178045956085721,-0.461704977301297
,-0.6032083154415995,-0.2663727057022983,-0.8888476267645165,-0.29359643411503883,-0.15932797690441589,0.2098198629822856,0.11472274226946871,-1.503348803099413,-1.5109489852659865,-0.36813888401731226,0.6063403970830757,-0.385974665127641,-5.965813845513393,-0.5506978541894597
,2.5020504108649555,-0.2888958824356944,0.011420405607144505,-4.733951626119762,-0.29831102928008124,-0.26349376002806496,0.4872621329007902,1.383780870691933,0.4020435783432299,0.7159681913178183,2.1311293491243744,0.3109447951988211,-5.082354319195413,-1.8471159452849524
,1.882375640689174,0.18185970469631335,0.30790090734332287,-22.358137411529036,0.5483557103141191,1.6404917889241488,1.6401089984750703,1.0847599368740644,1.8079179307860762,1.106392599523593,1.5672975735496641,-0.023720217606942498,-5.0431081377929825,-0.6482396968201976
,0.12421793511595189,-0.1700375534172526,0.2512888396611072,-16.802979096898902,0.7055941908496873,0.48556548027506646,1.319711020473889,-0.7235212091985853,-0.2557374010036129,1.2311681770031722,-0.5646706435644031,-0.018136255569341876,-0.900619393562717,-0.20898208643439126
,-0.3556605022330076,0.21038079978442858,-0.10086262633244211,-13.637563022182686,-0.2465961012408637,-0.35816387969770097,1.5191788004359905,-0.703208224263253,-0.21397750567345747,0.7830553673102242,-0.17700189762756977,1.1350325265235104,5.218945078458577,-0.757129675173508
,0.12588115616308435,0.3756343817172956,-0.0006343547183323202,-29.409900232055726,-1.2071338643604725,-1.7433587737692327,1.7554788926759168,-0.4672471750115524,-0.03179671861517235,0.6413004103886341,0.4095978283364863,0.4366883510020959,2.9516824948740603,-1.1740014491096262
,0.5809022893673622,-0.005489194156778279,0.239533907688146,-15.486630482038928,-1.232985953327808,-0.18775576647782402,0.38969100996526856,0.18043358186923197,0.34885542631997474,0.8597858938801025,-0.5090858922995819,-0.04913922254157605,-1.2720798714793684,-0.3995671932895352
,1.110301279209686,-0.024844402777410315,0.35648808285832617,-3.045970657544866,-1.2277032198921372,1.0137788251750346,0.6388643369805632,1.3744003583282824,0.6624102955636921,0.8774091435936225,-1.1134769870198922,-0.3648998466746226,-2.5233432804770914,-0.1970028678662956
,0.6834404276237501,-0.3023973114039644,0.5079842520691047,-1.9516895030347674,-0.2072203003245907,1.5633096622622604,1.0037944232126745,2.072039513479299,0.816648051875443,0.2654127297031789,-1.8003912824020973,-0.20763249801336553,-0.28861931253921547,-0.9400037343136961
,-1.2080305036432872,0.16028100164445258,-0.20931630068526944,-7.48053718208784,0.5417427873082244,1.2776408963521728,0.10598113410188213,-1.5426217746230095,-1.1927341897819048,-0.44453132785251775,-0.8092550687965256,-0.3914572139437072,1.2752389401488533,-0.1367966658818153
,-1.3785005541224686,0.7695669366798008,-0.33031299112734575,-28.48245833463709,-0.38481067576591527,0.2947878627181411,0.13515020151884805,-1.7534604841134083,-2.3663690412377747,-1.7111373491594881,-0.811015407765604,-0.06258932949442281,4.423273451820737,-0.06773207512492836
,-0.29882756122441523,0.19265965003305605,0.06087971963760215,-30.74520744719081,-0.328888562694582,-0.0541237226332523,0.14317217534304047,-0.5678475913677072,-1.5222810036550474,-1.6861293509234871,-1.8298048725143647,-0.08857342024473297,4.205091921020894,-0.13358596272994924
,-0.4665194355927411,0.318498831223536,-0.3258888606367714,-22.46052630561077,-0.4984657544793594,-0.3090980374958261,-0.2985925547601183,-0.4543367964273115,-1.594312402628548,-1.3113360254993944,-2.243248896829774,-0.30580047746336875,3.0677480896315164,-0.0651263741233065
,-1.1111586283670276,0.3891843702461716,-0.3301491828327656,-27.04178266310619,-0.7366396317817674,-0.7563429882401236,-1.063874151070844,-0.338320286612554,-1.4061387222905768,-2.0459551579761066,-1.5383268635635954,-0.015756048310587596,7.6206845358823,-0.16154150834176795
,-1.0263290489908785,0.3302161622825714,-0.298756521571649,-8.924237977185458,-0.20848222919976675,-0.39011821827961496,2.573028709927551,-0.9218198187701561,-0.8704271786232071,-0.6128007197178319,1.0216117366724027,0.29299324062788495,2.954263097443113,0.403450907085891
,0.12609719737913094,0.41257698949313726,-0.4052550040140674,15.458308084899075,0.011538859983774657,-0.277063866979538,1.957344976174346,0.3668100249062646,1.3445223580886065,2.296535847484744,1.3083684864762435,0.46006716069103604,-1.9131997459451604,0.1859578283190012
,0.577174883691651,-0.08417857351668755,-0.5957395986101266,12.690373381026863,0.7792628656318242,-0.9105722632623703,6.393767040768435,1.925013400563269,2.2805655683562733,1.1971202329092596,1.9123778346664915,0.6364409682423403,-1.7465547907179482,-0.17366663106033695
,0.7333947872331142,-0.4223310826097717,-0.2857036882871823,10.463495171991537,1.0156112088070606,-0.7993277026766908,1.0667520066409182,0.14781333996768906,1.129112098680977,0.07388478645665485,0.08245074356861103,-0.611505107990763,-1.9951638033900008,-0.6434970043478953
,0.3618811125039377,-0.8787817092062835,0.48006796645714894,12.414003017094453,0.9666660137349169,-0.6536082959906374,-2.286445757745377,-0.09603801046419393,2.2521264898120372,0.7378290598224804,0.9651454347104379,-0.6205974304502438,-1.5664555810672325,0.12847140312080718
,0.1247002583544551,-0.3117134211129238,0.30526506914644214,2.494982368279151,0.7348862111692838,-0.4024249796737264,-2.3212997948309484,-0.757118759918949,1.1620524609911822,-0.002861854081940071,0.6847220697117453,0.8053492054651555,0.7647768873047067,0.014454286363796464
,0.6461663910151928,0.09561157752202586,0.23548852093833758,10.817736253348718,0.16528014169974867,0.1679224245188697,-1.1751967429325123,-0.8254095330993366,-0.29988950085542393,-0.06956221474919193,1.0255682251770823,0.7563141677948017,1.4428654848754827,-0.6303193674335986
,1.322831233574634,-0.20361183955375864,-0.011712370560344547,17.441019679657376,0.32476272027113157,1.0377471527882667,-0.3774917619936061,0.9310009100517496,0.13411741023832913,0.6355254717680872,0.44568605200869477,0.329097750454551,-3.4803987457684613,0.6490936764191774
,1.306764402352356,-0.4532014101458835,0.25836309455508166,39.34989004039801,0.3714536926887327,2.035899401160791,-1.012930187620915,1.4874077299466373,0.17774180067368983,0.5813048130692888,0.8337190617831377,-0.4253911957966795,-1.1949183164464992,0.7019166699093734
,0.7863219300863333,-0.5758482940410278,0.3517419801251372,30.366079122588687,0.8292404755446952,0.17268862770218044,0.8279441535988857,-0.3203848365264455,-0.2840161523444315,-0.194875751379349,0.7776771044941491,0.2919799963118082,-3.9982514461147813,0.010030486550182668
,-0.9069582229220375,-0.20852727257372206,0.1621902836082213,5.817935662173555,-0.2871139072947338,-0.8705008504218839,-2.0441981395757614,-0.522495293564489,-0.5332175954939202,0.6890742120837619,1.3275091612432015,-0.1257975373444806,-3.310181373763906,0.5619020689130427
,-1.9636522375287482,0.8023289919734656,-0.1651683587580262,-11.694782229020722,-0.6281347420787315,-1.9528381605462248,-4.655461077702334,-0.38506567362486305,-0.23876617368937017,-0.1346924394318746,0.2697693606792377,-0.30310316131902487,-2.4647761404179405,0.8935620578318568
R,-0.8973714677322842,0.8211370270391959,-0.4345477110409412,-6.472171243243325,-0.7663300583364984,-2.2002754053602076,-2.180871429976498,0.08529621606545615,-0.9344340745278052,0.47875374693414685,-0.2403965482873975,-0.5021110243726256,-0.3989474999116475,1.1089487646881628
,0.03923257338033864,0.503602686802788,-0.17353593138787898,-35.10717884200687,-2.252372876541208,-1.200497678091315,0.9595934642969548,-1.3914691530345284,-1.8347607216423694,-0.21055412279921104,-2.7139782530037264,-0.029371318678519897,4.538641724937589,0.9223448786987211
,-0.9210291159033152,0.5099310040966678,-0.4722359456358062,-43.6191093816144,-2.144448356165561,-1.5682193360798748,-3.606103061524774,-0.9900607657682338,-1.172572885267478,-0.4155154675544396,-2.4418803442464143,-0.2912793192541899,4.307601009254401,-0.7987123262425629
,-1.1563830465863687,0.22630535903794313,-0.32675443923329583,-11.868873554133136,-1.7307871159080077,-1.8634964224383275,-2.918169140902532,0.2776456969755138,0.6718724842682248,1.3437343632885215,0.8746361757712978,-0.4121415355104382,-3.844504568391293,0.3758432384021999
,-0.5269579257403133,-0.24768392547963144,-0.017831356430377133,3.201702433651357,-0.8165719928579732,-1.6373529032366851,-2.834807848137372,-0.4063293336470887,0.07712732078427981,-0.37903613257391916,-0.10353960427549894,-0.37731844619938293,-3.343334861436249,0.14221668684725136
,0.7361462839058733,-0.8707010153915171,-0.043622080510354856,-9.848421322171774,-0.6603779621162561,-1.3978047553008326,-1.3115735547788683,-1.507006005629918,-1.3948217999812942,-1.0337038025480618,-0.4302881602423786,0.5980979282279053,0.32247883390891985,-0.5864909849454888
,-0.31581290072416124,-0.4368189786721532,-0.10908317911840205,7.8619296363785445,-0.9852953026096603,-0.5389585568402454,1.4068921323988652,-0.696142433188238,-1.1744044172155261,0.5500168692742708,1.643503876958383,0.5394005540414214,1.324281278212486,-0.35127822039354306
,0.09287588876313069,-0.8535227576128175,-0.18837823215661595,13.044436754569604,0.16010145633125264,-0.42493111443805465,-3.6811878421292787,-0.4738620473643456,-0.612165942210206,0.07463234793926533,0.8891538006046952,-0.1559835748145031,-1.1242852456028452,-0.41568029989072797
,1.377529423505162,-1.8197960334848362,-0.24176135533041257,-4.898502652681815,-0.5843290275492202,0.34450957430931844,-1.380750367496751,-0.5337369433615236,-1.0790310709253652,0.6542226718182819,0.07861610483630901,-0.4146501662056754,-3.393475042163168,-1.5591056722488836
,0.22685538125169116,-2.082674349694306,-0.38250105208105983,3.2144094894575663,0.6359029283068036,0.5406913840732204,0.08649686958673208,-0.2625274301505819,-0.4242707450672391,1.5079956101979803,-0.25131640642331576,0.2202635179895757,-3.48650334200536,-1.2199716661592237
,0.3205260072232943,-2.010974197849029,-0.2306805759941081,18.850324112348055,0.7021380828197025,0.9245575644769518,1.9080747054961222,-0.3372924687159675,-0.36887570541659387,1.0050837994003057,-0.017259843869257996,0.5170162965327085,-6.885689671634821,-1.5800773163498003
,1.8769018151961125,-1.616938437267211,-0.08113463599792542,21.1114203470784,-0.0882346003820473,0.37707980291091675,0.10315859678409965,0.7790539511491616,-0.7675287173609693,1.459055866422524,0.1119427553509213,1.164543938755272,-9.636703736673976,-2.5854987651281958
,2.073077217761431,-1.068107499388438,-0.1563518697383162,5.474011754312605,0.23693128912411068,0.15184658312688112,-0.1956250961686931,0.5148084856063221,-1.3274960265852715,-0.16866398940907495,1.0844214205125038,0.6508125209402705,-6.374304237462722,-2.1829954841486567
,1.3478377244940463,-0.19931690057045165,0.060916601970459096,-10.331200110822557,-0.4523921453562827,-0.2330008674298785,1.9918829247901755,-0.11004156508387798,-0.8830155351302735,0.17150469807724633,1.7393330961323161,-0.5092656532311443,-4.710470083626646,-1.415875344498152
,1.2134262559695728,-0.7378129968940037,-0.2896605891305885,1.2908347874180146,-1.0844193772897215,-1.0646627648819582,-0.035387147412252996,-0.7407738858520625,-0.8849189134555943,2.307805275767662,0.01944596406100192,0.02960252064939754,-3.383205331605167,-1.7107386776485973
,1.9496423904463844,-0.9907906937981429,0.03206665094045894,21.044980085318482,-0.907194067231674,-1.5905371357629499,-6.451111998907043,-0.7156399121075272,-1.1919767043308065,2.2105218874591817,-0.8161822571708779,0.4438461168260983,-2.069065796222918,-0.5429957362826292
,-0.06954205626189044,0.19342370663204841,0.03264995516891035,11.896165752393012,0.09872833841693127,-1.0836090086372425,-5.0824350168388035,-0.6027732379864943,-1.4207845618434103,0.08245415607175988,-2.2602383257994436,0.8064619232376642,3.0677687674098686,-0.41264813651462773
,-1.2208434130863042,0.6854745743542441,-1.4850039062734781,-10.784691455911762,-0.41278624927663804,0.16973148256308646,-2.1586442921460973,-1.6103201440095005,-2.181172475917178,-2.0329402738788462,-3.2458429494667356,0.32129511773975017,8.183030610103847,-0.9623871792015243
,-0.9605880756730371,0.29816886399359016,-1.9110721077337272,-12.38427910730698,0.5313889199532741,0.9971520858907794,-1.1763612770588245,-1.9543916547012912,-2.4868003367567937,-1.958802975436756,-0.7957560591938796,0.34832594244827364,2.8473725516774,-0.7227849557735436
,0.3411388681095628,-0.24239639854235856,-0.9049865732676798,2.4104654371057403,-1.5924261753692996,-1.0592223907084573,-2.7301053938028015,-1.334167758020164,-0.8144460559477192,0.19313624192209125,0.2621546606721399,0.08102312118518509,-6.337692561830382,-0.9401997735019818
,-0.5552823353226771,-0.9035255097190662,-0.660291009394222,-1.4646577452160712,-2.1393989518871224,-1.7077689171826336,-3.002327731570846,-0.6781639792438103,-1.2479410874762011,-0.6331213424817997,0.4184833048802832,-0.8316577642399908,-5.4129972953667655,-1.0684506740214055
,-0.5348957227710627,-0.9704085843798088,-0.24913811886786322,19.761305955841134,0.02288968300918786,0.30890761853375504,4.735192892831517,-0.6277717666283359,-2.1506478593963547,-1.7753986178904886,0.900740175112362,0.8540264674008985,-3.3993693074767055,-1.2440383411188591
,-1.3853609455560854,-0.367837226397215,-0.3427285220171083,1.9557778494755202,0.3065207252059415,0.5493832581364049,4.0416666898700235,-1.6949838061801887,-2.714381543231273,-1.7162206505035855,1.3783144803474605,1.1301837678932625,-4.954359043054844,-0.6991355768431236
,-0.3201025476585167,0.033670332169353306,-0.3170344412546455,-2.736986228264649,0.20616877272008227,0.5226945952949665,1.8688802861297513,-0.44312232141997265,-0.8189304322256024,0.05002370159804264,0.6900731375370353,-0.1306767580180744,1.077285440863401,-0.977097678606004
,-0.007780656510340432,0.16972797074950158,-0.32754678621564615,-18.185639646267038,-1.0244043205316606,-1.2920507716935858,-2.262208529792592,-0.2575976251229997,-0.052268390838487014,-0.250589360267011,-0.04499111137787955,-0.19063569084449652,1.8655107447301498,-0.13859024674083226
,-0.08454432083282212,-0.22819934194665115,-0.5912171650210688,-23.630848021492955,-1.3559201313652858,-1.882954303953158,-5.633323825999651,-2.7537248931546103,0.702298851375612,1.0628749730530416,-0.267681434763697,-0.1507490335486342,0.35190118694042893,0.30676362270130053
,-0.9239061129659207,-0.4061780581082461,-0.7741957833029111,-10.251962897166635,-1.3180324833857158,-2.0334265989822704,-5.7215567707172115,-3.094134346862943,-0.9907470219527894,0.2090094425850233,-0.40519700558377203,0.11029883087723828,-0.24140232101283643,-0.27775486100026364
,-0.8356894904088074,-0.17556453606670994,-0.500219950201916,9.402509937843762,-1.5595790457478662,-1.5528775848552931,-2.8935595925654276,-1.6728291345776771,-0.5385182375461356,0.22464735542135894,-0.39606081464110016,0.046006151968808556,-0.14857440241492656,-0.39126306573755465
,-0.027446670168735907,-0.42320508396804163,-0.22971124327952544,24.768873915810566,-0.015958858863975436,0.558703396449556,-2.6865611633047823,-0.848387324298394,0.7408426712145886,0.32537994028615796,1.2264412092320278,-0.10382747569687603,0.506934443768528,-0.5345173793381953
,0.8686062553468911,-0.4486247079033213,-0.09666902452657292,22.758273476500435,0.6978411867960005,0.8764577179602838,0.5874492484765276,0.01884964074754485,1.134779627879014,1.5630857387437005,-0.2958107386270055,-0.05362429819746333,-1.8832317459515646,-0.7419437639987263
,0.1215690480617681,-0.28721271351292244,-0.0807004247827802,27.127736486891237,1.2636975272485977,-0.20007266213216196,-0.582073408382346,-2.5733120772509404,-1.004151982396386,0.49884108513378483,-0.8261225161910811,-0.09289666680898716,0.009674152049292655,-0.6982235987620385
,-0.5060256709641928,-0.24834847003160318,-0.5268344139180018,38.165363599485595,1.5809581425400117,-0.9437003395003603,-4.0845925457606835,-3.3233824702596726,-2.515175590591131,-1.7347097516586445,-1.0443914981466043,-0.015479374063095996,1.8530557964479828,-0.5345463401962445
,-0.3159998091895651,-0.7574719116491175,-0.7887101208160138,15.878042707739382,0.802810849832114,-0.22427119180913804,-1.756814243764173,-1.2500582668268199,-1.6529467588116489,-1.6535952534654892,-0.8687645810992608,-0.07022465097491772,1.8078986341053398,0.14363770131210407
,-0.36584173329167546,-0.43773412040565635,-0.1849422876588209,4.313064525555378,0.4141752762933987,-1.0197135851006232,-1.9734368895542598,0.4941268127920375,0.9953517978942781,-0.6766591954536353,0.3769961902621211,-0.6563202728127698,1.9909915462846923,0.39410453436309567
,-0.3303742380361854,-0.8244299574969562,-0.5009153928759364,20.7176694529517,0.47435881908250743,-0.9340076371479253,-0.02866812579045065,-0.36820978933052256,1.5359168359216968,0.7645456600080958,1.289062791635899,-0.12435708596913879,1.213498117902813,-0.2618750607874601
,0.1870734635074118,-1.1193964234382847,-0.6422019338538842,10.422297981580943,-0.9269942368999411,-1.0587966815737346,-3.813940268519672,0.1392533712582447,2.4838108534590067,1.0339782489584233,0.8586912033204065,-0.8378547667033559,0.7836301829393728,-0.8924400082158792
,0.08120736472350806,-0.715381399894421,-0.5898779061457026,7.093339946408815,-1.0459198195550616,-1.3031436412170265,-4.23908397672524,0.618891678886099,0.5096981470391876,-0.7099979548628133,1.9029911636051267,-0.5144703628788051,-0.921535057897684,-0.4740103129792009
,1.0014010566738292,-0.6188147817541757,-0.4775694344757248,18.80688614304364,-0.39633165504920126,-0.6168581640487706,-0.7325961484622846,-0.14175602102963777,-0.35792527430675986,-0.9785776361204463,2.2676889959038764,0.36777867010416565,-2.7289587350918327,-0.745498169940574
,1.073737836435862,-0.6185646364431872,-0.25883431644675603,24.984469050778934,-0.8157994666215563,-1.4131585739642478,-1.9005096454889956,-0.7602444004470112,-0.7826732878067248,0.6451365654577778,1.2754457043866396,-0.14742361757240638,-0.6208302320711412,-0.6320246019513117
,0.5217678328639707,-0.474052622665768,-0.41052300040524503,19.014457159574775,-1.0378729271893612,-0.3810401421709821,-2.0273517449998826,-0.6926964741763256,-0.4551644044664049,1.6855482090405234,2.382824475432331,-0.15150772305545177,-0.30022175452704464,-0.22865711661446908
,0.6522549689705768,-0.5371299049759943,-0.19605984530137938,0.9384166302201046,0.16903343768449974,0.6704215691185482,1.4059055084158767,0.19242076218285267,-0.10176505001436813,1.9184479339492768,0.24148774098600684,0.6184180599419566,1.549800286823629,-0.18791307287050918
,-0.23125671807418405,0.012105603989778767,-0.054652853025059976,-6.8907793805485555,0.5351907527761005,0.39177267157588735,5.2707743208756055,0.3704543310136379,0.4579110232267118,1.5510359460661736,-3.3441698205397836,1.3206138669858927,7.460633347489096,-0.23869330791052137
,0.6543386054219964,0.16408858416658745,0.23902158977305885,10.287115932852709,-0.6622230918183135,-0.41999757970652496,4.878806318527359,0.6371664815963017,0.46183816984465437,1.194009484818503,-3.843231631324257,0.10625406472822391,8.142142221267491,-0.9426207370237198
,0.48244879103559357,-0.4111467301580652,0.0199061109112392,-1.9320602142830814,-1.101981996570193,0.5545878106836445,6.563083031585803,-0.46007240281881795,-0.58595521838835,-0.055322392159906385,-1.00961540053642,0.21036223177895563,2.0542759923976233,-0.6032414263765886
,0.04625702147308881,0.1381133367187724,0.2534617043075448,-18.94430191787254,-1.0416786530126976,0.6620977543693687,3.2670630021547105,0.176679942678428,-0.20490685497681763,-0.21077568144684442,-0.15926818107301838,1.1217155849113862,3.9984196792962496,-0.622711969052763
,0.24546034225088484,0.36879493528215784,0.14064796018445272,-9.784341432868343,-1.398333341755933,0.5504003863439558,-2.210968440710763,0.6913129029110675,0.13857960604337385,-0.1601056240288061,-1.9628797708184034,1.4566845814738028,4.390085207168874,-0.5043292275124238
,0.016032883588965645,-0.40336055537713383,0.3280368219213952,-6.6692173176382745,-0.8048999632011088,0.2469044976444591,0.06704179909428938,-0.6091081495120132,-0.4617508070155736,1.1476433168646012,-1.368732336743185,1.9073825095140708,4.857488289989099,-0.4260982298248149
,0.1817016943220366,-0.46348575020628197,0.3163854457930135,-11.63698773746881,-0.037690629813831714,-0.14499272716415135,2.1113845852756548,-1.194670620260186,-1.1390991453132564,1.035587264229509,-0.15786876317942883,0.5997408870164154,-0.6132229246024931,-0.48919058558628914
,0.144629601861447,-0.43844220117287014,0.37389790338663575,-15.947010325957395,0.23841351532438645,1.1510360655391871,1.4747856121389595,-0.25338449653233247,-0.5069188732499659,0.6177714167634033,-0.7492475098917487,0.3041676366083711,-5.97971242705017,-0.6755651442723019
,-0.33970656185319886,-0.7848859447515373,-0.16167885890871478,-15.593209245884989,0.1557206676217296,-0.2873493041275323,-0.9776824503474633,0.014577816573835506,-0.4751712417853978,1.0313446300485962,-0.22893446991504407,0.289443190647688,-1.8599638281115591,-0.33028093882333315
,-0.08914282375840524,0.6138743320752903,-0.16357207234523893,-12.72648417490569,-1.2514593565506524,-1.9760959166035945,-2.447296760784589,-1.4372032286808478,-0.5858384422356974,-0.49593491449034893,-1.2342491749902391,-0.018205221181663636,-0.6766260641145687,-0.34434178995838066
,-0.5526851422296845,0.8840791670060355,-0.4060766990568878,-30.44418186448492,-1.9865909129412185,-1.8679040390787918,-0.0035696892395607636,-0.9461574112183037,-0.28494585158220365,-0.5716499756108924,-2.0336023628562883,0.17666968470322034,-0.8030095736497573,-0.9656730673703702
,-0.5807570234679981,0.4123698030207896,-0.09990709002240168,-20.731208445038618,-1.3281028076458798,-1.7280283448420806,-1.3055960707251701,1.6102048184540796,0.16755924417111354,-0.5191531294501514,-0.7160765781543385,0.374982921197459,-0.5375687196439921,-0.03314843529818849
,-1.6745453442480613,0.44263392062825735,0.24748917803556747,-10.203492286901872,-0.957773258524691,-1.9466194124498688,-2.677966927508928,0.24132592696273478,0.0018436338907105382,-1.1145602218452184,0.3829040622619911,0.5722492078004193,2.658395882863227,0.8855808464359355
,-0.8936344150286881,-0.7642497520741324,-0.007703070494186465,-2.903784578403117,-0.532714112921376,-1.2760162439042264,-1.2881558979986338,-1.7676105358120726,0.23034834518685368,-0.4827230580582465,0.6625520168899386,0.65491373604075,2.817148167794187,0.45520874986600973
,-0.7740422579525436,-1.226916368010313,-0.38039251409726477,12.117691508201478,0.7030590287085763,0.13646248052444512,1.4934031259807403,-0.8685546858962889,-0.7349868231982345,-0.03519935400471327,-0.22144723643458303,-0.09541728775124313,0.25963426166611014,-0.20834824792355264
,-1.0263405453115755,-0.557713418715411,-0.47823937692886825,5.328207762167571,-0.3973246579227165,-0.8446579940679716,-3.7506176900062314,-0.44592849041628563,-0.22507465259727863,0.1334776506641069,1.3718761374407544,0.016024453967965462,0.17657459300841627,0.1670568298783848
,0.42846050784795525,-0.5547132389098878,0.5098058789049513,3.8160423102274,-0.4572004720269571,0.512906308048422,-2.523521769946043,-0.16752300583879548,0.7369610587927276,0.5873315994619884,2.029755729669341,0.7900420675286096,-3.7042945489316494,-0.5783045082696783
,-0.7079441653649046,-0.46516385334364146,0.10747703776012822,5.271427356080558,0.11915340305761485,-0.12978637071235546,-3.673004279881279,0.6241363642251188,1.6758343520140484,0.5652047180149209,0.9035976121156969,0.49742765005900985,-1.1004186368400999,-0.35915932265626643
,-0.7582619804324107,-0.1064441893402547,0.15620086980995562,2.680883892459094,-1.1115796925775676,-1.862029352360959,-5.373743092029716,0.222580829072832,2.618050486349903,0.20287071150432115,-0.9657446072685538,1.199214765430786,3.146114598566744,-0.5750604329056742
,0.16586083826150394,-0.4180037509856283,0.31543327802312854,5.264173757796465,-1.0291649419085236,-1.3628290395030291,-2.356587900330087,0.14061195223376757,2.1044272567783504,2.127465253066486,0.056343416264218474,0.5195741885991907,-1.6802902733231064,-0.855345957112639
,0.2898093474554732,-0.7255050761706793,0.5356994297839321,-14.001852185805943,-0.376604404615932,-0.7633303582460889,-0.21682958683289738,-0.0310844570839924,0.9861590910568604,2.709980812744089,2.571159360062936,0.0075006235663986585,-2.694735103812755,0.23535269150468832
,0.3606574268890897,-0.16839728248988495,1.724571859363442,-4.444805858318978,-0.07858748263605078,0.15340477591011575,1.411460530350185,1.5812222050122229,1.508145856963918,1.3015588809256835,1.8742754327905329,1.173428955362457,-5.270205062502321,0.28952281167764865
,0.7152046886506978,-0.40572645792339507,1.0929800427716343,34.61376916204484,-0.4372371485500663,1.2936477593808178,6.536773761015949,0.683396758956673,2.092311530940933,1.672829645548928,0.9309870902696566,1.4595664075238972,-5.440322561600779,-0.27267475666408514
,0.658541624292058,-0.4116256194660867,0.30561177283975055,16.68528019374602,-0.14480246278751105,0.8133806742552813,1.3749420031680453,0.4937818153851608,1.8995050809798253,3.5759298595830717,1.1084162669896396,1.211176006780806,-0.4451192944660512,-1.3729331831688216
,0.3571746002790746,0.020358915095777114,0.13197012783904624,-0.6974186012040905,0.3092077788308779,-0.2392589321885583,-2.6886526423973116,1.5660051657172225,0.8586396891838496,0.3085913855820842,0.057699674422297224,1.0560192323699134,-1.8449566700633862,-1.1289295555235261
,-0.38142783519827733,0.5447453393904568,-0.645622652309346,-24.632030980099177,-0.06484994231252403,-0.10008111112510369,-1.1875212196099458,-0.3624160837778098,-2.2280375609241005,-2.15872133629403,-1.0205654293466246,1.3808699298220093,-0.39327068600429543,-0.9870898101684391
,-0.11100869089178438,0.9075344920959457,-0.4633957843655743,-27.601595046758113,-0.45526694555779884,-2.333362770575765,-0.9150820873351054,-0.6004426812694451,-2.373815468492977,-2.165362878770806,-1.8523067890870333,0.5220891305840462,1.8124030836038212,-1.1670796338137275
,-1.3251151935192396,0.8672121202727858,-0.43070451303789475,-21.42588880193204,-0.7739365218169204,-3.2577178618194247,-2.005745554508443,-1.9319749243567093,-1.8009317876298414,-0.3078356782898042,-1.2035564903918916,-0.5811028767813301,2.534143380453316,-0.1210935886750444
,-1.8122235022840678,0.3977998848312667,-0.5009628685805894,-15.378036282510008,-1.6610636208678162,-3.557015899154673,-3.892859089912461,-1.1683952591881772,-1.2237948570470174,0.5204401147799352,-0.40637198951224773,-0.4065213212657718,1.4046153467392983,0.3296900213264137
,-0.4182487306976481,0.7999634397621703,0.48340758004383294,-21.96627556235461,-1.6620559290018107,-2.5215802025048815,-2.2250410631546877,1.1469744849112586,1.0104126031212253,0.0670493038868707,0.6288298109443746,1.5853114221585591,2.672206111513325,-0.21107421133624207
,0.7112835010786206,0.29252061254152334,0.10390406414017418,-6.848546680613085,-2.5204750251910375,-2.9043422818873252,-0.7795972865116486,0.4948332763363755,0.5280054659050699,0.04856583699960809,0.35801530492674105,1.0943972749381852,3.9696253824174383,-0.9974545837962046
,0.035629466448440256,-0.3930837680910748,-0.12933908502852312,-7.566676414857398,-2.4533788738998776,-3.404360063511252,1.5764784777566687,-0.4202200326386609,-0.5889190382639998,0.4142080116351246,-1.0470785447998812,0.4216949753914341,5.032411114761368,-2.4348667396439114
,0.6877571867016716,-0.028164322558505463,-0.11369382606256544,5.5696060956777895,-0.8598355858385002,-2.2031982864172166,0.3382088215853435,-1.4238928160026088,-2.8669543855856805,-1.602766624447871,-0.4002896940157661,0.20979945822624582,4.086412256751514,-1.4944454131860851
,0.7767489550665386,-0.6745452927510509,0.1642588767089839,-6.999458175681249,0.6942783557010291,-3.0373706851124833,0.5307401270327083,-1.2628366024889948,-1.86877444168446,-1.1683270108687327,0.3885695497440483,1.2114100680797744,1.5651844047741579,-1.035190087900309
,0.9874206637313372,-0.4754264546477178,0.5439968418156731,-9.358728342579699,0.12769122786714035,-3.225221840457131,2.6203578135311063,0.41782335159927175,-0.26497686012656424,0.5799268806983096,0.9251674431645629,1.4157846184660692,-0.445284383001026,-1.2054624448768299
,1.3896030675090518,-0.1971528974083261,0.013127402917080274,3.380601078645295,-1.1263679947947272,-2.381748853958036,-1.505814437110545,0.9373593482676721,0.8592140565165639,0.6256712984963175,0.17696447486898756,1.6660099309560328,2.498517000206739,-1.3671684915663158
,0.9983004540077018,0.07265657359932162,0.06459478770918861,-10.292479453514659,-1.2186238319657836,-1.937510332973469,1.4870331495131244,2.0396594645475594,0.8824007277886785,1.1062184414321543,-1.5948454491072306,1.4442147345642413,3.790642107950319,-1.767237191820007
,0.537180426116539,0.029823028068972954,0.41820386302561946,-15.186349901255214,-1.4747420742329687,-1.8986699925324069,6.35258965140787,1.8712224859326223,1.9896808308836695,1.422186429279567,-1.544307614243257,1.4784095045751828,2.674612181509399,-1.570812203637954
,0.4847257704553015,-0.5068908991724499,0.3142962770150601,-3.0840730397130205,-0.873068727789927,-0.30974395357336715,4.1034529679091465,0.2487919185874171,1.1729618568302422,-1.949505958132879,-0.36423367405284235,2.2530476578053737,1.634175232609787,-1.1610496101916385
,-0.4352524008427738,-0.34722776918673404,0.09468724073700277,-5.410251825006587,-0.15457550109126392,-0.38615910931682124,-1.8376315155868932,-0.3286127634021495,0.8677293733808719,-3.0651248069840094,-0.9808243781937103,1.429477712782197,5.396845546400821,-1.1090050060990901
,-1.3571740876434624,0.7286493634827257,-0.136962683257592,11.227578967307359,-0.3572024697548906,-0.7649035675133279,-2.2723333090660285,-0.27301319621239434,-0.43070521782517074,-1.1509458217487822,-0.4899340992475588,0.13628185828271752,4.482408383170174,-0.7790373020401882
,-1.1994603241901098,0.48888125807356597,-0.22964945624206767,-1.8486413249432434,0.09999813592954893,0.10724092304103042,-1.9047617911312196,-1.6792605784697658,-1.2271551098984617,-1.8639982291879418,0.7939031979662288,0.21953422798235714,-0.28853512652810814,-1.2216156286440925
,-0.9142669095298053,0.5711572990017666,-0.37942160145808,-20.92156099563555,0.3474282386920746,1.792768852560965,0.1395381192715065,-2.2560880252704916,-1.557233416636994,-1.9311054666735652,-0.4920543558044462,0.2954684695806619,3.612445280749588,-0.469695660300747
,-1.0863258263081699,0.7992333073406472,-0.5602899342278658,-17.189119932087117,-1.0858291732154879,0.05398775207321645,1.4820394178945373,-1.1694092367247881,-0.8924524373879971,-2.1990767396385698,-0.9666330570778355,0.20658491787691724,2.3754794586030346,0.4002477905205112
,-1.4565330109969108,0.610758456537144,-0.4054693462088081,-20.764238944004358,-1.2969231675098283,-0.6547946841937067,2.242638737877931,-1.289450432254594,-1.0294957718973783,-1.8625895276608593,0.6665491934049014,-0.30743111533893847,-3.9924367558118803,0.4441785438313147
,-1.1229111130134555,0.48755426469736546,-0.38976561702834456,-22.87574805084397,-0.8176128303361434,-0.14420984844623938,0.21678135003207755,-2.8713988144199156,-2.023846643581294,-1.5396027205357252,-0.1326021394745541,0.20501551021194464,-4.185747262890365,-0.2511345984890855
,-0.40329673396538257,0.2732231604123997,-0.32401553130891037,-11.9760152054596,-0.06440747760290826,1.748154761180539,0.37585574586423476,-2.834969536251763,-1.9782400388712555,-1.4664663791033605,0.2462883356070028,1.248793585184936,3.8791759620402875,-0.3063141111315151
,-0.6592367574103565,-0.02977991989589122,-0.3636143934126941,-5.7881732703579205,-0.8024883695028677,0.2944896059952128,-0.4723458100308387,-1.0125757595292002,-1.8258391974551218,-2.0048565247689027,-1.3362327788393014,0.31289044491062556,4.838386364367153,-0.23429542606038814
,0.1507187700110664,-0.5468660372863723,-0.02204303962916274,-14.279568010386454,-1.7152548028652221,-1.8496312330451157,-2.851060005091187,-1.2434955983045768,-2.557898714286162,-1.7692133809660069,-1.5501515951454572,0.05644229117362347,1.7850643265074913,-0.714034845696066
,0.017591431218181425,-0.6056233416411875,-0.1668826489205178,-2.069886063405451,-1.3102515617747075,-2.7334125486814393,-4.641019020914116,0.7098073362429898,-0.7408855144506302,-0.35614535240444006,0.6853904926997346,-0.6792322205426307,-0.6418490969846778,-0.3675309878889693
,-0.9583634261722087,-0.23250036214686315,-0.09267602626708855,-5.889279504673813,-0.10821215741187246,-1.7208461127832682,-1.8897347589194529,1.7401361357622323,-0.2390938111569589,-0.8111234619673591,2.268204304674737,-0.13114314606503807,-0.6092825782226704,-0.1792013148379849
,-0.5732340135311842,-0.7905389963162672,-0.20861599051178115,-7.614505080055147,0.43504480950510693,-0.09075543525601841,-0.621436994622349,0.5291757930939281,0.5328035499772651,0.5909222888855106,3.3221016515915003,0.3656260718413141,-2.398245631466935,-0.6558234000846608
,-0.735269707399893,-0.6465284530789119,-0.3973578937059482,-2.2828158043531843,1.0310304568851179,-0.20751910641153687,-1.1102803833942987,0.1558847300432485,-0.3142776905460864,0.4506153990463826,4.3909495199455755,0.6798569064373219,-4.328685232263218,-0.3502593532687743
,-1.0902549129316979,-0.8272492748426075,-0.1648719364310296,14.278635888454374,-0.7216713322162673,0.006478252203327823,-0.46954725380163387,-1.3965436941621414,-1.963352833846895,-1.0041513145392846,3.082712400343744,0.8308357457725826,-2.884897642821764,0.8473270720813803
,-1.3059610822704144,-0.6841257912317057,-0.35497189832745757,-7.153510627006221,-0.3897517062729469,-0.6474714173151565,-1.1812716322555246,-0.3528657452653242,-0.8593979768624331,-1.1894700299232754,1.5410879222072043,-0.27639365284755507,-3.1752689068535616,0.8216131280347031
,-1.5312820225237989,-0.4174641366233379,-0.4652428421090602,-4.144651290522849,-0.6099528483808949,-0.6139093828236712,-0.7107692075286718,-1.0662494650533518,-0.6232638973561418,-0.5351870266930848,2.5997357965294428,-0.6191037187255516,-6.251198993694191,0.9361748322254619
,-1.0190802145651965,-0.3749533007034476,-0.4439046366414432,10.365590547186727,-0.8080118802957574,0.3050178008194282,1.6674274927520198,-0.6236375447978088,-0.3928467575264447,0.21828584662656103,1.6430718776879585,0.3120026442090328,-2.0376683269317946,0.6251979380894421
,-0.8452056047600385,-0.29839050420629387,-0.23490491462820126,9.283251184115157,-0.6131543628911205,1.122654416114896,1.0646220204665595,0.5805504778495562,-0.2608285244404318,0.5035827276763258,-0.506783035091431,0.1897996266207376,1.646626337195517,0.8129563830710672
,-1.3075968004666114,-0.681830234638717,-0.280227534560424,-1.8874923905085104,0.6272386205866595,1.647497076159534,0.7445152421814856,-1.2697897386873904,-0.8913627708780346,0.5280361105357642,-0.1308608849178953,1.0222337344274073,1.377078158938586,1.0289671443522996
,-1.9457622805024617,-0.3166425635596605,-0.20398714349815858,-0.5157405692451875,1.0900407012585596,1.2988637303268387,-0.21359283939872334,-2.0497130568670636,-0.48588714015652507,0.041421398581059005,0.2343567858148423,0.9197203878455824,0.12661800425260417,1.2684869962790783
,-1.1260209241362342,0.005155341635176114,-0.08302043500775094,-13.712210895926058,0.6598989199317895,-0.1029979809333855,-0.7905620329091168,-1.285112990203023,0.7310310278659894,-0.27478903522811265,1.2408707612830445,0.35468050486570807,1.6832408062644941,0.9506991679585618
,0.5550284392323576,0.0046455234928481515,-0.08280532068536504,-0.4071757643863734,0.4877138983794232,0.23746714966544172,-1.4359652710046507,1.6790669727467136,0.8896631559313717,-0.5822618471596779,-0.4385280225602439,0.9194130969220987,-2.82224852869792,0.3517390414566627
,-0.8684130540289682,-0.8004985693062902,-0.561291249795885,16.74479031929324,-0.11850305103316508,-0.20955072355819246,-2.79119130807803,0.26180374700893516,0.40173979654107844,0.5894808431314266,0.47397570082209933,0.48719382322694715,-5.624184685041285,0.1776188294107273
,-2.125654970914395,-0.5270625867742751,-0.9635860495445683,-9.858133822601722,-1.8964602707280256,-2.026709525145298,-4.595387437911852,-0.7142948475535779,-0.011579437689719073,2.2559361973375287,0.9508450650002235,-0.7553211682687069,-0.2740895116629324,0.5507084597013202
,-0.7941515983166714,0.1944062124693218,-0.19229360353878808,-10.286736727126414,-1.649113114340349,-0.5565558398794681,-0.7719256310302798,-0.11230990302970419,0.057242129010719234,0.6747654873277069,0.8040724706018644,-0.08084564833333739,-1.6039157414446952,0.14569336277834355
,-0.7547186872508145,-0.051338693449738994,-0.15971146212591836,-0.7545340097355258,-0.889567762164349,-0.6597953426096389,-0.15409944204212633,-0.9557308194623957,-1.4284385056594515,0.28694566066364074,1.1891696403919099,0.0827787033034219,-3.445861367186976,-0.07536410768662113
,-0.6525156606236354,-0.8091208490450368,-0.1642943047826161,13.712798240982519,0.21123907100360617,-0.4900582288018645,-0.44746943943973805,-0.6153072899602331,-0.40641720286892646,0.47561186173792536,1.7768431511796225,0.14800467448948482,-3.8553430801610515,-0.7155484109761756
,-0.14318705974464463,-1.0160221050792142,0.319139580908997,21.89644110286251,0.9037386202860958,1.5474944702471274,2.8922198869639844,0.3907175746927274,1.4166340506422936,0.7427710079756968,2.6486954925518735,1.4995747926516807,-4.036460636442247,-0.585710830114685
,-1.1718095233745602,-1.2064397813182686,0.19745902018071806,7.791873192549557,0.782428537316522,0.11705340059132616,0.8293319750781892,0.8581200915316463,1.3049835977500006,1.539347013811403,0.9752893906693655,0.4790571887290802,0.7883927885902908,0.21303912270109368
,-0.8002728221026124,-1.8557203127474051,0.03977926940868815,11.830904416010764,0.17947649537918925,-0.050138582130729824,0.13319988674916658,-0.21650196170626507,0.20580136722607734,1.3430749286668215,1.4903267782477903,0.8683982623621365,-2.933158317583795,0.10256254246040623
,-0.6315096256879721,-0.952394923465374,-0.2500174298453492,15.886890056446532,-0.44803936688882695,-0.7243482076474742,-0.6489239467042531,0.25549491472424185,0.039168500728909976,0.27018095898721456,1.2854892733139687,0.861855754003897,-5.31234516839504,0.23853951362921935
,-0.2020484742370019,-0.6394536011923353,-0.08873026866136584,14.328536954415172,-0.4249456504568851,-0.17546282474732072,-0.1483249685066498,0.41871824467875807,0.3254494315129444,-0.02577779013676379,0.8014119494434154,0.2499791281479624,-2.983082741331602,-0.32625487762263233
,-1.0206842117841886,-0.6877238217700223,-0.38746924305141434,17.94817993694394,-0.6747714759707198,-0.12734881416017,2.2757930186048716,-1.692928481467825,-1.6081976286108084,0.7924109729286013,0.8490879189724466,0.37160327055722614,-3.3784426493042274,-0.5147229693512828
,-0.77345419263187,0.15830035147005653,-0.31519255136374463,7.359627143423148,-0.6375116106547097,0.6747533506874462,3.5956898415243783,-1.8576149926689685,-1.880776869843283,-0.3464713149151578,1.3578802555121574,0.8403085147267908,-4.578157891758845,-0.38625032185065944
,0.5821174264310033,-0.009895096624805047,0.14401850043901315,25.120770358051733,-0.34879399365061303,1.7968957765847065,2.240411231773322,-0.047493598690136196,1.0812007462194877,-0.5327272357252201,1.0343839881777122,0.7147409927591599,1.0900649032602885,-0.8471058648560168
,-0.015118800925139775,-0.3892945472561023,0.2628763609279559,10.137394070364836,0.04183073661763515,1.2697143646158773,1.6732272923783447,-1.6208399894376064,0.054661364405946065,0.553855377813805,1.5121561744443583,0.9522266618816237,-0.2880936843489659,-0.7140230172933687
,-0.3141319514621014,-0.5045790199050956,0.5090358857103378,5.235205808478441,0.40203143311429795,-0.654093277162753,-1.2215137616082723,-0.16238495087895358,-0.38083181399963356,1.5129467559798428,1.5384925998105834,1.2685397716035258,-2.0396923302535557,-0.61767176211753
,1.1887967524136438,-0.5112597541286795,0.34216496540822394,24.517118706191596,-0.0898034880937106,0.021409884795630142,-0.7702920050567506,-0.2970058970779238,-0.028913002678466585,-0.5365724352867159,0.7260474385533366,0.5617899017971264,1.3098340745337815,-0.7311623807402217
,-0.15242384180716592,-1.1558704813649003,-0.07886976507299485,47.01911294099678,-0.804376348986682,-1.7496300685014003,-1.417734337079727,-0.7366836168047682,-0.8329218858153704,-1.2143052304131208,-0.015882120523027454,-0.24769937214010926,5.1615271068233595,-0.18285489865866353
,-0.5373315184503189,-0.4106044118350526,-0.36187755269757166,17.444668335666222,-1.0118215240833917,-2.7879937116415645,-0.3060306167093333,-1.0316681872356686,-1.632602245215252,-1.0047161610475717,-1.2060436251874747,-0.5672980727375443,5.892732927652281,0.24179614780941028
,-1.5819232011665367,0.6854292980066736,-0.5879411368935621,-3.1193316912424627,-1.1739005575429085,-3.0902925735460434,-4.042743880881794,-1.1127966483122345,-0.546501763365019,-1.1193038358797112,-1.1004742709727313,-0.7946956382510215,4.20703559461985,0.3783128707392721
,-1.0804194660296176,0.42582895372081414,-0.17831845925799883,-3.6022419607662317,-0.03448469476175018,-2.0262155690508625,-4.440395265910252,0.4675019630499878,0.13553199164464333,-0.15307253823601075,-0.964280362551723,-0.013976275209390756,5.1799281160146675,-0.22102906738686567
,0.39597245018947114,-0.14899465199375417,0.004543367607908975,3.893447314091649,0.7107187945205012,0.5481207936925441,1.1547583929405885,-0.7480245241077594,-0.6815990049876917,-0.18158901050446083,0.06168604841144973,1.3202361363487887,1.9283511707958183,-0.6083531362077356
,-0.8238807584499889,-0.05296307759018946,-0.17728424149435112,7.285344347417357,0.8313540047216091,0.26295454678989305,0.15947691997728844,-2.156312889402436,-2.0885646450682,-0.8407088047361652,0.6350959401441815,1.617818558470719,-2.937466884690671,0.6975977123692824
,-0.6136878181570827,0.4469122720251034,-0.3601729573033698,-24.00302358229092,-0.1874222941688584,-1.4167468519148998,0.5268988730861668,-1.5427952055692518,-1.2635555958983467,-0.10826514673320678,-0.06257898507569945,-0.6094045810208221,-3.384965725194659,0.3779270109970407
,0.2696671886908221,0.2623404490315508,-0.29193579914722945,-7.898954001447851,-0.991233419190405,-0.33463276989767976,2.260697810415163,-0.8980596886000917,-0.3913847834894532,0.3556919054015246,-0.7989737656846594,-0.2006014529620402,-3.2351075896781074,-0.023832871370735174
,-0.7750588563631856,0.18301405662391992,0.07252157008649635,-3.308248690389316,-1.7549938795720597,0.002607492931874876,0.3372642288227639,-2.888715109426481,-2.6567943359868997,0.08608729522677169,-0.6092264526647142,1.6147150032964472,0.534094291073292,0.13072125262490478
,-1.321473593601165,-0.2473155493880203,-0.24186558774286526,-19.61541882830748,-1.0969764795928907,-1.0012045914479561,-0.367431090428134,-2.3742032214480058,-1.2796157357399383,1.7431981067697593,0.8720376562556699,1.119647675878188,1.47835650349517,-0.40343862837234734
,-1.0690450301901202,-0.3146086601445053,-0.03158187149934879,-23.500509291323446,-0.47889387709785836,-1.196835158626773,-1.2794129887029835,-1.255530013312068,0.489953209691985,2.2071179068705895,0.8905241202322419,0.6937079144766267,3.1255389067761508,0.25557639828138795
,-0.9340604263086312,-0.7462063511041359,-0.23025451323102755,-17.23597908068243,-0.7303943527572281,-1.3677579996221327,-3.4890261344327467,-0.3916091299347092,-0.31710588588255695,-0.3066022620093774,0.8679527817399557,0.2053955796917203,0.07152640464516122,0.5537015151322199
,-0.6928389289521862,-0.5261173723490747,-0.4750899006446409,-14.763051002019298,-0.10148357635350445,-1.0022935426695072,-2.699239786086842,-0.5179597867131253,-1.0912647235138513,-1.0521113298568836,-0.05270904883556723,0.17764392530929962,-0.42919238639075674,0.39500364626901435
,-0.055357517632644224,-0.6010734547163566,-0.11635686585443288,9.963363531156483,0.46295072999267595,-0.10131958351717751,0.2627352987252241,-0.6663824740055586,-0.17745978577827562,-0.5766738042122426,-0.4553456445786901,0.9523054912345061,-0.7259585803929293,-0.07124578599560996
,1.7632350111854238,-0.13227662798600223,0.034999180750318944,0.3077944688530275,-0.36416960047095126,1.7376202052159069,1.847619476575305,-0.9480581330961899,0.6462572051670117,-1.0669023866920408,-0.12114665711061817,-0.20228076745361173,4.952866672077785,-0.7038426982345031
,1.319661740019833,-0.4277626587580595,0.19430982882414047,0.35467236192530976,-1.1446919272776723,0.6117151249705886,-1.3280217422431349,-0.06330270662265672,0.7638674706850622,-0.7001674179446213,0.7036804252373309,-0.37904457673034825,2.1613363421103515,-0.446868398441553
,0.5089124353963665,-0.6695324296028214,0.22818768176624055,8.346034196561538,-1.2218679127698608,-1.0910725211192873,-2.6642680028014167,-0.513535951993408,-0.5886290342907938,-1.1601679284096669,0.9536405573301934,1.3040709924154532,-1.0931922814692034,-0.2487765518119302
,1.1595658459924365,-0.554773459524752,0.2272901500942316,34.23119549598548,-0.8917560845170279,0.3719607427715967,2.635433322049156,0.14738176531618474,1.3383336570883415,1.7165339171169804,2.6554647688126383,0.8770615088624022,-3.4202489128097144,-0.4925478869165012
,1.0458885735657355,-0.23387883272756155,0.36883771740844584,23.526619576190328,-1.1042577531840247,0.5370023914314848,5.911183011750246,0.11638970870574657,2.2941883780788688,0.40711639744452494,2.7497209631450206,0.9583007100091435,0.06413544606074757,0.2578956244848048
,-0.31803103332351984,-0.680149227509447,0.1199529086277449,9.718206340885395,-1.3484028891161746,0.4487420763096561,5.82576922611049,-0.3016563697374656,0.4956255047046167,0.6308278575276131,2.264335417449345,1.7850891094476606,1.299843219001902,0.6505777011870442
,-0.7586210500111833,-0.9331245033181954,0.13666180366337236,10.296210683155621,-0.7923798801982654,-0.7592226338380123,2.8989876044776577,0.4387496718749896,0.6529293590401667,2.09285090535512,-0.034650374695893243,1.1086043539257568,-2.9960768138213676,0.42734776490148346
,-1.238810400360738,-0.6077241589409048,-0.1143082039240753,1.6042597069149303,-1.0528469588849227,-0.982629803714164,1.1678950681125146,0.24894164939636787,-1.4532523413148604,-1.7186149146564713,0.3017517858454225,1.0303503775471283,-2.1694692755904934,0.4117396310366799
,-1.1753787044626398,-0.6896053970736791,-0.08252397965245505,12.737411219302068,0.14386441784610055,-0.6721499529539915,0.5153646302058427,-0.03595498184868156,-1.9574873267282913,-1.7020873687740066,1.4262185655383943,0.39447394477610814,-2.3176259310941267,0.3754458086528104
,-1.5587783629316556,-1.2899983238911086,-0.16691458865161862,34.7057505033877,0.347058788165641,-0.4335926645641006,0.48113539695093493,-1.616561161920206,-1.2404037523129683,0.6375145784577662,1.4480875419948205,0.5174967981510712,-3.393115046068805,0.7672381740140367
,-0.12644303375100377,-1.318292087241403,0.02727377120042317,17.19210839231682,0.4790991509049859,-0.19921864054704874,-1.9335680985180903,-1.8599476577350533,-1.5996559216310366,0.21013399248143858,2.3535493826792817,1.2438533236361224,-3.448845182559262,-0.33514245182218455
,-0.8625856593871548,-0.65044619262705,-0.4680532235315785,8.071705373566335,1.2511349456454446,-0.3240143814970474,-2.5623613001577072,-0.7683478897048133,-1.4844313533438076,0.28942034089603025,2.4035517545734466,0.34951932692657145,-6.5080488656832305,-0.6216016141404894
,-0.7394397722554829,-0.5761556057871747,-0.07249815461431203,22.09848392391384,0.7060211241826272,0.41089313998126614,0.3286440021191944,-1.0400385883720182,-0.07147871294188206,0.9338136300687109,2.3963924781425465,1.1349436954051342,0.14384265328276968,-0.21515745094321648
,-0.11867515052294665,-0.5094871533926053,0.8046511085674984,16.6788521306573,-0.5286471501740113,2.2650159299812618,2.144309207338611,-1.510828361475306,-0.8914739914907881,-1.6923144893850006,0.8445578390089928,1.1540924872554792,1.2998106146875341,-0.0882266933681468
,-0.050141168414601874,-0.7881074846199112,1.1154911299376553,5.7733176885819955,-0.4332967120459679,1.7921722423995927,4.908518044711327,-0.8503101475179714,-0.9807353218175981,-1.9858238775115682,-0.7767101022404072,1.2279780349637612,-2.5546523452199614,-0.2321475017692706
,-0.09419122052972083,-0.7314311392403192,0.43243422815638954,13.02026006033848,0.20706169481645811,0.8151208069108021,2.9848512754669523,-0.40775547007452684,-0.23319570609944645,-0.6716507846309996,-0.000780218283903947,0.11983956786561828,-3.51786824607408,-0.6969741881280249
,-0.4804389535710239,-0.6184715987445605,0.3414264812985892,21.61292086283814,-0.15948650616499543,-0.6797784594822318,-0.379367211631141,-0.4019517565926979,-0.610892265444656,0.12683344088163254,1.1409106821818213,0.46302752793011404,-0.8476564365585971,-1.0085777788609014
,-0.640125661340296,-0.31471670854737177,0.42031050049853547,1.8938869609463274,-0.212567618615953,-1.079323187581156,-1.1086099152746083,-0.32387564292466636,-0.8077129349261523,0.39921184749278943,1.211844890723671,0.7031184389226701,-2.2394451846504286,-0.3402905651594685
,0.2972461599607616,-0.2752096270312033,-0.23063682216987524,-15.655845805858519,-0.7485516446318703,-0.48706708617242567,2.6115664045129026,0.26636500256697127,-0.5943696594245704,0.07600872438649282,-0.6409755244109192,-0.09386333291955642,-3.023466169752982,-0.670947125328032
,0.8151788688753348,-0.5972535628116035,-0.5849337455324021,-1.1365353026232305,-1.0120373295307399,-0.7985540735221727,1.4872014288618272,-0.5910232419583688,-0.13944474527202058,0.6646752421540705,0.5798594671383477,-0.39701360047965667,-5.162113262263065,-0.007174256776729938
,0.07167401887981015,-0.9037800317998733,-0.43060570583330343,26.933338976089118,-1.0377709883103698,-2.281878351856547,-1.8115867541615782,-2.243681721194905,-1.5873532214602197,0.05766691082906422,1.373415695530697,0.012345131107172023,-3.128901845427563,-0.3496284388501288
,-0.7044100361702755,-1.4551051681852276,-0.4664656058444221,8.04366471774496,0.15808082109973104,-3.3706069803442964,-4.580625904583247,-1.6748587478852923,-2.097302913010096,-1.7145256713568398,0.5870146081192836,-0.3400499149587939,-2.32296542522727,-0.38557266198156015
,-0.44458413396735114,-1.8355761311304903,-0.36163803643269277,-1.8649654925837547,0.7418936696837893,-2.6507727893225206,-0.7942700063513444,-1.4975212171753796,-2.191565976373122,-1.5296873573058414,0.6873781012849913,0.18046749895225964,-0.14290150404190816,0.021767782190708886
,-1.4356623914408244,-0.9731901275213204,-0.4696481475316763,14.73099373471343,-0.10543848190807463,-1.352997325794597,6.117036460383977,-2.2098385500389894,-1.9442980673917745,-0.6386498147900388,0.42360612373562123,0.5648030407339841,-0.6210605985464556,0.42099220748950206
,0.041173308519332284,-0.5948112430183803,0.36879726972305005,0.8240664027719822,-0.31490955863372283,-0.8586067105539634,2.3562615774892692,-0.413012705868471,-0.6805132184759257,0.9834944643689182,1.1194584153535732,0.866912382390715,-1.9062785969086185,-0.4196929786274066
,0.29368285464968863,-0.9905085284500613,0.7194205295111935,4.774409491580794,-0.9057099602843096,0.33966194266331956,4.492030836928419,1.431800831377128,-0.01207935973423591,0.21644218944736165,1.5232005221164469,1.2004155653607527,-8.801576215697922,-0.6355929297685038
,-0.385380469666165,-0.9137511654542202,0.23751651253597478,29.808604297727044,-0.8839582852457055,0.9395697375715866,4.04142160073532,-0.004430253915695251,0.6636097681785995,-0.01561185770236011,1.7177984362103162,1.2254892771095722,-6.6519795442934715,-0.3808038402347705
,-0.5853265817917235,-1.2378113744325328,0.19157126213925416,31.95596525367879,-0.8408921207750247,0.7655811805008482,3.929315391788797,0.28712182722728236,0.6671047012861601,-1.2763196612873744,2.8287832715340713,1.1153475084821782,-5.49592068535384,-0.5409639719851788
,-0.027015413527386564,-1.5102010197430051,0.12934362743160688,13.314778208254003,-0.7261256051536643,0.5982459161282271,7.916252339430712,0.17838673047148043,-0.5562189995253525,-0.9860031162048902,2.900935298178688,1.299439924216151,-7.768150400023664,-0.721226330690587
,-0.17641992880525864,-1.1478753111205249,0.028528004544686153,7.8356255976106395,-0.20228805839105,0.18145885914615,3.1052749456482074,-1.490180407851066,-1.720944270503742,-0.333864237059066,2.17166225717978,1.6886991741833925,-5.412127933662494,0.268352576846056
,0.2725786065941962,-1.5195497459753813,0.4984839313119604,33.72802232431527,-0.40631036606446097,0.6566881084321595,3.4186489664940365,-0.5365247547204514,-1.3943576206883839,-0.45764524918511335,2.149378315527479,1.340122536197158,-6.402245572526431,0.7683959399735811
,0.5942838445168939,-2.144359683114329,0.5041729270357697,33.10561229622175,-0.1948950667713823,-0.035995252946546145,5.634214896994304,0.4035885711655704,-0.05067558682685699,-0.1474871726943253,2.000010460105423,1.2313804436158218,-3.9307710926933415,0.351315331210934
,-0.6223960212263968,-1.4883932534051645,0.5342657807872356,14.590663331598385,-0.44213739013071235,-0.030039758472177963,0.8963704004870243,-1.5431776667738035,-0.7547979027486802,0.6931195404971445,1.3952797788315883,2.1988129266104286,-3.7326464567617377,-0.2999298603059215
,-0.5260469021195899,-0.5882744781447125,0.2622192048590021,9.184058561862843,-0.29800785581951944,-0.18682774083118545,-0.6596640941935484,-1.7997601115910342,-1.4580339937014064,0.6294915026566547,2.4736584690396946,1.4203095579361669,-9.19439592490942,-0.5935853915267222
,1.411583996784306,-0.7021376306231164,0.189918353915685,25.296283537946685,-1.0165059886828514,-0.6267446863237963,0.5009932638753792,-0.8789525433323423,-0.11773011156937983,0.5739432187944208,3.1371800871713322,0.42951533501204275,-3.189554389631691,-0.794259308250038
,-0.18822562002150217,-1.4698319437415686,0.13155161873370938,32.15971976294995,0.05683644490948292,-0.1823853983778917,1.853908179023883,-0.3653577010437063,-0.3096585302080344,0.7508426504132787,2.6893007099926263,0.8626612034827353,-5.009368405849545,-0.28752282270166823
,-0.870950543575604,-1.095814229905756,0.33523687668585184,24.07167561175789,-0.05249142984927978,1.1168066631772016,2.7847386442914486,-0.35938631445062585,-1.124159483837831,0.2644880463293328,0.48049879945279167,1.2871444073086467,-6.457107714537981,0.0008898864225161304
,-0.4116222018733034,-1.1153389654416908,-0.04305196635068619,27.688855351846215,-0.846968168711643,1.4756690890512618,4.640551452352403,-0.7743164662595224,-1.1510259259398703,-0.23301075705443666,-0.31097391760329524,0.3223427841432247,-4.7973611328901455,0.07616019307572722
,-0.5952839985046157,-0.7062199257682221,0.2519118097478072,19.97432872894971,-1.669505626713083,0.7780258806850794,4.900864654201414,0.16282825569551385,0.20429166041946248,1.279710060287059,1.6967122145467646,0.011880831760516197,-2.3432909482621516,0.24910363063306667
,-1.8254830324806972,-0.5434945558140588,0.00411924974188731,23.424090709439806,-1.7733209125856455,1.2400929411817183,4.3051848777350115,-0.7815165235278125,-1.2783949983579406,-0.8523938110303281,1.8469942682583473,0.7538500764591681,1.5820078989900015,0.5834420856743696
E,-0.653942856335829,-0.14079307100130675,-0.38063749132562386,0.1707838324077723,-2.080360930468028,0.7319768683472542,4.550073853221334,-0.8469054575757136,-1.9896543756922804,-0.7000667764574066,-0.21620214623307135,0.8637815731707219,3.2694879794466125,-0.026473788099026042
,-1.1009063899187477,0.2602221692529253,-0.8439650777105754,-35.3320987617451,-1.2555487143433746,0.70968798431401,3.2919274010331843,-1.5589838682477137,-2.05667308327561,-0.7847756379645501,-2.3832320092704267,0.508844937773328,5.794544057554201,-0.2906436591909806
,-1.2449928075243595,0.5585680747700253,-0.5646223653162219,-30.113043867484002,-1.0470397362386594,0.5498737855144312,-1.3339546546726853,-1.6742977457871968,-1.7896084886620438,-0.7629236595884891,-3.153126436066678,0.6783770969407653,8.211758746140426,-0.027444360578802996
,0.06941951162866718,0.455100323550759,0.04217690802605497,-9.552354597490504,-0.5600031093710927,-0.2499924332168647,-0.4866669335702364,-1.0588372259717285,-0.492394575048541,0.17227921283300002,-2.2429600478942557,0.41027004764047714,7.262454856542257,-0.7218275893185581
,-0.7799354584525986,0.218167543024362,-0.3256874349570949,-18.352839508748353,-0.8417528017737353,-0.2078249435819588,0.9847212373405905,-0.6690360076990998,-0.87256622639824,-0.18051375122757854,-1.7218475978363805,0.23979168282966776,3.789127125804102,-0.941124706816128
,-2.2164940401954016,0.52018134095676,-0.6571828936038548,-15.730770612938045,-1.2394588507458812,-0.2314504122962158,-0.6989566993751326,-2.284178549870992,-2.398893538001977,-2.046621226600341,-0.5468497483215766,-0.4280639113306438,0.5045911715337146,-0.1661792359483766
,-3.101513313654199,-0.18270697964615726,-0.7486897845121285,-11.968205225384933,-1.3543541600568674,-1.0729950043811447,1.3670855422676826,-2.7859133967633567,-1.777408279301323,-1.2275202851156088,1.812346248373743,-0.6568969499708783,-2.038816707670523,0.46685703625698494
,-2.2502029575149076,-0.847155266665574,-0.5959623676547909,-8.464779331817606,-1.0467539934315946,-1.2671167942096069,2.0510343596312848,-2.705394778172184,-1.1955360392077732,0.5573442584467194,0.8812177310975159,-0.24469808232009146,-0.8758468646212639,0.22616362410315136
,-0.09980643270332468,-0.6506907969362759,0.36033237356463294,-22.899917399129087,-1.5561656520663876,-0.22087310253594178,4.802529507971439,-3.6400638169194983,-1.2782356854034505,0.022084565545879526,0.23122104502558793,-0.2974313813393439,-1.178897370251656,-0.8756071446672903
,0.054767362396876296,0.32880171379492157,0.5032938832880706,-12.585285458211205,-1.2433199255274094,-0.08238334782638322,2.839456423588344,-3.0346346375011586,-0.541976311289452,0.2055462198379081,-0.3585730808219501,0.20179976731033716,2.6650299414442857,-0.3293479543736346
,-0.33148787622134973,0.46321003447339465,0.002579050693972115,8.606494673802707,-0.03931237547345451,-0.4985367998130614,0.6418952938047705,-1.4928299578063486,-0.6164857162050968,-0.12112441117298116,-0.49000440794526073,-0.05692525525098187,-1.496092898352785,0.19193215857246276
,-0.6457061849471191,0.1068537569667077,-0.27312185533071315,8.15503407546059,-0.8577103595123945,-0.9623746555785656,0.0888761663048122,-2.7045800365119996,-2.47721911196647,-1.2965326457526272,-0.3949364304815146,-0.29723666692803363,-3.8601175301361463,0.011027816990136814
,-1.0689585466901068,-0.5573654808227249,-0.4262222238716411,12.483875220175102,-0.7102049938813294,-0.4993416737113801,0.3152082881682279,-1.7303879702372487,-1.5934938705071369,-0.4117618643178561,0.628649227403298,-0.7887076450091928,-5.641129574433266,-0.054848536654021354
,0.2286880472238223,-1.1943558825634462,-0.07840326990475803,16.19906422878645,-0.35189720027146626,2.0081341475627537,1.765498571292089,-1.6435432800350118,-1.1195736129624947,0.6080527402107759,2.7980555974545918,0.16902614773928457,-6.695462052949892,-0.37450328724577386
,-0.014416360320880785,-1.136283767846694,-0.5017972197175723,6.623196326051527,-0.26111202715048665,1.4039448007269038,0.025091514633547616,-0.7702261785697769,-0.5581556997061724,0.4123940612106451,3.776267513733403,-0.2914245045326456,-7.436756395688826,-0.498515662316567
,0.5507950564640297,-1.1055597657269944,-0.3496623280539584,5.1222849213015405,-0.4386916211470361,-0.2248587472325686,2.9879482277264797,-0.6225667101809287,-0.9890996270876208,0.4479003198582406,2.0181758319833736,0.06454310063553097,-3.349012053528836,-1.1208024347255985
,1.1432715352470164,-2.2602399728336118,0.0651294065430241,29.24925343970248,-0.6681663111531411,-0.5555618881507522,4.084341076764002,-0.8431809665651885,-1.224190814471455,0.6364076520441394,1.8099625887300481,0.633822973735629,-2.22646675547637,-0.95090196803773
,-0.9198196433690747,-1.7503555226486882,0.34631744505702283,28.603176712393683,-0.8497051299728461,-0.736356338045209,0.7530556671369473,-1.8863399264015597,-1.269648983267978,-0.49287541211601654,0.5906406343102174,1.340246397545083,-2.9537679856094505,-0.028257232828875323
,-1.0673235269140013,-1.5117207675121536,-0.19953631060485574,2.3985177323431555,-1.4229566723805709,-1.2420276225121933,3.663349950687751,-2.7733005065369363,-1.5623737292971986,-0.953681582964475,0.5479305589632699,-0.0947294703087732,-4.487160139322466,-0.1377267744094936
,0.1397757626349559,-1.0329681880274122,-0.4992406009146294,11.38390420983323,-0.6452529494554999,-0.41462169676023836,4.435609712162091,-1.2340794180201624,-0.814430636072447,-0.344504813110837,1.5605649589645114,-0.0409352696571065,-6.2634509585141,-0.5408055068609919
,-0.06996111073810587,-0.6962288796762719,-0.2276243797906317,24.560127559681167,-1.0670411594738733,0.6468204903600063,-0.1247475781511232,0.01657320549846252,-0.4830874599363471,-0.16385446415710508,2.1769863265479468,0.7141767598291909,-4.261868374760995,-0.9260280321761806
,-0.7417729897942005,-0.33039396273100946,0.10755409641907424,41.234457724089296,-0.39624583731144025,-0.5930590079674828,-0.5921273254758466,-1.3131538772182074,-2.1186205180795197,-1.3205032243508323,1.8773950278097742,0.6270498290501699,-6.449329762023298,0.05332489119117659
,0.04125723550206392,-0.4309393270941134,0.9620848755068282,6.641437191291207,-0.1350016677686792,-0.7286095540461108,1.1573781016547466,-1.8542697485236135,-2.3099548261136715,-1.5516196562983087,1.7674572733654386,0.6769974738888737,-5.0769292543290465,-0.23088294625612446
,0.5004766642423022,-0.07316592156913244,0.13432245878335689,-0.6394550740115469,-0.5341017224851574,0.8078106104605671,2.3216043864352045,-0.9049360769365314,-0.7583133862390027,-0.49692538299838046,1.199541705586149,0.21199369095501583,-0.2605989884187612,-0.6728492289630514
,-0.7551945241421874,-0.2147343209728351,-0.002320539548846678,7.177869970999254,-1.3978936099381103,-0.14108573505731054,-2.8708104662184564,-1.073652770375376,-1.074301151798749,-0.5955597358103317,0.9924653973938713,-0.20136307602501496,-2.0124523584984684,-0.269090288766814
,0.20939171874982135,-0.5283902417627173,0.09913660317830687,-4.28229895865977,-2.260090712600655,-1.7044990359617975,-5.355334078688884,-2.297735697484292,-2.659236045947718,-1.8081979448270888,0.8772992255182932,-0.3534217471687325,-1.3081769157537873,-0.51378003379794
,2.080881358119673,-1.4031863712570085,0.29831657530605776,-10.418019099472966,-1.4265969481507597,-2.170755087360539,-6.321367996987631,-3.3122597343168034,-2.886798120213587,-1.7641528404759728,1.3782809599436678,-0.4223318092132097,1.3425583370433256,-0.33358471318123323
,0.00501539316798762,-0.4679996784775339,-0.21111777728396366,-1.1583827557524489,-1.1641241177641088,-2.4829310356243335,-5.069194572449468,-2.6765076343730434,-3.162401726669192,-1.4589571546350513,1.6946279367698278,-0.11382491977572019,0.5802741090666557,0.32401140192144984
,-2.026420201180292,-0.28060143584537134,-0.8839219129488514,4.689637756030495,-2.0087852704363853,-2.3437105296244,-5.569987646688288,-3.5136272827911985,-4.301694192052449,-1.964433305510658,0.9993398931259737,-0.34471364249083963,1.0044125274898081,0.7178684657253355
,-0.8420401197771535,-0.5185637639522562,-0.48840949495947206,16.33006173865288,-1.7195267222502109,-1.182393545252776,-4.060308260845278,-3.1746126512018855,-2.562719488991396,-0.29749011953253834,-0.11751909275873927,-0.10546549602410085,1.1946309468892327,-0.6365230780354411
,0.41098347265926116,-0.5974119766510312,0.3676688899261944,1.6273110537819573,-1.320985756566795,-0.8584061720029637,-2.3698004405339326,-2.8082052660920223,-0.17315985964051395,-0.45349020341703183,0.3786076199448018,-0.21556528913954828,-1.0852600737136948,-1.9163302176376533
,-0.8096092424480553,-1.045346065346759,-0.5357895709964823,-3.1659069030048093,-0.24048872086733222,-1.8009715346430506,2.29472662652146,-2.7106682025944338,-2.061262989336535,-2.2142987998815875,-0.8085420949944431,-0.7251088861687607,-0.314091925415453,-1.685204005281009
,-0.7634880620272086,-1.3550434899625454,-0.7250143285237346,-10.747030648501205,0.43200689705254325,-1.528195534005422,0.8402985145281902,-3.169464991280761,-3.2527910147518657,-2.4844359214537737,-2.1534321714395617,-0.6074381777488613,3.85024213333822,-1.3343327773781337
,0.647964734271604,-0.71990133952752,0.13243622857700527,-6.094661972278616,-0.7506004660973589,-0.4666003162434434,3.1022787031514802,-0.8916006526667981,-0.519184978443964,-2.0041653807276587,-0.6955622665620746,0.07547391457605732,2.2009111301276776,-1.8249407321281552
,-0.318692826260055,-0.3669663477622172,-0.2574316866868044,1.215667446926148,-1.2500181604958065,0.5496239563570939,6.761677243995509,-1.2211313399651829,-0.09337797940772014,-1.2513557573712344,0.8360823348525637,0.25423311912210517,-2.159345352222549,-2.326674928117533
,0.09944720133745114,-0.08514581563925593,-0.20521237293793085,25.41853282368344,-1.2403252160491063,-0.7949088490589838,-3.993679820284301,-0.028400485382277848,0.09976572435397685,-0.18868211853249553,0.4893811918987935,0.6915276938832885,0.3825985663972214,-0.8045107911885792
,-0.4393478339911099,-0.29384616886722303,0.20687433492067475,19.07626390644903,-2.4429041813838643,-1.9155125392609975,-6.4859000318586615,0.2089981270223477,3.283243657608059,0.17954324551012998,-0.9596993600784033,0.6704064260330325,5.4875421045073525,-0.3397704946116998
,-0.4628637403665591,-0.575174736939958,0.027583569384034765,21.002214988412625,-1.3849886771162083,-1.2689370620033182,-1.4456551047378012,0.6429512626658879,1.2875601497397358,0.6798860962215705,-1.2293491305864248,0.30591078042979564,4.281149396953248,-0.031821406512595005
,-1.3354511864328107,-0.4335126593384652,-0.31298015947846336,1.7741964862298873,-0.5417830965482521,-1.755534343203306,-1.5927220705344791,-1.548773090582639,-2.462597943218915,-1.0807552986387325,1.3492765475298454,0.2620437770301654,2.6180445183824843,0.3449507235565528
,-1.4683856647092908,-0.9941656419503784,-0.20312185913922634,-5.381650030442865,-0.9643613227135532,-1.8162908248139886,0.6882205779921075,-2.3562104961894126,-3.234288094799626,-1.3961857802727715,0.38766461766732396,0.38869181099559713,2.0496422038162008,0.22814830880969506
,-0.8566297131271043,-0.5444900574196276,0.034167580535457286,-11.932629187475108,-1.670461234870289,-0.4088065533598273,1.0101198916073884,-2.2569252301974907,-2.469179277026186,-1.454417183754792,0.45455934827096056,0.46812216109893967,5.43966890928864,-0.06518345046443585
,-1.204604672114957,-0.37900772475446853,0.24690920713954997,-13.008934124088114,-2.3019644676525264,-0.9025993919481805,1.327517666520274,-1.105470325994388,-1.1826101737796064,-0.46363209222146134,-0.5140152708968546,-0.13638303434766508,2.688652984227887,0.12891625154801464
,-0.11814533724353929,-0.38307610599549347,0.4547929741790381,20.02183339081243,-1.0833707024616779,-0.9610947316861976,8.431273353122737,-0.15804455040925897,0.4931950058416938,0.04207724034324795,0.747430430776893,0.21587318801170344,-3.3324459656119165,-0.10533173213473199
,0.6534257160845125,-0.4098498584932251,0.6554884734239091,18.52233728605579,0.3096565459424241,-0.752607057588018,6.880109884661724,0.9278664720739999,0.7113186065753212,0.46057185048970556,0.928819050458492,1.1349352314964924,-4.575690174407218,-0.0625754460993778
,0.3615629843680908,-0.4614916783832981,0.5726977667875145,0.11909300466107052,0.6091410496754537,-2.869534501524823,2.5837007972404726,1.3074778703000254,0.44427620099033394,0.6786259676228885,-0.020481904503627055,1.3089437817086997,-2.0816242347342424,-0.6233633827763827
,-1.5950413393668965,-0.08472707089718104,0.19647588039199296,12.315800172560849,-0.655741379844276,-2.57879447901396,0.6450057379989559,1.3432713633393756,0.17526294367902215,-0.3682493692997729,1.336658708013713,1.2345906923955139,3.056103256414483,0.16195075657758182
,-0.3724517503475344,-0.4195937150972498,0.23198764581739187,26.164533384470097,-0.6124468231643546,-1.2275213805374314,1.7241590464562497,1.8038675756840832,0.6108155724379953,-0.37974427245624665,1.3969451018556158,1.0354553397306638,1.494386403959754,0.059631854320286205
,-0.2776343833251648,-0.7466511804319145,0.3282786367095466,36.7406012897171,0.5745291529445026,-1.433439040914042,0.0621019635450894,1.7486044910672471,0.7713523817054938,-0.13951583352373936,0.45144830277522996,0.7642123616410481,-1.9354516131151647,-0.8399711737391643
,-0.16753115044806322,-0.9129449563387112,-0.5821575917032231,21.59886609662749,-0.6032111203387505,-0.7598872522059859,-2.6501600673689576,0.7590550534321849,0.6627418385896409,-0.8525146843892942,1.9746898809208864,0.38875424261246005,-1.9718158909737664,-0.8925584332787839
,1.3053491069545975,-1.2838841195884756,-0.6141534010572661,29.242216485644484,-0.5368011858055043,-1.1774079153459502,-1.1728347658369702,-0.13604600579709272,1.2163787707391915,-0.22389578823586473,3.3970274356276815,-0.07678841994550457,-5.847634149150648,-1.237544167591759
,0.5547105549433462,-1.2458529182189104,0.03498960398256813,21.763102830962385,-0.8897673094568027,-1.9980802400070428,1.8879979524137465,-1.7154032913547779,-0.9339095565524317,-1.0943454940998023,0.35860763644538296,0.5674453759929216,-8.63067643465421,-0.6372965475235117
,0.5158904839597404,-1.0332573186095775,-0.2027563891346822,17.733082636667177,-0.5900231526147746,-1.2528158303687373,0.9616322972539477,-1.1632026771137203,-1.0648409624755582,-1.1675152849517587,-0.056497088160330944,0.6115119017122193,-7.094272806232565,-0.9027738416514831
,1.6705824727293757,-0.7607409701017013,-0.29635366055808243,13.21623122531768,0.1455802361812512,0.44866988939175884,0.17844205886911632,1.1208466333427174,-0.9807384763883332,-0.341687966406829,1.3874303786724589,1.4008631769755069,-4.517275179270212,-1.4441999720325827
,0.0463270716956972,0.020916463576111082,-0.5328913872494198,30.780091946705937,-0.2706757544323742,-0.6701030680800923,-1.8924750083298911,-0.5606228848128377,-0.9014125583511767,0.07172369121315564,1.4206884723615443,0.6427430170692313,-3.988058864431276,-1.0096447362374958
,0.39900836724461936,0.5065569857624581,-0.3326357893356519,28.704854380540873,-1.217304250188133,-1.1506914968285857,0.48660037223662306,-1.879817667382107,-0.7573235861306772,0.6764976899351703,0.5967856358709807,0.01388108368796967,-5.219320596521016,-0.9730255334778977
,1.1356976425287817,-0.7012607773083399,-0.061719700280909125,35.295817729630706,-0.9536848169952846,-0.32456045329917815,2.3651750548338897,-0.7796083731917218,-0.5478479070497396,1.0297845243925383,0.02715159563459239,0.45884511502397785,-5.031796009081246,-0.8300912200426857
,0.09283743927361446,-1.0674382008178551,0.1348749534092788,19.425467879775145,-1.4802342805845379,-0.6569270567551176,2.305878938918789,0.6258523667209133,-0.5732365978133821,0.8123793442456697,1.6060149823590257,0.9830372900386346,-2.788866597160507,0.14235139822928355
,-0.11121308924398787,-1.4385128053225475,0.2964027905254425,16.177417826326806,-0.8582570333034351,-0.9035610989829496,2.461317787239594,2.0212140117260438,1.2980404302034863,-0.4115079030599383,2.2843797580016316,0.48761006545426056,0.25026598950913953,0.2037877968414571
,0.9890472509949937,-1.3009215171049044,1.028951063022078,21.87961616482255,-1.7179324287674533,0.9290327755200901,5.647047470796165,3.2715021401248796,1.2637938788682452,-0.5625014788865322,3.2755498003188377,1.3063177650107367,-3.375608275305523,-0.19275175535344938
,-0.0346909244820645,-0.48386733894399847,1.307091371759506,16.88856074075963,-2.118268876700838,-0.030184181077555234,5.37604389121286,-0.622440334882572,-0.8147284730546719,-1.4383497325948598,1.8616694993523357,1.6480080528534236,-4.388793956349307,0.1540175772737955
,-0.3942954011799529,-0.11979772065277436,0.5738819640306327,19.73978247391659,-1.524126059334559,-0.4561468821786213,3.814335291163536,-1.4853641472078398,-1.6182245225234042,-1.1470267932804068,1.6642599619818341,0.9634003445828081,1.685543488243799,0.05372949675465919
,0.4667464621239104,-0.23505013679795467,-0.3082031858973997,18.01248877114069,-1.1040126864914093,-0.3692829051467609,-1.2631070387565262,-1.3553069620911589,-1.5710782665053997,-1.9384471490102135,0.766124460190013,0.29373347777028713,1.869271776468064,-0.45055428067917763
,1.0569208975242568,-0.3606595355750274,-0.4142049644196476,8.605944454901659,-1.3982542540538616,0.005431329047413623,-2.0722038105949587,-0.5807288124667876,-2.1093508186030276,-4.242131485302062,0.02603577383975722,0.13221914751451036,6.053397012684931,-0.6416906364122368
,0.5577107937035047,-0.2359893148034385,-0.2666199911618882,11.018808455558498,-1.1490910138250616,0.11053318602706941,3.083528051294404,0.5795085974341557,-3.6844089390401007,-4.581896780855309,0.05849793904487756,0.3306415784553874,9.21123729337548,-0.6797525215571197
,0.9093448826585219,-0.8908251892751603,-0.36047745553638655,29.953166061749204,-0.25954332495131466,-0.4669534090318465,1.5051196653448726,-0.14328417296608517,-3.985789399913737,-3.5589799103195583,-0.0504192305768433,0.5872436579614563,5.816121285771589,-1.1243713992460946
,1.144605161265585,-0.48989440278692703,0.09201342711514592,25.547237447379434,-0.5164258472904338,0.07833884510489071,0.9879154206242952,1.9216318634396832,-1.7819176366883918,-3.9689555548453184,-0.08959933270423942,1.094999019238192,2.7949895745493905,-0.6068036067169355
,-0.2544106967302347,-0.7429464500685072,0.12545481793683305,23.446268162730608,0.4530353663595586,-0.1882328060672787,6.760036046257386,0.36157585623254346,1.4904362785628524,-3.4475655318623475,-0.38068936780203533,1.2850594150842996,-1.4816719243973933,-0.5123822524734615
,-0.4843539280536144,-1.7887171477530452,0.12430957944991196,23.271810232044643,0.7814654197396471,0.6834926498615834,6.023468426988644,-1.0310594483251545,-0.05339357498085852,-0.7282929481603424,1.0909408274669412,1.621744046281899,-3.40683006943191,-0.49346509635323854
,-0.7387687801979306,-1.490532490177089,-0.051757628074413295,21.819924981954568,0.025906623648218233,0.981671507824827,1.7836316206515144,-0.7632065677454355,-1.3228114832446638,-1.830725952036458,0.9470846579203266,0.8986608961815166,-3.3087397402409704,0.01303203892884306
,-1.8620766723545894,-1.1846682496757823,-0.26674184396396544,10.594133040576784,-1.6308769279366344,-1.2895127576371777,0.7617666524089948,-0.27962395318934524,-1.9474620137599339,-3.050468121588665,0.28783049108586595,0.8886731624693286,-2.038901445124109,0.8707101519370364
,-1.2628669364397047,-1.2448102123892695,-0.26557927869742765,11.201933656430326,-2.7669214151402333,-2.2287810540947257,-1.7931846144505983,-0.6696660462814172,-2.6914371311219734,-2.6970000073449687,0.8571982860401494,0.12336098843138456,3.2046548872314595,0.8481724506299293
D1R,-0.2947655248752509,-0.7715598442969657,-0.15073074778916126,30.68085007951412,-2.1739065164456814,-0.9420745542756559,-4.023274114386617,-0.7195064912331546,-3.136356831111283,-2.6832372633585173,2.3542779420397655,-0.06818189433237958,3.789349306108558,0.01559974236480345
,-0.0017107030784704817,-0.6773163747393777,-0.366669459027459,37.96707526539617,-0.5085365822598545,1.0602203386052644,-1.5370344864471295,-0.5505694453893278,-2.0833768696579122,-3.02710132123367,0.9236833769400876,0.12239250490494309,2.919348971946293,-0.6059601367390057
,1.5624551520571934,-0.45038735792931456,-0.44820984440504874,28.970260103499456,-0.5909660054438911,-1.4192964342105463,-0.9062189818431085,-0.14659438781569764,-1.5694134168499565,-1.9120803810364313,1.4499118478508124,-0.058773652293756945,1.110238659680912,0.04530661518555944
,1.059373662140401,-0.3912059770777372,-0.5736979234571153,18.15259044490476,-1.9099861825848428,-2.5118362964143097,-2.6853087887759632,-0.029103362321384836,0.9580185117218653,-1.8342100457358437,-0.0683787897261715,0.23375842143946515,0.007205533741872857,-0.1410281753489866
,0.15444041126972233,-0.616376420692463,-0.2865653992782193,15.656937362957688,-1.583010185965311,-2.0686841689844564,-1.977788291853962,-0.822966390020034,1.0756874849095945,-0.9950423644029001,0.5142116183557757,1.0357665877657332,-2.76411690146902,-0.34173709300497157
,-0.8336871828139607,-0.7482885661975884,-0.04263919359275763,12.606294986894987,-2.151931643004698,-1.4395358571830217,-0.3328102567718935,-0.9225075924904208,0.2031887327006437,-1.3950908210161999,0.6883586837253137,0.3506558482183565,-0.6355537520541203,-0.02755018050229172
,-0.8382554636060667,-0.29832813952186854,-0.4172941740741305,8.729995668766467,-2.151094185808882,-1.930763637461654,-2.7356131100019314,-0.4067302664845548,1.7582417125429999,-0.5226808623370164,1.0545703206009793,0.06452173494643015,1.677238096051644,-0.1377780854735732
,-0.42689735276154334,-0.4086094173171694,-0.1069817684897164,7.096119297015844,-0.01214382131385002,-2.5708455414405202,-2.325171753543011,0.3969753005974555,2.3006645544951265,0.7817531819042819,2.6179509819421964,0.007280173876273875,0.007561937033927461,-0.453058230014003
,-0.5795850112398354,-0.9225634021676099,0.03905609811580626,5.649403088682248,-0.076398276994257,-2.6533700186200915,-2.231515192857164,-1.064175393322028,2.5181719721566083,0.9957794704927369,2.2806284400387455,0.7678642568342664,-0.6888905162441935,-0.12159066373770705
,-0.020175928362251103,-1.5512821710256588,-0.28332174525320536,33.609690712560145,-0.5736954353154748,-1.0421535228094538,-0.7101241148331039,-0.656353954878996,-1.3024954984496966,-1.4917312603698023,2.7232945329254745,0.10709004612408228,-5.532658011136705,-0.1129780261398361
,-0.7730431119816236,-1.1414339159704077,-0.27113443013748306,48.26174643139159,-0.30226155354349293,-1.590585323461139,-4.348068394261993,-0.8016279763976274,-2.846196403546325,-2.9196626191998374,3.3553596966324104,0.9056297736477282,-4.500197018926843,-0.3616153729770869
,-0.7790331286289693,-1.3199637332320888,0.035416720540027376,26.11440441425118,-0.6179042650554729,-1.2062147532386935,-3.1619645479974734,-0.6038537747250216,-1.449953483151295,-1.3052925633132533,2.546144561510144,2.2641384281434718,-3.817396997005667,-0.2619661388603363
,0.4858000452107748,-1.2228044455728104,0.4087980269814395,9.629572438564395,-0.6900531071029898,-0.11836021306219069,0.6007016322583609,-0.6616644423144109,-0.6036790158905012,0.11987700195420788,1.1171391576126426,2.3101540087764265,-3.894016238221852,-1.1722809237211935
,1.0678729190107714,-0.8578520035359503,0.5985771778011824,24.118527834011438,-0.524345074749612,0.30468866720477067,3.842271558981186,-0.43763006183419567,0.011119764516758428,1.7307535781016616,1.6619762358406944,2.195897780286412,-5.780750470050685,-1.449395922420046
,0.3014485660064334,-1.0327703520150722,0.24318330574356817,12.92483098769732,-0.2894900676506026,-1.3041742693232068,2.1764175338960374,-0.2971332582760535,-0.2837715480443633,2.1994930309667455,1.8116168481280848,1.715932779583738,-3.552923209217529,-1.0682004827887337
,-0.8737732860619177,-1.5708951385102148,-0.2977858510847364,12.381046372491937,0.2941134786785013,-1.585876834325218,-3.109847373128838,-0.4125314491116814,0.6546699428956313,2.4115380350501594,1.9792586547798308,0.4924547628609745,-4.639700561297042,-0.3472861841570225
,-1.8885764695697074,-0.6349168377969113,-0.5079431468226264,27.888890256011557,-0.2568875642218893,-1.1703293201689966,-4.723364208249376,-1.491865827941421,-0.7135100609945392,1.507998441249584,1.2153886632185131,0.8388041912120416,-5.505502309270071,0.10698318447712986
,-0.09130123702020106,-0.37345980036422416,-0.2446558327071944,43.54654480183953,-0.03031103477155262,-1.0778199800984618,-0.07366381008078776,-1.6130506287891138,-0.9512795463033539,0.763366520330136,1.3273830142584087,1.0524607216553985,-1.5475624800432595,-0.7270623224937782
,0.5888585929711462,-1.0450557905123998,0.12267648500844407,34.831484720693744,-0.9585143518758166,-1.1634898435592018,0.3875378970587989,-1.5879107805107802,0.16194246691207503,0.3197225952020463,1.2921639136977867,1.7531502299540456,-3.8680307118548707,-0.30311922434705557
,0.8279765921638432,-1.513260188007268,0.2644682746341756,32.082176984275,-1.302078154425185,-0.8354954642987857,-0.43583151774312573,-0.7689091289987862,0.41395943324031054,-0.11962884546776198,2.290300881465825,2.8201201750186096,-2.8929395571873138,-0.17853500505162398
,1.1923017720794382,-1.5368953477921385,-0.05925989437968835,32.25319939103122,-1.0091538383456737,1.1924383030028323,4.317417431670523,0.30102585355835626,-0.2744961172276508,-0.48481343219988676,2.0959145431165687,2.682644847405441,-3.3612332209635882,-0.7090285099155762
,0.9402256209855214,-0.0745204719280759,-0.02694202635458097,20.239203473969155,-1.5610257850526024,-0.41498814441632326,3.5089666138785693,-1.1456783954123175,-1.1763593721100989,-0.5935236217917839,1.8295473060653893,2.5731095143316134,-4.4604533639926185,-0.7641144297974074
,0.31917131817409405,-0.29458551150389184,0.44940057445823406,28.830971824830502,-0.9937812439663303,-0.3501723024397701,2.1521795143396245,-1.322327711616759,-1.535799966604837,0.02023613445728712,2.3555008614140007,1.4055300713614984,-6.548293019062421,-0.24863720403077125
,0.27713278647683437,-1.3913468666029336,1.0245395025565691,13.853518357609689,-0.5736059964740992,1.7982791717253415,3.8332199113783205,-1.4064491598019668,-1.698579407376765,-0.5510404363260399,3.6031575140010106,0.6099145040443795,-6.4772262821328574,-0.5588565409563512
,-0.43517486444978387,-0.7784413680725587,0.4024618685075165,4.958763080350248,-0.1126017589029026,1.512582658191302,3.0597856602653963,-1.404593849971893,-1.9245461556712193,-1.0763760748133895,2.4548996672072194,0.9080221717718324,-7.735191367177181,-0.370936119227641
,-0.6303473945459197,-1.176530285684282,0.16071561092704226,8.73098444346486,-0.022330574067269213,0.7699579425054606,3.3044691887627557,-1.4031512839108942,-1.3777924716356005,-1.508936058980163,1.5058854857668968,0.39321404457014403,-2.752472779560539,-0.04660156246885609
,0.7828446132941989,-1.8608685417832973,0.30416880131399854,25.349282373737996,-0.5415631064354857,-0.88081115935626,1.5552252486044842,0.6429437509371316,1.4227749842778994,-0.010867123076420394,2.6694844663408155,0.6733394574538121,-3.0275886138897485,-0.35182197781025876
,0.050712685747052115,-1.474551484306295,0.23926400642019952,10.102208878899585,-0.839018694152424,-1.59897155139311,1.546590383032661,-0.32212293329811953,-0.336091441605046,0.17704756055393828,2.60479960205595,0.41887794127261907,-3.507141046540441,-0.5192109527257903
,1.0944605922393247,-1.431084402961027,0.3615593537070379,21.510225514438858,0.14837791202872525,0.238823648622106,4.33853065299601,0.6162978266939438,0.14656538259901655,0.8697587423296457,3.074077440945372,1.1286914948332447,-4.396594533079869,-0.9015616951510385
,1.0605234827282641,-1.2312952438235363,0.5264881398251903,19.998804017418653,0.32895656374311805,0.007913776640308873,6.155685574166312,2.3736870347726042,2.25960950964329,1.2674570615098288,2.101705668972564,1.1211632367395308,-3.5940300266787473,-0.9523332460912054
,-0.048670984022452915,-1.0506117556269223,0.06633411548973796,17.64575869843927,-0.38463165959046147,-0.9221670032162844,1.7498159053983964,1.1416957055864585,0.9637062325550134,-0.3909968698700223,2.0187210061576355,0.4563221485846924,-0.2380691708052946,-0.5879845810373653
,0.4227248066329858,-1.2565278209558528,0.5312521698142222,23.04230955806053,-1.0754838232536386,-0.7903116070333602,0.08342688084955746,-0.2397765771278467,1.0827196997107904,-0.3744883981486034,1.5394400770522396,0.27320537679482665,-3.679475609707874,-0.4149843554634475
,-0.10039603413099656,-1.3735827717999365,0.3608169391032994,30.677025213627992,-1.203445072658056,-0.5501449676060128,2.501286654131505,0.4675013149570681,1.762607354919957,-0.46487284625279673,2.076975228060909,1.5976261629046382,-3.0561298054566985,-0.5353000449536423
,-0.7637999948183957,-2.1564808533760513,-0.017256003401238878,38.07250799081433,-1.089855074957645,-1.229412739188479,4.846977730269116,2.9490031129704573,1.03407282446347,0.3709359064023599,2.164282536608554,1.063544829314477,-0.899484852213816,-0.38809908308833535
,0.4007838157000636,-1.709295360645995,0.0695435447870096,40.335951407659685,-1.165971913607781,0.31399290419276843,3.181761538834783,1.6726980208289528,1.7653105605474044,0.6137194432419657,1.7817321239139572,0.6931141402067682,-2.4127391816008603,-1.1820194524063146
,2.3160819642933133,-1.2751872315527721,-0.34015473123795936,23.24260406500221,-0.6550647782085564,-0.12955908603066832,1.6754330802627697,-1.064243301318223,-1.7214332900587626,-1.5323657187597541,2.668323297951547,0.7265632214881678,-2.9960305852531115,-2.288839273518053
,1.0669587770200009,-1.4099146252111985,-0.24663338633138243,30.601073766083665,-0.32379710956891256,-0.49702916107179435,3.249297220421363,-0.7751615763913324,-1.6752671002753983,-1.3515456066592109,2.948098443661013,1.5761432544043532,-1.5614559020229741,-1.4707641278389918
,0.46829716398972665,-1.1833319222068612,-0.17937564486929755,22.951421500967218,-0.5364786367576916,-0.7581551166782149,5.388411217133992,0.5082794141696382,-0.33507827595428014,0.3841626042232622,4.730909059314345,1.6615522298735295,-2.8859551954185703,-1.3114891413169794
,1.7297692341172008,-1.672156179323904,0.10228301303096063,40.577752374402905,-0.5669209488200367,0.1439812376274533,4.215467311476574,0.9081265247298059,-0.03784664977541167,0.8492000769652102,3.966261063689268,0.8802857807434458,-5.511009216905511,-1.6551403851734008
,1.3744839501506076,-1.455208535003275,0.6039795432082399,44.340926975782565,0.22163141772501488,0.7130647954438178,2.788933119709678,0.46295399367141016,0.7054271641739769,0.9437322957902722,2.1835541503291904,1.070449572476012,-6.9074429335218195,-1.7784950214009934
,-0.09563988847849608,-0.8463256836830548,0.4117880793223891,31.906605105696205,-0.17505078686249637,1.3330704225227434,0.1324617469893146,-0.9899089452329761,0.5801309535338746,1.1389212416705743,2.531835922502157,1.6698734502958033,-5.5208000049653085,-0.9923186731851698
,0.3695027253457501,-0.9650566584768331,-0.15408499906052545,26.148022318050046,-1.9069779556803828,0.058912105059605445,-0.48129651185106337,-0.5222053114341726,-0.7841565052771905,-0.1544952467274392,2.194707199282187,1.4229844002689207,-2.440417272009704,-0.9910784275657416
,1.191564082748709,-1.3221406419839397,-0.5485834341115113,25.56940358089861,-1.3742580610143849,-1.63892584178173,-3.5297725348510727,-1.2175878365302955,-1.9181979940798257,-0.6457914499629493,2.327759408983788,1.1260215192041738,0.5999420555764954,-1.3041048033521392
,0.8662133653254591,-1.5793050837345008,0.006244942202836502,34.72613319536431,-1.3581607068274908,-2.883074148804884,-4.471459914001353,-0.305421416136548,-0.9515721023201876,-0.01488253895808762,-0.8607792796872252,0.6912932113775299,1.2168188509792346,-1.2680014745021366
,0.9014154685555823,-1.8570258386709577,0.6549060921634405,42.41156906869492,-0.6085149530360089,-2.3388542701215824,-0.9120401755393996,-0.5175547188501359,0.47894657446092853,1.341996704527169,-1.135750885443415,1.7176046968710388,-3.208947589291929,-1.4197034512275597
,1.4262802266202892,-2.0174600776455374,0.9418645563283152,42.42088691246561,-0.6220987296267908,-1.2193308170846475,1.2521897898510277,-0.32969744669312623,1.3590664131661656,2.074429639188832,1.7846314461036306,1.9561954772912444,-4.343612540265532,-2.0496284796660205
,2.3482846587603268,-1.8794615056052755,0.7379144392560175,22.722109437626443,-1.7786784159626643,0.6208217010544711,4.656291906896866,1.2947912204182954,1.6857242844967177,1.6722013983489437,2.4804658783575837,1.5715412174069578,-1.7659774152767602,-1.5090024712814163
,3.876020580517009,-1.4443497392239273,1.0012078779759652,31.96012433420008,-0.9668616086125772,-0.4270835329800641,5.731966798166138,0.41651430433152525,0.9453634680991181,0.45798944610983117,3.133782434845454,1.8960402840950596,-1.927560543435449,-2.330892103375827
,2.8303322136257725,-1.5909888945612773,0.7533588616694271,24.145508377842464,-1.007302455079087,-1.2475034877316784,1.0568526701362067,-0.11337457087936406,0.3801767535933058,-0.1164698394715881,3.4337445589285034,1.7636066215653143,1.7466039573857404,-1.686501699777142
,1.9618736945160178,-1.8326983068815612,0.5859390067993373,19.829103594038312,-1.41135571538515,-1.3882061818896576,0.33900782137604396,0.26879989399038573,0.5124890176002246,0.9582191748734602,2.6567555075543745,1.4714119026155907,-1.5926869699717894,-1.1742455587754672
,0.43001256931668286,-1.3182527090014162,0.41214380683224583,25.955626713235567,-0.9964175340602905,-1.8042951060931967,1.1130871214529412,-0.614115369561625,-0.6436024967154117,-0.30369063005877933,4.285938176362409,0.42507202157303087,-3.5117409049281254,-0.5776752395962615
,0.203261116251096,-0.9988445752023503,0.002683232959669511,13.410039042492588,-1.0654948465570089,-2.381096888723587,-1.1724904503456812,-1.0526443658121838,-2.0172744106598333,-1.430133513604378,2.1799997090325105,-0.22267438579189444,-2.6440778876310636,-0.8911118135801278
,1.538735435772552,-1.9226719984383156,0.08988153862763286,18.754699505840875,-1.590479305844317,-2.7887530141542314,-3.5884137083189986,-0.9738475805615943,-1.7130750287881216,-0.499589911438491,2.035034911148499,-0.5740892076866972,-1.6171625730714805,-1.4549585487907455
,1.6879493202711682,-1.4835758425863514,0.7156848886274337,25.182383079686716,-1.9445994751190239,-3.0707772746120723,-1.949002765754372,-2.793745673255293,-1.53084122992696,0.9017846881012145,0.9403639464169653,-0.5993356923082038,-3.3804177829492086,-1.5648310897601712
,0.393827235597551,-1.581444596060083,0.1101897707739469,33.85930050718336,-1.3132558476173608,-3.4060781171553853,-3.6439632457722837,-1.4998337165381392,-1.4251779681557113,2.5542249896566447,0.3676231891706898,-0.009688465250607885,-4.2555451536565,-1.5709827956685896
,-0.1952005043663653,-1.6443118368651868,-0.1637712780933563,27.29379806801326,-1.3817980002726762,-3.05475116522092,-5.452592172558922,-0.0693062118772009,-0.9952531357824129,2.152284380908756,3.219965056514582,-0.41620952184392707,-1.6962026280206421,-0.8088832379762536
,0.5094876914966162,-1.6502129098089726,-0.055633007620247865,14.066757166959883,-1.1538026537236348,-1.4901726936894888,-3.174456182272116,-1.1332750985113016,-0.6969518434452616,0.8362431545453928,3.2383628560517748,-0.3961464085524707,-3.0803085787869375,-1.0186379274820674
,0.7953569072367546,-1.938864522578363,-0.15999529059396791,17.9308656351744,-1.6699246148021267,-1.266349235273601,-4.695001791226486,-0.2888825280244302,-0.38426012684242944,0.010822191332118812,0.10279775515910064,-0.9425355933816233,-1.7071575525014855,-1.2963540804943097
,1.3472504610003013,-2.080356841428926,0.5251807679577996,24.39776254131846,-1.5922405897385865,-1.0880567664683525,-3.93178139741176,-0.07958946408323421,0.01778042731252481,-0.48705800926337295,0.14815516868707357,-0.05836214159413008,-1.3879513903490304,-1.3995873832448555
,-0.28047198853562666,-0.7557130587106122,-0.21930512660166937,-12.508440447178732,-2.24037553800788,-2.6793339338930666,-4.248354347283496,-2.1789789234859236,-1.7083789438652857,-0.994687562693708,2.244690254621014,1.304365149019648,1.9148188670957784,-0.29454958855688584
,-0.5722505059162983,-0.5118226857409846,-0.6749704755439339,-19.425313021341548,-2.197882317423025,-3.271190807120122,-3.2151072680060993,-2.9951383501343978,-2.942153155537582,-1.4687286976533382,0.7940029973383683,1.2021928294185165,-0.03754619582864907,-0.6238802495169613
,0.9286015693345765,-0.7372149578814341,-0.20885219392448756,9.85556197709789,-2.2953709777311153,-3.250614761508485,-2.6788554528590645,-1.187403377901176,-1.5682393734459603,-1.4186143249193175,0.20751451880149596,0.3026353710687194,2.9913967940413664,-1.2591352633530992
,1.038624118889826,-0.8564063437580143,0.22022889090935363,28.24962144330587,-2.2703048027871726,-1.844593002387352,-2.255724017429989,0.9054886672886644,-1.4445984996208632,-1.9781632273137142,0.7527784021085482,0.6235910926769317,1.609286474876202,-1.2015871205993576
,0.4827441163590734,-0.95651517031407,0.03508089547155986,23.694927501536284,-2.147932747789526,-2.1305333959135253,-4.071240063270084,0.8181053202028452,-1.7009808883244113,-1.4720197880865529,0.9761417351163516,1.011020156775937,-0.8054348681916887,-0.9134249199930456
,0.7875719197150183,-1.3371546389624593,-0.4270828714493833,21.187393680692484,-1.645437758190898,-1.9377774084062258,-3.0483309188316037,-0.14994363964882385,-1.73015268074332,-1.5728959118353274,0.6440975068041652,0.7315771582498883,0.43997757956508937,-1.367703989101202
,0.5232957958990354,-1.268005057920179,-0.44726504256959476,22.328978831776194,-2.065652091081846,-1.4578279281006783,0.6005281051617298,-0.6285099972871769,-1.1751145390051547,-0.7425697508928683,2.17777206402,-0.3728622638261562,-5.4883478700994885,-1.353410763393141
,0.4273106639543392,-0.7825911392911103,-0.27711246613939755,27.04810864373523,-1.5272045498925673,-0.7872424546934916,2.9233023417618678,-1.6683306776796853,-1.739221242232859,-0.25661813735963407,1.2496348431601787,-0.34122683110927754,-9.260952215125995,-1.045550257983388
,0.632438195751771,-1.8563169111184235,-0.19709989007578968,46.038686665608274,-0.414824520443061,0.38785309392217837,6.135904016016224,-0.23730987695743114,0.46136603435297524,2.6582312931006165,1.7570856924882712,1.0639674577754998,-14.741295476340044,-1.0782571192437822
,0.9070710543113966,-2.128429813774827,-0.11422759050351616,64.23993127018451,-0.5711732183110759,0.4263076193984209,8.262625743642687,0.7625252965916712,0.7556912000273254,1.1985845233838368,2.564784272894553,0.8509653252663439,-7.658583074366175,-1.4093660957903285
,2.2069231147599737,-1.8109432603878861,-0.14800638907422392,54.35781461523666,-1.698208434295254,2.202617124581054,3.7027153173972893,0.03975797526163558,0.8781578585644281,-0.07874704323216268,1.9336066533767238,-0.019763972230075394,-5.888049319878745,-1.9939107548497899
