event,eeg.af3,eeg.f7,eeg.f3,eeg.fc5,eeg.t7,eeg.p7,eeg.o1,eeg.o2,eeg.p8,eeg.t8,eeg.fc6,eeg.f4,eeg.f8,eeg.af4
,-0.07133868783474576,0.14056473756966784,-0.2819926360843323,0.3636115212771753,-0.22476009170194225,0.49474658426186835,-0.30534670722006824,-0.42167539503493134,-1.0923407216194438,0.287772926167106,-0.6571149228297666,0.19453533995988012,2.862934080939493,-6.07050563725445
,0.01832366707436423,0.747306402356928,0.0010141369737812441,0.6553647060367239,-0.20570325687596022,0.49195786545593806,1.823343954477972,0.13927716354084452,-0.732769660786258,0.09256796388698724,-1.2112229052643155,0.6609660936279266,2.2091131542036178,-8.843804686756528
,0.362588737117987,-0.34294518865766016,0.04104355683035442,-0.7731462133505707,0.5330652189227648,0.47168700985058615,2.046526614878944,0.29638655201773734,-1.0603656104214603,-0.8041405026340097,-1.2059710902261935,0.2627364854933085,4.44207115351502,-2.923750240083375
,-0.11022594638947578,0.2996746032330238,0.23406647425218938,-1.1044655620818058,0.2610233999471899,-0.8186427213986625,-0.6421054219434112,-0.7273833319757523,-0.8614065183873305,-1.1582108053551523,-1.473559558187167,-0.027734226175734213,4.51659750141242,-0.1887511054794506
,-0.2859285447427335,-0.13277463856680616,0.8284891606098574,1.7985338485660463,0.35036577585977846,-0.6102958154299272,-1.3265679975425777,-0.6794490260195563,0.9737650863350144,-0.7773458099578232,-1.0466021185845764,0.5489122712908714,3.7183574135715096,-1.1514579096243593
,0.10895993579423124,-0.8787319719395728,0.898236524068545,2.6834455179876304,1.3707564146877427,0.6282737565438995,-1.159639694380149,0.23216206685457141,2.4603388131935127,0.4251345532040583,-0.23304277893750805,0.8143170769576157,0.10468486494467541,-2.6630560416946394
,0.32417773637866987,-3.266163298723145,0.3496400092889472,3.523816700144118,0.5603033081695217,-0.24562099523860806,0.24232736631770063,0.049835545308994984,2.9605400616053976,1.0654290019521602,0.4299220043255538,0.9400476026820777,-3.196463935859374,-3.126357599485317
,0.545763660516731,-1.7963118959259556,0.6421435552501178,1.8827131461266176,-0.1286466076167152,-0.32153527135289833,-0.4602921952109234,-0.8467264557212425,0.9877216149247425,0.7247691193800244,0.7225481355568203,-0.44648329653480306,-2.046442333092854,-2.5600701974817985
,0.15122301489311135,-0.7985653943102704,0.5347209141785327,0.7236104436813998,-0.4744488357697726,-0.6024057635838993,-1.634678421984292,-0.4562291539870276,0.32336679853219197,0.49529107560777663,0.6337834674262375,0.2431734451186039,-3.3591342290283612,-4.235318162568122
,0.2798746426174115,-1.990189124786635,0.30502826383220816,1.2623723165853773,0.18048679138420143,0.9230361217816099,-0.0612189423719864,0.2014437802246473,0.05291777797503306,0.5786572112279472,0.505876407171094,1.4154430823444646,-4.4800544426902995,-3.7859572815780407
,-0.025097180074555695,-2.2079619103966834,0.012891751703535232,2.7750033975707242,1.7696977476483369,1.46142951797748,1.7339146644837733,0.8670407488129793,-0.23199211823112323,0.37705166113213934,-0.15358497472768304,1.470643873733395,-3.859493875835586,-6.938123902387067
,0.1487577308216955,-3.238122249009023,0.4978337302778619,6.580721361712381,0.9575026687695251,2.194083021706061,2.697126684224986,0.19499114934837214,0.17144524087718294,0.36516146904971664,0.2691817741717568,1.1627119839748223,-5.757025430385218,-7.52058564841791
,-0.06157407127766139,-2.0353155379686507,0.5232080141630653,2.147245702939368,0.5364703402787956,1.359236899184973,1.100665069631289,-1.8021516530216368,-0.7098802838546937,0.04872270518570529,-0.5853221925250474,0.22865900142769674,-4.703005896666688,-4.897997713651653
,0.6210250211134337,-1.5288327866285762,0.45039320326263893,1.1135486848284684,0.36289777864465267,1.053465374525747,0.5552213444207235,-1.2450197161136407,0.7081465165013912,0.15093894848863557,-0.7847729349704687,0.023005551953473462,-5.365470301928253,-4.081782939201149
,1.2071327749854615,-2.0237761865120634,0.8263867404008298,2.69943796232883,1.542984515244398,1.8183494379122906,0.7731960268369822,0.30388106688016797,1.5534286748778288,0.6401321725812521,-0.16415104087694352,0.6599577710155725,-4.022996450915901,-7.880079276189922
,1.003131760483111,-2.13579693182533,0.4583392983664958,2.8714638586860497,0.4501312086744298,0.4446385786964541,-0.28065853415735487,-0.5841287694252354,0.8335866146702661,-0.1417173997380045,0.48811185086016,0.7191598114290796,-0.43128746667098355,-4.703973371328534
,-0.3167272170790694,-2.0410617519821908,-0.1582170573447561,3.531383076853433,-0.22353388866152957,-1.092240211944627,-2.1845709787462297,-1.5752806786169153,-0.9495085237761066,-0.3582798403397478,0.11746669717174497,0.058616179694864004,1.9149840878355626,0.2410920691748372
,-0.38981767408407014,-1.0584796619804087,-0.32247476494975524,2.403991102049766,0.426073812952074,-0.7370164104724009,-1.5471176997100375,-1.455367789825113,-1.2191618950533103,0.22935658208611748,-0.07821856558735418,0.16353946809046851,-1.004430768334104,-1.393367724994323
,-0.12009054694927364,0.38531612231129275,-0.2872553503382873,-0.38904485957927604,-0.15600595598647715,-0.5072000352891555,-2.0480124146719367,-2.2450423617237028,-1.627773861656243,-0.12206322023071652,-0.7255582022779605,0.15838387975952828,-0.7861523033728798,-4.008124398120064
,0.11302301761384963,-0.7987302176687981,-0.47992273953390685,-0.7861855442882091,-0.9623696646170689,-2.105142437805307,-1.2697460459234526,-1.8187672470969292,-1.4492643677989372,-0.6191730488405511,-0.26318432153953575,-0.48530212221173874,0.9544337472452206,-2.940526986097252
,0.17629130264922455,-2.0651543830784806,-0.26369107167475847,-0.23039072621970638,-0.14188076631499263,-1.2153221838305255,0.4673603347803112,-0.8665109475145637,-1.0122851718007413,-0.8385713205182945,-0.29803759850549566,0.024470739861301043,1.6763328304501413,-4.885290003654942
,0.3061820528455752,-1.423373075263152,0.21488523507969304,0.9179327500880137,0.6434318967756151,0.7097296107763899,0.12534283228039897,-0.17970750898426882,0.8932746133194264,0.5031937392326932,0.5175696902152105,0.6452185043942954,-2.968677551076565,-4.104414399154537
,-0.3313485481478452,-0.5751187291629888,-0.19380092654709716,0.11504096815859723,0.3017098566712094,0.316564589251296,-1.8555947182292274,-1.0259343610316176,-0.3835273659004692,-0.2504834795156718,0.5170758069355719,0.06423560650620641,1.694502806662388,-1.8280710762368362
,0.012680441518679631,0.47071773414486695,0.10383955025947594,1.114331742337815,2.1487519880850976,0.835634617913607,-1.3837330429171355,-0.6672323113213586,0.21838705266256306,-0.2009787266113029,0.3562088723389313,-0.18525341246097315,1.5976208348057275,-3.605948410671471
,0.3680282504418721,-0.03970060483896915,0.4316317815687154,0.5837671002309331,1.5304730331891907,1.5495589857086869,-0.14138281465739236,-0.7373431854732688,1.0354096616584174,-0.24184112937540675,0.6741370518264695,0.12234591378897555,-0.29173885135565375,-5.963929619550154
,1.2191548490974626,-0.799050607325433,0.2842595374708786,0.670185562407877,1.7575027587782033,3.251245080331354,0.8817010606956931,-1.0903658083455394,-1.0323232206218433,0.20851483366705764,1.1905490345826866,0.7316132932311398,-0.9406273796466091,-7.118250311294588
,1.4123007975989033,-0.2511180999719018,0.5190220816928862,1.2851983106929439,0.30520547484293586,0.9908896036136695,0.16318718929380105,-0.8157660498814224,-0.29276646141598067,0.32923354332170174,0.5410349338792829,0.40377040904512357,0.6401226151354981,-5.377847405505484
,1.243843025325166,-1.520668853688311,0.6652260728583996,0.5332842241624463,-0.025697822403275047,1.312932595231977,-0.008552385797775374,-0.0022843172875376206,0.08568148399058431,0.17554936102169535,0.48585816831947937,0.27016493376381545,-0.8047662309648465,-5.641438489927216
,0.46236021206581346,-1.2166415848843941,0.6169570861929161,0.8571781691759016,-0.3013539831266133,2.6810326916752305,0.5022950287243253,0.003790979790083382,-0.9035584660224572,-0.21187275097224276,-0.01788179817321255,0.22393829737860504,-3.0508974603601566,-2.2873826158295434
,0.24413883065954328,-0.6289706464914397,0.3235869988780752,1.9781256696515235,0.519159836150375,0.9272941912753128,0.8520059703334665,0.90334516170908,-0.4887246173965147,-0.5664348314860027,-1.5254191569069966,0.8189456064669574,-0.4265888286459695,0.437902203931058
,-0.16611799965447407,0.2674226783887453,0.19397989457359127,1.5220267274591939,0.4907948292048212,0.5791974990417466,0.31804099708230266,1.0050507502688666,2.132131977045318,0.14168695359653363,-1.6659262829978394,0.8428952721065062,-4.6707498845130235,-4.261033000558397
,0.1144191318267786,-0.0017682367621322424,0.5610118516766216,1.0934305521228807,-0.046201452337570406,1.0131876623113467,-0.5258359382571143,0.18505564198412047,2.3651391385252607,0.21431874305104612,-0.7254082667377189,1.0114836917337888,-1.869600603884592,-4.8656662568399796
,-0.05929836554118358,0.4604112140002579,0.671787971485562,0.639487829471405,0.38397552552799086,0.6703385295507157,-0.5710803862416696,-0.45560225699378293,0.9575481133125106,0.4773998020545813,-0.49077578557508506,0.9976905816442162,2.053757650930905,-1.8172257170384352
,0.011381890577828416,0.547639686466287,0.5631874649186771,0.32460629592975215,0.6964634285834346,0.9739353870235177,1.6864883015327208,-1.2578403847830455,-0.7947874009479483,0.9541503519801507,-0.31461230305456866,0.8388726764963135,0.26631380427216766,-3.1571152020917927
,0.3345464476856037,-1.300644391787272,0.8151466739686964,0.750725933789802,0.9003394234921,0.9185598843204765,2.2786639844010743,-0.21988867916813884,0.5481401117556318,0.8864394693215839,-0.15946044668650958,1.4809317682157683,-1.3274402575382969,-5.429745414946247
,0.6191822976392597,-2.9466698926327375,0.4021746253319596,0.5521843513692634,0.26042715033938907,0.5532766609376455,2.0138013056891957,-0.5408447230479478,1.275631649943877,-0.34728772967743665,0.21285241484311754,0.659366851087301,-3.0117520179374044,-4.350891706850253
,0.6460587570199413,-3.089271827986447,0.07404023025561621,1.02383457082327,0.48092502000051407,0.2184614289590166,2.469394706536731,-1.1994362950374244,1.0342330870988106,-0.10474725836184763,0.3537709104044897,0.14755600213400913,-1.1166403168322043,-2.329256797375609
,0.20634859990853616,-1.3226970639409394,0.1497393633025716,-0.1377444103133938,1.3616070921313288,0.9281328358730773,-0.605948164602543,-0.004583494584940514,1.9513360400277315,-0.06567013230022578,0.26726226530306757,1.0347915632830755,-0.35262926456451116,-1.0468028243616
,0.30019240700044414,-0.07220516498845311,-0.013640993114887385,-0.7975153674574103,1.5848430157336233,0.9625288508423181,-0.7842428015741051,0.12448820695199946,0.40105931557225605,-0.6882211217534642,0.22943895041130338,0.5919450106845253,-1.415097100736787,-1.7580509178878245
,-0.03237148542568401,1.6332634588327368,0.13905434227609834,-0.7698142356094665,1.0086252870663552,0.6678687826624351,0.8271145075310454,0.282246668206979,0.4399500051903435,-0.8958465765307821,-1.3064464310005341,-0.19751984343499127,3.7287625176389056,-2.272772789509162
,-0.11217065804026743,0.691823772528887,-0.16201653190233206,1.0092473520063514,1.1163181536227755,1.1223334204978066,0.6025584304908183,0.25356977888845483,0.7582948711901173,-0.433535416500484,-0.6758258365389821,-0.208996253053302,2.31538509407648,-3.537419661415863
,0.4017928888593588,-1.1581468641426285,-0.2017306946568804,2.837307525327367,0.6625593336552845,0.3388684430155474,-0.052138209794060135,0.4456057712671003,0.6984974076847399,-0.29126274969329563,0.9679800283345833,0.28803711217429434,-0.7129568795901701,-1.9672779213954996
,0.17537742358605882,2.811380235440764,0.08362721367293915,1.1337510477381694,0.621921906935465,0.6479885925196112,0.34415946374119455,-0.2059114852019492,-0.19016533443758396,-0.6133248295358239,-0.9515282409108178,0.05497300371694472,1.553777045493863,-1.454647899388691
,-0.7950138523698215,4.244820710790715,-0.37319064080572095,-1.8315101926744821,1.2524035441312953,-0.7356832931063004,-1.0601118019392777,-0.5003287417801501,1.1778278186947793,-0.7607954901267188,-2.371222514485306,-0.6085160037062007,6.424462414582176,2.912805152781835
,-0.5899317223132166,2.5991435207023446,-0.2358558170549003,-1.1466811977703055,0.9294575171631394,-0.33673650479174266,-0.9181983817166178,-0.5209636473788632,0.5096995998449834,-0.4119007462352782,-1.8300667691978678,-0.2182702719246999,4.044676271473731,2.995084753463513
,-0.34135159338980203,1.3053728633907444,-0.6107479108243484,0.4311260323894384,-0.8220607457954096,-0.9489018066936946,-0.35341907872607414,-0.4153047246084124,-1.6477270788310907,-0.4005090244222235,-0.8807524679110519,-0.4876501157520149,1.792654567527948,-0.787682601795785
,-0.4845453650221529,0.2604847466269854,-0.5331128973339898,2.7957498410445316,-0.05631124680117419,-1.4690382561576019,-1.3385830108873764,0.072988184333368,-0.4523741426061811,-0.41896493124953343,-0.9361840839593981,-0.5263490739868889,-0.5317042852981844,-2.396280096120193
,-0.2862039333396345,-0.24184525882393038,-0.41368677620588473,2.5452463042468554,0.06624480457806713,-0.9886444781685373,-0.7514906647303701,-0.07014391986425338,0.2673612563479492,-0.4559263036675597,-0.33267818030100793,-0.40059625694661427,1.3062241662037908,-2.6468137279609874
,-0.07928038834992053,1.5179398716114105,0.03329773980551324,1.3488203329740918,-0.7293376983332405,-1.1511072991398832,-1.5012099827060976,0.19346842247334342,1.3473491501317172,-0.17622438708016117,-0.6668640609821505,0.3609153462520476,2.3471105633298723,2.121929076859097
,0.5516785029038609,2.4108962117231716,0.4413609349508486,2.252760174002303,-1.244829547089687,-1.7610831908867954,-0.6782203084305999,0.8340254930264366,3.506606580462236,0.7050460778354453,-0.7901669331827356,0.9053221794112803,-0.3132746844969613,-0.5589446913625616
,0.3828481267652217,1.36695047229482,0.39728722054386145,0.9695507645084068,-0.4127986268556115,-0.850786457367344,0.5062642948522448,-0.3346781183184175,2.217015293437209,0.3016398149018758,0.31469952932015366,0.04907345917597089,-1.421365416702332,-3.368627575377546
,-0.09190248767253839,0.7972410348218322,0.29225339647577275,0.8121065219558998,-0.24205281523635905,-0.23777450747419057,-1.08415143950209,-0.3185041250327228,1.3650877334627223,0.7159571861785567,0.04071303217788509,-0.1509572819744045,1.4477759456931538,-1.631604105069816
,-0.4199139313839062,1.9367180561419166,-0.542838941381306,-0.29799293016156836,-0.9633924071698368,-2.5543765271161383,-2.9410418752585246,0.6076917731120682,0.4373612298584023,-0.9077352720842554,-1.9751868993125081,-0.992610530478376,2.8918469608823383,-3.1888091355650294
,-0.701807120739688,3.0198999531577178,-0.8454942844612658,-1.0924230397644978,-0.7262730150107969,-1.6794286496376545,-2.547912171957318,0.2412802789592107,0.5969664764637771,-1.0199072541566345,-2.1660754614652005,-1.4664019042300707,3.8412863081810116,-0.10869340497832407
,-0.5542193873895941,1.286240428101074,-0.7070323878983656,-2.1465025574645553,-0.809520225417907,-0.3603048763383403,-1.1092411816533043,0.40590601323743647,-0.88722302768841,-1.0731915838296457,-0.9571283927399281,-0.9129910789813072,3.2181847601813187,-0.22731612724687622
,-0.27936839735539354,0.05278332061030037,-0.7590034643221147,-4.121690587515244,-1.437485755894726,-0.9418809160656244,-0.07737952473248648,-0.9942956469701535,-1.881570160215464,-1.2547444204020832,-0.6314269414382238,-0.028456732222674253,3.7858026428330303,1.4462071782716985
,-0.27966270999536363,-0.07128274758938548,-0.4174156716223592,-2.355057333400713,-1.1543454057090798,-1.4553710873567962,-1.185733918635054,-0.24717286140375233,-0.4819528823119846,-0.37446632811870595,-1.1939639228159233,-0.4828612245388275,0.7782188945705595,0.7732150686133655
,0.35840754033131283,2.330198223665501,0.02291060664909061,-0.3786716852597336,-0.2475505301999814,-1.4691361346198353,-0.808554951739059,1.1511096393026707,1.769209279599662,0.20743724385270204,-2.235779474566288,-0.25925590424976197,2.33782447289885,-2.9194204315120054
,0.15570486973340883,3.083550104236608,0.21334177482256841,-2.0026943182673187,0.034632293275828126,-1.7789582797214167,-0.46673972148263704,0.2104811707139954,1.6616864531912063,-0.429408384476474,-2.6065785489144866,-0.1270507381353056,4.850364933803362,1.0542672100239718
,-0.9269548216945157,2.7093685355379606,-0.49535510995932963,-3.8246573983574312,-0.31500019795132206,-1.486127940585551,-1.434486013285886,-0.7618904999557556,-0.7902381507717335,-1.389454676699828,-2.406407098636069,-0.7594743412171914,6.6876444763173595,1.65046341688898
,-1.2897368268651141,3.6164749814909025,-0.849951107500994,-6.755287622783762,-1.6427144849918331,-0.3002831892629882,-0.917367882692378,-0.8908634032338684,-2.6180480550682907,-2.6012117930972196,-2.708660207790953,-1.3846513275045955,11.883625574451905,-0.0032217728653113316
,-1.2816828028896965,2.4508799603441154,-0.3247679619367882,-4.371995188658335,-1.393729430059011,-0.25229478305198655,0.3810178752809852,0.012947260858974028,-1.4252735868981923,-1.904565213151081,-2.1665488367181442,-0.26041339552225734,9.188440130055195,4.713392835618892
,-0.9738808729591851,2.144165938278605,-0.04126287882353465,0.3877821429670658,-0.005799425601273769,-0.5510362579642775,-0.5800439064034485,0.40619700852384816,0.3408206779480083,0.23298199792148136,0.10423396340506631,-0.0626969220822198,0.14659096038985925,2.9228661453851736
,-0.3965780936647371,2.408412690407964,-0.26000031748919744,0.46551610288665835,-0.7993502810779708,-0.8722705031144204,-0.04134331411292025,0.24369395145965014,0.2640194644937115,0.4275778629004219,0.48729434967887497,-0.8839021631385301,-2.4177289842189786,1.2389453648384978
,-0.28587559745732344,1.6754234468469795,-0.4016403785612511,0.7777427086412342,0.1394620193475856,-0.40445577593730997,0.031946037699057094,0.9533118719993247,-0.5702361111844831,-0.7423064647768097,-0.4035081100986026,-0.7045725045436666,-1.2666398467856448,-1.4089370029917616
,-0.8531303871879565,2.575318415004995,-0.45049393345624533,-2.346271791162485,-0.4220292329455266,-0.7583405340761371,-1.1845403845498228,0.06605735346616705,-1.5256403485930201,-0.9398184961059458,-0.9032583375971721,-0.794543999811667,3.746965211412987,1.3338550820488477
,-1.0021680137462519,1.9887639397254342,-0.6119420022242027,-1.3252213581071735,-1.0816448096850584,-0.5287059654036489,-1.1173088974323233,0.27528800128493136,-0.5097770774113674,-1.070905901668353,-1.1908091625801385,-0.6313543789573043,4.791968519729732,-0.06468397441636577
,-0.1049584008737516,1.4455232373358695,-0.3094505356198026,2.111147320819602,-0.9908089645294877,-0.7222648678283031,-1.1956062923298474,0.5057296247440735,0.8316980237806371,-0.7887303908495045,-1.025601460303466,-0.5217490399872329,4.66686169865112,-0.277797254006477
,-0.3200656831958418,1.5292789684437127,-0.4319426800650828,-0.7563398168414257,0.7872319923851809,0.04990526945113154,-1.3830690819436524,0.7059008212104885,0.9240822923145938,-0.6307453048335344,-0.28424451011265395,-0.356652956591718,4.837770616386757,-4.172116770067077
,-0.9354089034952431,2.3484610683706557,-0.5570490952633329,-3.069027084679334,-0.41007925657668326,-0.30413776875264636,0.12920765312094457,0.7039140595404183,1.1133986602607002,-0.4114746792956496,-0.4620860738219418,0.18083084834448535,0.6852595693813173,-6.324478754101992
,-0.6051592583205864,1.684445720200882,-0.35323400843838776,-1.9766471961663936,0.4092780232258363,0.38177275012024137,1.0841463061958112,1.1736629484820216,0.8081145675243568,-0.5734172774047975,-0.9493018949901793,0.4359471307139766,3.531986602045593,-4.74856772362526
,0.00946932490218648,0.3416512830172478,-0.16780564286800673,0.3964343394134885,1.1282001513717448,0.4846014652591091,0.544449578715095,0.7358746875310592,0.10647608530747138,-0.6416081665074839,-0.8297533446517641,0.041003096078458805,3.8258226938189326,-0.17441418470982153
,-0.3798341706556645,1.7318205066298822,-0.09977685592569262,-1.9101291600724593,1.7816138808748194,1.2638584578983851,0.40292275091855245,-0.1187445341561545,-0.40608363230755923,0.8720307261489069,-0.8451325857872314,-0.2840796779223999,1.8073666022918484,2.2021431401532117
,-0.24453159738283856,2.9735926347555157,-0.31490695813376307,-2.1676993019521023,0.7761898177637199,2.488882058798839,1.3301289141498664,-0.21303874004269674,0.17648731687606645,0.19801711380667936,-0.9005364798913165,0.8194757931750809,-0.7031215254844325,-0.7509891589137792
,0.32546588914542024,2.6702689498092385,0.05761531935291799,-3.193274094549805,-0.8744699945262623,1.9598413077207253,1.0691218757386916,0.8136521710273278,1.3425584427881838,-0.45768253233354045,-1.44591485854203,1.0403518912273946,0.052309363905975265,-5.977500576051015
,0.17099922597915518,1.782084891552487,-0.013047449859155963,-2.167756399234192,-0.3242353525982531,1.6619457398763113,0.3099071612990098,0.7341199658785137,1.2127808964064823,-0.54448881749296,-1.423487444000779,-0.12615748316111652,2.6453357821729484,-2.8205086086930495
,-0.2616501879204995,1.4111403376395217,-0.20425837424808843,-1.9730425642053324,1.2044476477045967,1.48781854809811,-0.6126817928934181,0.12255357986565964,0.9761371024255481,-0.3245238551349998,-0.8118844608361226,-0.21155044151880054,1.5301117225048737,0.650476128476801
,-0.267823389793923,1.801912682231128,0.26269735449976733,-2.9784392914451776,0.14036438235927506,0.15394738810602887,0.13222814561195692,-0.46296524192001665,0.7067849729919291,-0.1670245607495772,-1.7210165594495552,0.2629051308407636,0.9635797182185212,-0.6572408776595635
,-1.021906760836327,1.795853143100185,-0.22820469826788414,-3.8205590634936053,-0.3589406962120263,0.13798287386665845,0.9902287242484832,0.014197796963636804,0.7844027998154602,-0.6787985261484992,-1.210546115577186,0.09304915881078207,3.0006515813932317,6.3888213780382115
,-0.9091156684916808,2.259213348741984,-0.4203034138711199,-2.701299593609275,0.026452006138900492,0.9836313781350263,0.44090675481870895,-0.13894579433184706,1.4973711739058149,-0.8068739631549054,-1.634870828490278,-0.22779852712220416,4.424347103509433,7.303797625742576
,-0.35129726967505215,1.9704435862036196,-0.12928265600210417,-0.7398364298131425,0.5287665176350197,-0.2615346497885755,1.3332419098269817,-0.2424587752497108,1.835842915838537,-0.19481102702939962,-1.7847579435818435,0.15807788400991887,3.02333539215879,0.7708176229763919
,-0.7255401611029905,2.3712333940054955,-0.279109305280251,-1.5699127806767093,1.58534219349249,0.4589034651475267,0.9463059202048317,-0.014797284340090235,-0.06938118049152989,-0.2690604596858202,-1.3015987664694935,0.5940715039677325,2.7744063570422712,-0.7792959418451553
,-0.6921771585042873,2.42091570539963,0.09690881977718935,-0.9178252525922937,-0.81931283080215,0.5802960543465552,0.2503733831065576,-0.6402633126748817,-0.5913617569962804,-0.682984284773376,-0.9691836575415115,0.6068292731703983,-0.19409072308224706,1.9815857304643967
,-0.6504630119477355,2.1071848764902525,0.7435691205026063,-0.20993433547916576,-1.8444038903447137,-0.07069110771096439,-0.2850192794120171,-1.1220042785765596,-2.1725365091856723,-0.7578666651389264,-1.4551383997610225,0.45864284332930677,-5.439469070522161,2.665568569371659
,-0.18270659214618282,1.6633789818428197,0.27955398796176856,0.5811714754846075,0.2495671568481995,0.41198430947395914,0.7338848176120618,0.47139233753959303,-4.885810788772518,-0.40072700743906914,-0.652101885688097,0.3935708705367084,-1.15132329345973,-1.3210314253455875
,-0.13662118806906634,1.4091474046195611,-0.18616219790272176,0.4496834445532699,0.09167514070600169,0.9183142627952083,0.07791340217799214,-0.1366358837098949,-3.074792566053457,-0.7775125495151696,0.10525611232210987,0.7193489915050191,-0.06895679390649964,-2.2795646383830253
,0.10048381166170542,1.6801241154355293,-0.016933692850057518,1.7641684489147058,-0.21790897162650386,0.6673362068566627,0.3239718656977835,0.20415781824382423,1.4560933027394007,0.24939179821122748,-0.760408384998268,1.2201632971730427,-3.587767953981848,-1.3802327642088035
,-0.32789787016646377,1.5708321932495044,0.6527414731527381,1.2752866302500123,0.25225650076687545,0.5641559415670423,0.8679865720731276,0.08245796020974956,0.5029882935609672,0.6414503804555213,-0.316128955995592,0.7439872623909205,-3.222810160703766,1.3868966966258711
,-0.26919687917261825,1.5497338245588625,0.5228341532073801,0.6650879751253806,0.4530412628861965,1.8820667917545721,0.592496346822709,-0.6471302142254839,-0.5420338197835257,0.2379444120184521,0.2225218557776055,0.41175544145363835,-2.0087041110029795,-1.184291989652201
,-0.07809321730706224,0.9040183613990533,0.35705883871672583,2.1332594778027496,0.8515134038567748,2.288701594166691,-0.1804468142899033,-0.16583650325248253,0.5472707869383571,-0.3433964339114401,-0.353542517922998,0.5303804843643841,-2.0708115672137986,-3.5843250684403642
,-0.06251117324221994,0.7209025580002615,0.3224920195654142,0.8891573244577913,1.8823992548288673,1.4331669507455953,-0.3432895615110503,1.5198876910387065,3.081569898294651,-0.0037438016488980136,-0.4667478302941058,0.8061476263689108,-2.2087708350495237,-2.5062219884138592
,0.44059502587475835,-0.28193706632124665,0.7084877600088288,0.02407959641114053,0.24789751054896916,1.294234062191423,-1.0499859071858357,1.9454730979759438,2.90066955691053,0.9175219427152735,-0.16962483159176026,0.3068149418059077,-1.3846034353098189,-0.3182660982010694
,0.6201655266153605,-0.4282774946133224,0.468812409285676,-1.0634010703862413,-0.679729734904551,-0.17538467925354165,-0.9584933645796254,1.0734953042045394,2.2096941053678596,0.05082714232246576,-0.30527855122008923,0.5080708529240959,-0.7419882010732601,-0.9474050090613484
,0.059708044914975694,-1.0387369633660495,0.3820502614310102,0.15831979883098482,0.7062972392782307,0.7574967024816215,-0.8822455944707311,0.19883432609802879,0.27340933769980874,0.019058442340828183,-0.8948019362818108,0.8416201018866956,0.5567931474643707,-0.8645761222990501
,-0.3912382907306788,-0.5483517524926208,0.14890237083775743,1.5019781575283042,0.22862936119085486,0.10187750476778139,-0.8464254240475895,0.16919737910496296,0.6724358450413179,0.004248470186933443,-0.9280796969828535,0.03256120741058798,0.03247361465608355,-2.8569263799090603
,-0.499365270811026,0.6578397241023317,-0.3034041095734908,-0.14426306660111277,-0.035738559035470054,-0.461863851857743,0.26099822244138615,-0.45153631125283794,0.5709956637210017,-0.03454296967136009,-0.44298128670422116,-0.09644625658643781,0.15306426595672584,-2.1309477402007184
,-0.45710467103938696,1.7891040010693546,-0.13307041985542717,-0.9016071492480368,0.5171086295446511,0.329049003560527,1.4661256320198597,-0.282875548267854,0.9285830570899303,-0.2422134567058313,-0.17862671960979665,-0.034748323380760254,2.415288345183409,0.6692812054547846
,-0.5677653815748119,2.350699519141888,0.014442519086288165,-0.8372774298798317,0.6005499901726437,0.11735810480975413,0.8728465120062819,-0.2515862936364854,1.5378184162878024,0.09156013197074171,0.5321748015033667,0.20238414035473676,0.13672758471503202,1.9558578752709146
,-0.3339903584238436,1.712309018486726,0.1656966220759814,-0.6982303690270478,-0.3240912599705449,-0.2474700864366261,0.5384131270260051,-0.3358193031833278,1.233343718287576,-0.037072179614285085,-0.43574054066718837,0.5272676892556905,-5.476661997283609,-0.7232358605724329
,-0.09740196238413948,1.4857184677922057,0.4477023911027438,-1.0072026621586336,-0.4616184819891298,0.6170291720205585,1.4977722117224215,-0.07890814150401917,-0.6372642632375852,-0.5195230342170264,-0.27409123912442,0.5378961666077389,-3.4961161891548365,-2.044577739434276
,-0.15512058906373216,2.2711612127211462,0.27497151717280566,-0.033671174072582404,0.9538167744682393,0.5492954513662025,0.38782621834486436,0.5192185724447204,-0.6622591625061076,-0.10846722318260804,0.08667722564879715,0.35275541536985855,-2.56977008094338,1.4585447309926822
,-0.09990930175870642,2.2716196377077567,-0.01773178794760165,-0.8324449181743816,0.9532816575009729,0.8566793570201837,-0.19939748259368315,0.5633753770617895,-0.2595229803057006,-0.2978181363992067,-0.3547549750153648,0.4841399389127367,-0.46863258963752596,2.05898945949281
,-0.2583178735101268,0.8785134260860016,0.05176487727894461,0.9950634782285973,-0.4291947707018977,0.7769259980276183,-1.104655746980537,0.40782234795434924,0.770395384456229,-0.3712809602953327,-0.1480882839180633,-0.05313770809953555,4.3975911863526145,1.1597122837635794
,-0.6956071740578058,1.7157205297570255,0.15790558063739926,1.746273552480836,-0.8399288077371164,-0.30630498076222634,-0.5230854879201908,0.5392105655497974,0.837636796615589,0.1113621670253253,-0.5432979692978885,-0.41574762114489544,3.0970106207313566,2.894987208019456
,-0.4726814462184283,2.3292249913580148,0.23562666311983682,0.5245015096824663,-0.24438547239289227,-0.048239469255390945,-0.575263031568002,0.5056341962744444,2.19410410857461,0.48260895698571843,-0.18623262258985482,-0.529930748434415,0.11040639886836234,1.1245592676459333
,-0.8069612086639161,0.8658883213857717,-0.3841228778969487,1.1420994542383003,0.07082678670115526,-0.510052344297032,-1.582973910592069,0.612215669044598,2.264676203490208,-0.21237479273485077,0.05818344521241907,-0.4314472912964413,0.5330502817916222,0.544485684134022
,-0.7102481106311015,-0.04821709757072084,-0.553368355544304,1.9613486129477653,-0.4237571198963751,-0.8239137975217115,-0.6990482841243861,1.2269132348263179,0.94778384604106,-0.6861869186977704,-0.3101361303012179,-0.29304309663537964,-2.3830134117827186,3.1094583569213246
,0.14009888465303885,-0.9596693168916595,0.4911282495190789,0.1782439357240931,0.9451349943444333,1.3970763828926165,1.4732710100477704,2.0337175921691184,-0.10620945329371971,-1.0400932623682433,-0.2819370817005864,0.7380994088030477,-5.0442432588161115,-0.6561995609126046
,0.22789624883157714,0.17155334913439216,0.3118231092893476,-0.714609472866818,0.5902531125226778,2.4797639105411218,0.25241801513084894,0.7880148864523183,-0.2877628093949838,-0.43339048801237545,-0.09416906601984752,0.320084978518782,-2.146387750806099,-1.3855321368711369
,0.44173240411862685,0.5563951688038338,-0.3232433505043898,-0.5287773621606735,0.20938056692254783,2.253795516212486,0.45424832658973596,-0.5322734451328872,-1.0393201817664552,-0.8856925108741993,-0.31544707637840874,0.3749768911111685,-3.0229701377240072,-1.6210556005723604
,0.3274433431092763,-0.2421713323690959,-0.02965673919495988,0.4099437744839254,0.9286280196587577,0.0762925808838614,-0.5548502414088468,-0.03302193674336585,0.05595305697153995,-0.7676695672257728,-0.2776750341163644,0.3352373841555704,-0.8188856179394421,-0.9734494881448199
,0.11912749726454791,0.23563936398471416,0.45379034794351913,2.5656703774105383,1.4122207464893595,0.9266913375972645,-0.5987675286807552,1.2258423623764954,0.7878734453099903,-0.3027348940684207,-0.1896428065222299,0.3202212786058791,-0.7581747591181683,-5.583814189802475
,-0.19886915899399948,-0.6581491445972472,-0.03971703823956984,-0.9142084335329,1.6862440507355094,1.702801831551127,0.17889498975514448,-0.2635782017230886,-0.8370693926786242,-0.6577939321060209,0.7047676850657512,0.6056864876176025,-5.008919980607017,-4.703890304382857
,-0.9578331229587115,-0.45958126965682705,-0.15526951031868289,-1.0105432035984905,1.9676914539529753,1.4539548793537813,0.6380379465231213,-1.3300288530550308,-1.8145680511221574,-0.6893951557325713,1.0438648802291475,0.11938454741619854,-5.485243594617121,0.22649994803693613
,-0.6155411221987976,-0.09606201424761537,-0.07451865547501745,1.134649621941378,0.6934000439014029,1.2230090307691384,-0.1133389427203959,-1.1425831491400735,-1.165832166524836,-0.38688096915704934,-0.20076505791888244,0.10602128438674524,-1.825165805388112,1.3645366173574047
,-0.15206071944724162,-0.7401573892959141,0.18883339686022577,2.580495707388461,0.058160328646849536,0.8508009268664161,-0.3423672212247694,0.3449833090706657,0.5615558486805609,-0.1874962367462606,-0.6858654003703726,0.9220630662879485,-0.8153250559935802,0.9814118244389414
,-0.03199485410240528,-0.4866173276277454,0.14849149094569022,4.647347900405703,-1.8064857425856404,-0.7873557939700468,-0.08659257370489057,0.6961710801846619,0.9858810860938122,-0.09059871746864999,-0.04837039785464494,-0.011222777987313021,-1.314591416035441,-0.18750361341371025
,-0.3752180734668342,-0.4049965874273378,-0.46303396701264177,1.8063557280742903,-2.067247054905554,-1.578956037230015,-1.4678143567257034,-0.02745155423346327,0.09003507377884802,-0.6071282126374488,-0.06450829008797755,-0.7232969661725922,-3.5187527644417593,0.4503447348380949
,0.0884698991101792,-1.4194841129111073,-0.3534139307793701,0.7108270928891182,-0.851039331777368,0.38891536976744434,-0.8095764281413695,-0.1999924609644755,-0.7929399842105539,-0.6323333865046339,-0.22527301614165113,-0.08537218969042175,-2.4583280607233866,-0.6486051895594638
,0.14056348316899803,-1.1023985581908464,-0.03323051646644246,1.1269657144638012,0.45766646918344617,1.8610446176868853,0.2664873475859205,0.04059431920292604,-4.37300819867311,-0.5378786411600509,0.408828898560962,0.09011869099915987,-2.5705266859315086,0.08197857313293638
,0.2980719268933886,0.17899199420615666,-0.03730419438121864,0.9747585982184797,0.5941169600696162,0.9048890968838538,0.37450255103932684,-0.34194209346822163,-4.711435118890577,-0.432594678137373,0.46693272544455666,0.4422917206079301,-6.339635399095457,0.9937374208221671
,0.05681062816202177,-0.2516920188921654,-0.10387673065246604,2.4636125001919975,-0.9527634282761889,0.950399281474335,0.05154003179807177,-0.6363624287431198,-1.9849149550557625,-0.4689836992412447,0.6975824868401636,0.8378544714200967,-4.428486461149841,-0.38872842578452704
,-0.1834419554303744,-0.7437714146061556,0.1964459584790689,4.288728485500586,0.044708662245316964,1.8091455564580077,0.5807343058158286,-0.5904692097647166,0.2552159254836777,0.35904779259164216,0.8092309475863255,0.6241577486564042,-2.250945339275431,-0.28824853075703033
,-0.5337273181746586,1.5793083159913084,-0.3894177131510818,0.2235685000634839,0.24455867326014571,2.8983817140323875,0.8370209106961422,-2.045286030451832,-1.4090908107915825,-0.6120844136469367,0.21031536320464095,0.1002795323521395,-2.170761394724279,-1.3887392478588754
,-0.5314265264944346,1.7722309024488647,-0.09891674312659464,-0.3579857615404605,0.22276551225502647,0.6869038900581733,-1.0099311258596355,-1.0260774932207715,-0.42492768803744685,-0.22059319112923945,-0.3631526523766162,0.7122270780580753,-3.662021069622325,-2.6133506756133653
,0.21457683292203575,0.5288368319009438,1.1253293188304567,2.549851236015531,1.213080123108187,0.5887651852835027,-0.8828737849173329,0.7117309583736283,2.8443610684701714,1.413604942128623,-0.6273873798975198,0.7897968419910686,-4.638443223103704,-3.7515649729463556
,0.31106153191801084,0.3555677151543539,0.402300784328022,3.7611904005422674,1.832257746235952,2.2236204606938705,0.5199738209892171,-0.11092502497879482,1.0166144893345268,0.2554681279733643,-0.4114904557728147,0.19058248722010385,-2.439894078714255,-3.6301011723660404
,0.06856658774820303,-0.84858240333437,-0.37075545937540594,4.180173633215557,0.1737800156734853,0.27966071355666106,-1.057252255635763,-0.775481646663265,-0.24329186727624416,-0.7102172536099948,-0.8443607294939102,0.07792840966279403,-0.625611864318368,-3.1972637420197727
,0.032478348143292174,-2.6119114955337315,-0.4228977216873201,3.464195489129557,-0.8217229613104148,-1.377033997868459,-1.6556978802208948,-0.7165777866242898,0.5875168066969804,0.09763335604762416,-0.3391796584029283,-0.19336757102295898,-2.159327760780338,-6.53331661775309
,0.4063157991005251,-1.5950537201803416,-0.1633912638316851,2.0364379360336473,-0.08144424679544734,-0.6310939923584732,-0.38331626572746674,-0.25419395447804094,0.9506522480583476,0.20400545530831912,0.46037308135748767,-0.1428106824021616,-3.509621832647561,-5.188401283849746
,0.18862243437937512,-1.2863763521527396,0.16790562457557553,-1.2121903759347534,0.2793249169054576,0.3441362209951774,-1.1712470177254264,-0.6566381244454518,0.44042918270430437,0.07101238459567502,-0.25319023406228114,0.22787167532310118,-3.7095496717400196,-0.5939560890551471
,-0.0017183494940508882,-2.5381755113260116,-0.02512505128789421,-1.1559055492012038,0.6124094140837373,1.5358864149664342,-0.4193795333595497,-0.04231513228157565,0.2799318170311676,-0.18312695793872505,-0.10123655432361188,-5.081707031017534e-05,-2.203055764321223,-2.776994925262783
,-0.42164994668153455,-1.349253222266577,-0.46784001824503196,-0.030567989235216416,-0.8436162071635618,0.8462179719472744,-0.07931415870168856,-0.48957268461314374,-1.1747534567756994,-1.1056899058973377,-0.19474539025896176,-0.5450309544930068,-2.2066240945402185,-3.5283538165146577
,0.21022260384141145,-1.4261218342303432,-0.31136700289395797,0.7098205696781915,-0.9717151796110415,-0.3489886329532778,-1.481194676360787,-0.5700088628855212,-0.01965165644865792,-0.41071446323140526,0.27028015191938515,-0.19145409594344293,-4.704354074926058,-6.774280713859524
,-0.1392192824196716,-1.0605252835252499,-0.04182387213215385,2.2603909456239046,-0.639291395987124,-1.097988552959422,-2.2365574624056372,-1.7395311345942885,-0.43513511637517976,0.17283990721408415,0.573154877274178,0.07846359083670411,-5.960452335482222,-5.561325955377908
,-0.4889917973194382,-0.5454094235784248,-0.016287814340831794,2.244614455008093,0.13783223302992315,-0.3117338945213954,-1.7044727880783253,-2.064034353470424,-1.4878766169837332,-0.30038333551340446,0.55905662555175,-0.10228019563572455,-3.27725218684822,-2.317449681643448
,0.12895195478170784,-1.942382572617647,-0.10591682164496256,1.4688864882025359,-0.328208628562028,0.25915617288787546,-1.0859962156949663,-1.4326566792099293,-0.7737241372250291,-0.15493198884216716,1.574578999653326,0.0219292320010225,-3.616859157638373,0.9595670429758407
,0.0485566370700232,-0.7773619300127305,-0.24515234173210515,1.5509471846845078,0.8881862806546721,1.759675205733136,0.671896165164106,-0.7086964191547434,-1.4525878851628946,-0.3872030959019994,-0.5451559773168119,0.07092729531005167,0.37097940571876004,-0.42191652070825864
,-0.14096405695132877,0.5721892226666325,-0.32975195748622593,1.4094057271955762,1.1786179760779316,0.3576746455221181,0.7502847350375628,-0.6078280877230433,-0.6264879450603825,-0.1876960677932172,-1.8986435726439914,-0.5116610636188349,4.42718383211173,0.28264943257090047
,-0.14316785593736064,0.5587484756792915,0.025287341159432403,1.9590726997428378,1.1421285422440428,0.44471658562451916,0.6092615020597438,-0.2461304566893113,0.5011131579360375,0.3618855008288055,-0.8782358323468394,0.013210949968667406,0.6379667127880995,-0.7651245626373748
,-0.2663460922967938,0.2879467760580926,-0.04357344819127707,1.5032808457559375,1.0436710587714446,0.9602982292318798,0.5664420643040575,-0.3764951399929659,0.3448449213701573,0.8084881446758613,-0.09027429578078196,0.36272851573015946,-1.6683783602678106,-1.4910425539668337
,-0.48751128159920093,0.39727854344149316,-0.2173741431858374,1.1182820936289826,0.41667172004301045,1.7927062332951524,0.9169879823058222,-1.0115586664410094,-0.6176053226206232,-0.3322255076473911,-0.561710574851629,0.6314968972475393,-0.276636770503947,1.741132895253989
,-0.5192518681301425,-0.23198890698044755,0.1352381186666999,-1.9175465938288523,0.31397246479848206,0.9810981086482367,1.1434914937111098,-0.9000953823761979,-3.9941272703821724,-0.23114036061897092,-1.4404236659839336,0.5632441641087794,-0.8260587706324778,2.794150638239941
,-0.38886396413402646,1.1215971489794734,0.37674212811478813,-3.3055241585844968,0.14856019976188573,-2.806340439562666,-0.29778322413019126,-0.6003803697102505,-3.395087925329568,-0.011691472243983614,-2.0603330165463887,0.5121282472986958,1.2133883768274305,1.1661684888747015
,-0.309473602198944,2.455426042869936,0.16195484664240872,-1.2591399224787976,0.13043380061878607,-2.9121188379497993,-0.9823570570460101,-0.8149822613320648,-0.6577098013314914,0.07097088751575625,-1.4034639723313793,0.17636086810041837,-0.8245362409428021,2.4223928830945853
,-0.29395119742614445,2.579886554669724,-0.23661689650740622,-0.5914864496173632,0.5213521472564757,0.3292039711512977,-0.3353521221640529,-0.5290039217210614,0.171948164647385,0.8599113864086395,-0.7924508563230139,0.7364397322013636,-1.4112857898141844,2.3628844905833524
,0.15600671268165744,2.025704081893229,0.11005974775275215,-1.926082067224771,-0.33884297563807975,3.3766976696578537,0.9357429477795552,-0.5455697796794298,1.2644522484405007,0.05469920371339489,-1.1788547056250995,1.0064484015581259,1.3170748669822805,0.6852221580369389
,-0.09979501416966644,0.19909987714511287,0.7709233430807569,-2.0574645897380828,-0.7773475787516798,1.418599069315254,0.09162884092893965,0.2330869899800626,-0.632825625606091,-0.9353069825262376,-0.5795348741650185,1.037055279665161,-1.0700153356718052,0.8480317930113136
,-0.31166874571775927,0.6514926915875704,0.7205222975402678,-2.1516738676165237,-1.020382245290737,-0.7636742860666412,-1.4367420473616548,-0.6435496775717419,-1.580116245886758,-1.084499073510815,-0.1701958983062864,1.283108601008911,0.04833469741177539,-1.3674730648108495
IR,-0.39355307777276066,1.7306690048475641,0.6545136863618173,-0.42114928530141205,-1.111050217103359,-0.5527850601703415,-1.2840688295137266,-1.34465256052644,-0.7133104893162353,-0.621209972157651,-0.43355302569289383,1.4901725022969616,3.054203599711778,3.314512920062841
,-1.0457191830177541,2.414060962563313,0.13555534363618363,-2.44528984656308,-0.6521461051003842,0.5496702024027007,-0.46227409113330653,-0.889613566894298,-0.21539372585427286,-0.5254662880094071,-0.8105344930971464,1.007436092011038,3.3548258464156224,3.813402317693619
,-0.9603998474047156,1.4393989891272925,-0.10550108965196804,-3.063153794188465,-1.2283124929891631,-1.1412649353526345,-0.362277013440351,-0.46026983486258727,-0.2639948437357587,-0.6650957737027126,-1.23689490040945,0.08552962351373397,-0.9405817196035736,2.795883426494177
,-0.9997573980289863,1.9264008239413652,-0.3696698241310933,-3.4441465627457997,-1.2459402175265812,-1.7522136254556415,-1.7478468395880864,-1.3486714284324937,-1.1833839735239056,-0.4587795568406009,-1.9324007304084971,-0.19240216477034983,2.148009613948586,-0.9858719094185463
,-1.0847591671204135,1.9230948738760492,-0.2580233636578814,-2.5841594941787585,-0.5178354019648757,0.0747462225560568,-0.29929346211863433,-1.2110103470982665,-0.7866936491588225,-0.9428200979987911,-1.2965594041176278,-0.3254378108518246,4.298335728234811,2.8527997246743833
,-1.0188514425463187,1.2463771247927946,0.20293492791360024,-1.0643328189040135,-1.0813359548574095,-1.097735612127528,-0.3805771358610951,0.4729818044755363,1.4788912550786923,-0.854216890840917,-0.9935159662687485,0.06861624296231286,0.4440479847830901,4.52120510410757
,-0.5243629254935207,1.7615329564431927,0.7023126051836364,-0.051475414531898654,0.386185979261172,0.05963813799153762,-0.10086648954270765,0.37942249831880487,1.3384226284776364,-0.4693515234551196,0.2692906051065627,0.3267177423641901,-5.194172268587103,1.594893432765443
,0.09661761656260391,0.5156074188934993,0.316750983692164,1.7071375416392793,2.3825989675300683,2.2870560083694804,0.8982622804440106,-0.06624269110552004,0.36132765072421863,-0.3527399855003927,0.46082885485000086,0.14038686512584855,-3.38334504261008,-1.343258457383412
,0.29520396706745705,0.518887755949407,0.23184614800559747,3.225090504746681,2.138859061574243,2.9642308858966073,2.164919792530833,-0.03607942272727017,-0.02254902018728364,0.13108725174703428,0.1336405155896458,0.3735464398003742,-4.134356312600817,-8.050263732732118
,0.2977334893822978,-0.6297935882050177,0.5978465684219814,1.4454880719489698,0.789785890504996,2.6976674206139495,1.16878894173683,-0.05085220046184969,0.27608638450941503,0.16021900880051632,-0.18822830584566072,0.36123284549788975,-1.8294781960484798,-1.5504555213771272
,-0.5914825281730426,2.1800843169865054,-0.26548035860172403,1.6943865702949428,-0.5636807374005738,-0.8195492391541317,-0.9167343150355687,0.2821719998018095,-0.2766022044908953,-0.5164311563880591,-2.288839458931783,-0.09849698828476451,3.7462334400931496,2.02810150487675
,-0.47611568137151167,3.149303612544049,-0.22702327254900898,-0.4782409431024209,-1.5280093624340718,-0.9840904608746641,0.6969582854662942,0.6108402965134363,1.5063856685676704,-0.6042513011625507,-2.5591537896419383,-0.1475724652433668,5.059046046149394,-0.12309612217163754
,-0.25337523539163226,1.939253776203988,0.09500274084515596,0.4409627376711777,0.5147615484536168,0.028815718857308135,0.8450715775019559,0.5704723167342604,1.4406981498852915,0.09025177662470314,-1.1466534214959796,0.06914964107953177,2.1476736896222888,-0.8432690220026641
,-0.7149709051278689,2.437711654123839,-0.24199866252096414,-2.9213252424312297,1.2842946783930833,-0.09342688180607188,-1.5139784047352005,0.3298695774103473,0.5870217530408656,0.03458274063979842,-0.9425201188262362,0.4581777556999945,0.86080509663566,3.3540446822332566
,-0.7126681722113585,2.37308085661678,-0.3624739827499294,-2.871216249096281,1.130626163183999,0.46562092217798007,0.0072445254134287825,0.6797697268419919,0.3353540698364408,0.0880539763904668,-0.3053767085293198,-0.663931016575991,-0.44004557849151477,5.702823840881689
,-0.30466357353346823,1.517839850988249,-0.01865766335097395,0.4637543408887129,0.42491546438178296,-0.07658490297364416,1.2403348478959368,0.03301317599851983,1.3305893415208094,0.38297639385358345,-0.6470537228934435,-0.28677542034875225,1.5665692684404053,3.6291928062957846
,0.46015674923901495,0.6832110865958044,0.5719241484849695,1.4609695686787814,0.4058086406907468,1.0070706132403078,1.4018666768942065,0.051224942513504075,0.14816129657648272,0.6914621153177234,0.26931163463169344,1.011460547419871,-2.041938415424679,-0.20085187337915467
,-0.026686917754149456,-2.1099063589855214,-0.051142777953984954,-0.8240648402610322,-0.35696422084225815,0.5427593371345591,1.2133809106333802,-0.48373281175251126,-1.769632310087976,-0.5790999860849185,0.952429840632241,0.5110616224845947,-9.135352792309185,-0.9048617253040505
,-0.15670943064983406,-1.7678407609687143,-0.012212800752067368,-0.3316200455626284,-1.3325067547614942,0.9352907932040898,1.3357535394379711,-0.2253997057703632,-1.3057734144102366,-0.5848290781171962,0.5241113259602523,0.0405116169058927,-10.235934353032357,-0.35841809336708386
,-0.40747968902423637,-0.5527977153865911,0.1481564111788056,1.3449549892563895,0.5490942546834923,1.1809973185195188,0.1487001895618425,-0.11518352339577452,0.05295103727443485,0.3211228397067601,0.6704489522200487,-0.07160654305571411,-5.811504479782962,-0.0073555352806629355
,0.2575266736268157,-1.5726160720105595,0.14875747515699234,1.6280942754013699,0.5139899795911166,-0.04820399508010945,-0.5029542100629706,-0.19865460155919223,-0.7938798354894112,-0.015714899518066542,0.15991172169543333,-0.13779620467484732,0.24696205993618248,-4.11785328327986
,0.6172105314342937,-1.7458778844686615,0.1284547791940682,1.1210404899093274,0.2611852796718663,0.6732219254960805,-0.05900218740645833,0.8297424599328216,0.2833910135511752,-0.5268385635043679,-0.028878303797295307,0.34448440111113693,-0.9677559921190386,-3.786151064537329
,0.3303159631951444,-0.5119724532960798,-0.13885303348414318,0.21761094240589485,-0.19151634063105533,0.5316193527257056,0.42128060176173904,-0.9096479500940587,-1.6610503028690329,-0.9696668717160354,-0.08412267357361396,0.3236899092778989,-1.801730718251898,-1.042604271325258
,-0.11750987892835443,-0.6728663769610593,-0.24272058251524392,0.468721010906932,0.34878720292081544,0.28251481114260657,-0.514339275620419,-1.4168987211878006,-1.908605679300603,-1.051956500479224,-0.3150358212266362,0.2876941542608289,1.0781415086572774,2.394545289430657
,-0.08440251161471621,-0.5362336476321429,0.2080511322330391,-0.10788063006127471,-0.7772354018801978,-1.120820255856306,-2.1204687998164435,-1.1881503329656558,-2.088596893331449,-1.4466370410897063,-0.6719673403489319,-0.3124877870275171,3.5664134735465893,1.6307388846941953
,0.05493104106288404,0.13403703217194296,0.028762191671424176,-1.0516583109221647,-1.882346997042221,-1.732973415665552,-2.0615736264928053,-1.2268527978100536,-1.6219460601723856,-0.17243770851638462,-0.2157658802578748,-0.5457649902067778,4.907320879020852,-0.7741691570842395
,-0.05257976034328141,-0.26263679174219395,-0.2752188002626715,-1.350311746542151,-2.03259782576212,-0.6203354850174121,-0.642951635320202,-0.32021531425088573,-0.1260793230053728,1.0706508156301966,0.2783455146111432,-0.43696802928043676,-0.15651969295330134,0.8041948012786385
,0.010693594737130616,-2.140065958088535,-0.12767785548132526,1.620640933410931,-0.20562747463977613,-0.619843998473372,-2.2251833754515182,0.6574397264012628,1.8049827369184228,1.5099617261873486,0.36070430963926076,-0.14404254647114595,1.1213041961526944,1.0083438439002959
,0.7069170582109752,-0.26812427260287847,-0.42751215320856445,0.7276884048437193,0.27118187344376765,-0.04374710898412957,-0.9597103871382837,1.0136641377569178,2.297547392896504,1.528384652960405,1.0803797790766356,-0.5195669157406404,0.594564504008103,0.0029109428279384705
,0.5257734937622315,1.1043739802237709,0.04504948571525031,-0.7059846623077414,1.5672751304738004,1.4784931162380803,2.6955145502238933,0.946332979811324,1.0182533939123704,0.41237948849355416,1.614440791688491,-0.10661227221568044,5.240858705026834,-1.8333051273684744
,0.34363665068192817,-1.1978735573254846,0.7513332203491745,1.1478649769136897,1.0348841621051117,-1.7863774040049734,0.5940561972536563,0.3623664188719083,0.47022796468599654,-0.17839457561609023,1.0064439104360696,0.3268945426011164,4.201122595168659,-4.534859816442037
R,0.8138971560927322,-0.7007498394842834,0.4735315667983846,1.30875443809358,0.09936562766923412,-4.53633420105426,-0.9156852124422585,-0.9076386848395975,-1.126991165395985,-0.7207938818306189,0.0396803710506818,0.6282485315422184,-2.3480542952716847,-4.4997451061481595
,0.17874792819569824,-0.43295313378323785,0.712038076356933,-0.030672318855149434,0.3546926571645391,-3.3996406740359797,0.24380983999628042,-0.9366165985007688,-2.364843540304053,-1.3245273518746747,-0.30688880620284115,1.2956109024906688,-1.462909283043573,-1.9247792319041497
,-0.2703147238830464,-1.895034114566231,0.4283326566721294,1.762024349430701,-0.1674265411437841,-2.732423709592617,-0.8202993378163246,-0.2930796053817577,-1.2098300780708573,-0.9097207473542835,0.35014489071477745,0.9250063360541547,5.205178388276014,-1.0465928302675829
,-1.0657777141139892,-0.24790728142603227,-0.23846044683169307,0.328820361880275,-0.9602715636857754,-0.933500938830243,-0.8912583100142054,-2.5933003401387533,-1.1874104816107245,-1.4552359045329506,-0.8090053822280414,-0.7947239453022966,3.7222052413680298,1.7608378431399765
,-1.269413255502764,1.7213639545149804,-0.0477192149059923,-0.7469936024901364,-1.4598373635782407,-2.448164990246807,-0.08468173886536602,-2.844087866283647,-0.7264871881526624,-1.706843158256682,-1.5686288682836238,-1.0449092153801856,0.9955133956680139,4.4791623850619
,-1.405291584674103,1.7427109874415565,-0.4006254010324867,-3.2942435036349087,-0.8213645188382968,-2.3740529575259868,-0.35891173573403395,-0.47156123391468113,1.6590449415143285,-1.408012280814627,-1.22333568568135,-0.506075497854427,2.6191952201499986,5.790995211617555
,-0.410016089026457,2.419368231999545,0.034637495371831604,-2.484181043440031,-0.9992404580860325,-2.3240869638443904,-1.2037596804632944,0.5349764259017551,3.054571410515347,-1.560753951171388,-1.1654432483755526,-0.46399126668847823,6.440560128635008,-0.9861072588730672
,0.16201770340571242,0.9881799062957517,0.6713543259423507,-1.0792627340586625,-0.09262625368127106,-2.9425866766432716,-0.9118196832955798,0.3176998209882669,1.5799952561885078,-2.5223226533766625,-0.5494751654931332,0.20274154416206214,3.9096849188080385,-0.7693992822517365
,-0.5052777688154024,0.33304907203162576,0.6578626883963377,0.9264487543625572,2.3618731426150923,-0.730121151735624,-1.060440573607342,1.054778308433601,2.496248153318646,-1.825959292561067,-0.39850930251851785,0.9015351535970579,2.069606697833506,4.982124302748671
,-1.1359146968942349,2.212880489865547,0.08028670735049609,-1.4821561857223777,0.7389718117909256,-2.7281433091886442,-1.0893199907392086,-0.6389197899515068,-0.8615530604356372,-1.9976154005884335,-1.852010363502035,0.4248436651698369,9.584669457613295,4.7352390355575364
,-0.8589653603788912,2.8171427339335082,0.16277852414905533,-3.3519951231142966,-1.9362233230422254,-4.132517578193718,-1.8553256449954247,-1.7005099544199347,-3.1697681792686447,-2.0591980273971973,-2.3763128016018507,-0.46281967321748596,9.780790208370851,3.3678998043812216
,-1.1364149280200322,1.0770445704194898,-0.15109924071444528,-2.6892194865452015,-1.7211580700443323,-4.360012599160102,-1.621158462478191,-0.8293372101362966,-2.5705971964097567,-1.1616562580189453,-2.203970177502525,-0.358329223427863,5.8473092906376305,2.201170745966455
,-1.388889486362704,0.6836436410188044,-0.36035282105907174,-0.6356365974693134,0.191130723859343,-4.655498811274811,0.030556605898781494,-0.4433501165202553,-1.610719502227074,-2.2745613732333534,-1.5031541546328153,0.6386521488741637,2.6231279911686936,0.8943620394499127
,-0.4638180006788582,1.2841126005873535,0.2402204798403708,1.3822239199164124,0.4487159114294578,-1.4607315913175645,-0.16692236826260007,-0.9816419911283004,-3.231543258582009,-3.3133982363323446,-0.19399450066480148,-0.10478345918515146,0.3095526579692884,-1.0326799694588544
,0.043426971275703954,2.2011725065731347,-0.36103331228449126,0.5835670874257628,-1.4002509169752095,-1.348635827166985,-1.3959794555014464,-1.5793542847282427,-3.1000998880486064,-2.013482817614751,-0.5042646511665743,-0.915014234841323,3.2507120372638543,-1.803753954699905
,-0.2499754655614951,0.8012101413480567,-0.7896568550123437,-0.18333572398743905,-2.5144357533647606,-1.801880919158396,-4.245570564143195,-1.8955607343542706,-2.8607367688769534,-1.9161118504261245,0.6746786095381674,-0.8460491709271187,6.935604904479059,1.5674427141474727
,-0.603924010951822,0.18819447159670258,-0.5035768542472395,0.9582681582625399,-1.5025962890833764,-1.4043688031975603,-4.126305135991818,-1.885394702882689,-2.573351364679027,-1.9403229846821115,-0.6926538334020859,0.025872187109303814,5.48889338403474,-0.12607209703572214
,-0.43945583939413535,1.4640188724764527,-0.7567222201540327,-1.3059959333342621,-0.6911705999524197,-1.9258722543786337,-2.499195526235273,-2.3553338090802662,-3.2297858385480698,-0.6791023050731169,-1.175868909077414,-0.29389654141225263,2.8638384961673298,0.4758785701307659
,-0.7189483681013122,2.062457315383607,-0.6130318663348321,-0.15129407690651414,0.29287114622283117,-3.6925736888071867,-1.7743091117942866,-0.926828032264588,-3.0084328698624363,-0.72078305544328,-0.7951019805394194,0.047323678174708186,8.268121601691712,4.019157281753203
,-0.17657409756794828,0.17730137770082516,-0.12997461450979766,0.17014724785722163,0.781581525738184,-4.4408961692356215,-1.9433072438178338,-0.7321331922885821,-2.1819167536004174,-1.1767489473260797,-0.7181721512911927,0.7370828305930289,5.861626498510423,2.2474532513831598
,-0.35885201937489397,1.2149462705566367,-0.7529320452090614,-1.9814051659969756,0.5740651673969135,-3.5866637173188605,-3.9725619671141073,-1.3884890700599777,-1.3040681055002978,-1.835610512147559,-0.756341320374813,-0.13086156282134434,5.429559910830778,2.0566513232238477
,-0.5940790382764275,1.9143636777636224,-0.9660466477400795,-2.943330286733721,-0.6115644662694758,-2.4255025845551645,-4.462678841803545,-2.443223016452727,-2.0435674960221397,-2.2682578678566743,-0.8355274927808843,-0.8435653634559501,11.007152206963601,0.299885033958328
,-1.2806692245311644,1.9308576171235525,-0.47521441469021175,-0.6987845606075908,-0.9719919391632467,-2.159106143702515,-5.919330955131177,-2.5223690056389323,-1.9649097024332576,-2.7895315914523713,-1.3204620970712844,-0.3895082807168934,9.635752960517634,0.28633698079343045
,-1.3781885823201436,2.5259807436788453,-0.8447127274986449,1.073832647622574,-1.4549426163474406,-1.7429983350492457,-4.13479527063808,-3.2436355644500825,-3.409082327945052,-1.6190235113900517,-1.1546182384596422,-0.6776747630960583,3.4391327632427657,1.896115935219411
,-0.8235261861686184,2.169995620870792,-0.5824787757395702,-1.7053423498198712,-1.176270304863398,-2.3763874372914215,-2.672233513795909,-2.153601688011872,-2.252431030919176,-1.1185532112261243,-1.2596976768330732,-0.5849153005858247,5.619565351617701,0.6822627611809435
,0.27522729040824967,1.26939608614871,-0.3183866997952335,-1.3918278904904977,-0.937588283445066,-3.615880207525638,-0.5820977823543637,-0.1844643457793949,-3.6052305746239504,-1.7854945668220086,-1.7011776892294614,-0.3079593164873766,6.613035752243257,0.434555954692062
,1.3463659167301099,-0.27479244682359705,0.07595184440626844,-2.8150757768708985,0.5194411191581552,-3.117723892305591,-1.639553204301473,-0.12894439399365426,-4.36653746482237,-0.7673551484628995,-2.0596191995851987,-0.7163347790325488,5.503208871257014,-2.9989920557203686
,0.28449817171635133,-0.4207874356863111,-0.061116360263681856,-4.9803194856971755,0.9005040006042698,-2.3417982840189215,-1.4331737779175915,-0.34251411446718294,-2.141256114658735,-0.3929598021777961,-1.292428925042302,-0.6149132082723592,4.361984578103943,-2.7376435961525645
,-0.39174669800296164,0.24828828564210012,-0.13676500625789845,-2.9996546055432356,-0.440387571293106,-0.365416766932692,0.34437696752839386,0.6703887531803382,1.5914488069118709,-0.919234539348627,-1.746244803096556,-0.8880371918131186,9.381524663343203,4.0054175443731275
,-0.6897922261135083,2.629976657731212,0.21352879236971767,-1.8427936425251326,-0.8272842975625223,-1.7265815456315574,-1.211599337975454,-0.17678638538690655,-0.005498979989025265,-1.1601798468656257,-3.025711560486879,-0.43178550396255816,11.133837553152697,4.956159519503697
,-0.4464130081769189,2.621579252052387,0.21105124800294217,-0.5962528783213037,-0.6117619606535272,-1.433335569295651,-1.6303211686556736,-0.8217842960875565,0.6731336098742575,-0.9041878254418196,-3.106205063776303,-0.30411734327278617,8.575262508549924,0.0658988483906212
,0.2850893847583622,1.2115039089370812,0.11950787810725265,-2.097559672328149,-0.3368282616076132,-0.29595034820692395,-1.2721255173243495,0.22304766283051417,-1.6452063513624182,-1.2550353533830332,-1.9171288656660006,-0.2115020425187715,5.2703547560813355,-2.4351049197423107
,-0.9972455502576028,0.6245041106864252,-0.25349549678489963,-2.9240713460197076,1.6508814354064714,-1.297969428701447,-2.5193782142750285,-0.5740604856231278,-2.0998762754942955,-0.7262077854013561,-1.482979076318562,-0.31334891770600365,7.654351263391634,-0.7812059147821174
,-1.3538272228300527,1.9824994493464834,-0.5718572508125688,-3.8343955836734103,-0.5017146529390762,-1.6559485804554928,-2.47471470472145,-0.9209402723719708,-1.1470440409847975,-0.9323386336041097,-1.1179813887165395,-0.4494287044669068,5.635121936880632,2.6614005696073195
,-0.9228151802681419,1.87650429805972,0.08468376403468027,-0.2825433417713556,-2.924847902203186,-0.7486756500369325,-2.729482874567003,-2.569527150599493,-0.1317702057448312,-1.0978886335540108,-1.9431359512829054,-0.41937894397202946,4.851919993252671,-0.008680774085065417
,-1.5376903772683548,2.348095413968497,-0.21427476950225766,1.416371824095988,-4.438961990922775,-2.91168654884299,-3.215910980273729,-2.9852235854458087,-0.404866712460252,-1.5396187308002254,-2.4261117106019183,-0.5819651276662801,4.486991494413899,2.1341771426378355
,-1.3221589996432381,0.9972203631855452,-0.3975526226540029,-1.7919224694716613,-2.5595518946138,-2.494732221721878,-2.595034108975139,-1.8467069297893128,-3.5328326339267457,-1.4078642346668993,-2.704774744321121,-0.11086628736779311,9.117084983808535,2.8949594822322124
,-1.028404464781357,0.49968122807303267,-0.06342817072382737,-0.5842392763011869,-2.0327356215844237,-1.5011098310357973,-1.5297968828645527,-1.2415968913579423,-4.333592188447178,-0.906313504242096,-2.7507594239345385,0.6668124956899938,10.268562126330215,2.917182016707319
,-1.2122887224567636,0.5040851342344016,-0.13573631775529402,-3.2844091142167056,-1.646478798336351,-4.227554118032625,-2.8467519692433876,-1.197021701718875,-1.9860285025671711,-1.479677066111329,-2.1538781717961815,-0.2928457437108644,8.158152757510578,0.07496002850158166
,-1.6044588563283442,1.870984684070534,-0.7781162276994131,-3.715938687628228,0.17322024641706402,-4.099546381373868,-3.081234590031311,-1.5480475839108578,-3.4512652970336735,-1.8651476992375222,-2.686025634571641,-1.5644881341741017,5.058203428474069,-0.8262545976004619
,-2.123722729826794,3.150296897258044,-1.1383687014357267,-5.63415190942843,0.1683556045993968,-2.778358340577407,-2.81938138900948,-1.112717554993849,-4.7912376941712,-1.2481291595803734,-3.4178032011992765,-1.9183157497112564,5.8830950413302165,4.675637420281759
,-1.3745986704404762,1.2225412266160114,-0.806884661955753,-4.4808206545678475,0.34925753763997064,-4.652728625036877,-3.349307580436059,-0.6538231103309953,-3.1087262404100438,-1.0680653272418021,-1.9144514204611598,-0.9137042250224127,3.615027803968346,2.762391817034035
,-1.1917028839465962,1.2394660503247172,-0.6047965529306264,-3.0640668583122177,0.7388592665254804,-3.23112053314495,-4.6911660527264925,-0.8572021764296723,-2.1170090732942692,-1.6204359675918631,-2.407936852045681,-0.14618296698170555,3.243706485822224,3.986376073388613
,-0.9016096060771699,0.16741722681546103,-0.40546534624463465,-2.373037305711402,0.061245961026528246,-0.9515467839102434,-5.252830431487591,-1.769948375672692,-0.5692414986065222,-1.2754163198278567,-2.344451871894682,-0.5478019148493686,3.757074578449069,5.3012138376687234
,-0.4342936702850726,-1.3716234051838492,0.2244534536564509,-1.500672877907415,-2.0959395327478045,-1.0280752678297118,-0.19471204908002568,-1.9089700887738985,-0.8199030764914416,-1.263292391650723,-1.5680056712404087,-0.4203101697458502,3.8611324735353083,3.0854617327851703
,-0.6649236963192899,1.9109817944238046,0.16329538634419025,-1.9348897645716447,-2.967628945272256,-0.9690202038512782,-1.793393660439791,-2.312136301294815,-1.9346826401623816,-1.0431624352491757,-1.977432625301231,-0.7738992094087389,5.073771019236534,2.492450827856924
,-1.4970145514134279,2.770981132336532,-0.05631032877366156,-3.5144509531184966,-3.5281477886352643,-0.8429489316145126,-3.282230880414877,-2.444667171668264,-1.481901677078952,-1.0299379843881273,-1.8345259503796767,-0.8995328942909823,8.109078230294454,4.662953920923109
,-1.4032027111472214,-0.020155763265344025,-0.7900967016032819,-4.327077453507239,-2.2850308991465518,-2.2358994573037574,-3.6243257797645216,-1.6962111544837892,0.02596784301425851,-1.2193604857027591,-1.3931216612580284,-0.26312047388950227,3.5366037457313655,5.638993672509454
,-1.5046537817021508,-3.0863514358587776,-0.6846413652269816,0.17904476260744462,0.027496687491576022,-1.3747624865366508,-2.3026017216255705,-2.326909991352706,-0.7197878618218881,-0.7490264281899044,-1.332553995632103,1.2284721511089405,-0.12416073235816684,4.146863698287491
,-0.9408668461990173,-3.273307695533523,-0.015798439809629385,0.7031908788925283,-0.3011660230217441,-0.5720053567339743,-2.208529546523224,-0.9338394282361481,-1.3288941953669626,0.12793005211826244,-0.8611862536174077,0.4697866998412112,1.8326681682397383,1.5916557381380583
,-1.4273868364881326,-0.9344619446795861,-0.671822064733415,-3.411458236321537,0.5679657324200174,-2.8817377733328913,-3.56110354312801,-0.8124318956874578,-0.8503099068120616,-0.6938659803547482,-0.7416421221631794,-0.31932936234145254,2.3341974784653474,0.8108404793918896
,-1.1137317786669638,0.5143008686483358,-0.4689528687640738,-2.220803682548453,-1.1346657373617062,-1.202424263911152,-3.266984984550284,-0.9974668686184428,-1.0434140195846455,-1.2514685019454648,-0.7973171889521885,-0.12540991296993395,-0.9011507625438631,0.28568202187016256
,-0.833462807949175,0.8929852162696835,-0.3394327616135089,1.1838603079052457,-1.874961381430006,-0.2660299173911427,-3.0841336323229744,-1.485512195896223,0.28291631099637754,-1.317555685316007,-0.4793422885953615,-0.15656597296688882,1.5308455794169054,1.0997688568983068
,-1.0063157345262532,2.076789225733521,-0.08167228548125395,-0.35620641988800605,-0.40517676412101145,-2.4446709897651178,-2.4748144770583576,-0.6542502295490502,-1.0016353180057966,-1.6327788334445879,-1.1037991853364768,0.17253374008447855,1.1915684721075797,1.177693022772655
,-1.2125364714822826,1.574723146021489,-0.0698222501782248,-1.667598771747482,-0.850552393368235,-1.7970178530299674,-2.9041612467093327,0.7375397118224389,0.40965596087490475,-1.7469723951981335,-1.1423330381652381,0.3338607064275691,0.25268268079276607,1.1603901547307187
,-0.29722611465486026,1.2785214379194432,-0.40896787965581394,-1.9575265876368282,-0.7874891059244356,-0.8564858473175747,-4.106129663591362,-0.9350990995685783,0.43212145343652747,-1.0475355400298947,-1.8549854431053547,-0.18783912547800236,-0.8481973507054543,0.29136176588712154
,-0.48087906853320994,-0.6658624229513864,-0.30630525744446424,0.2050068683383287,-0.4927036946725572,-1.237335454553174,-4.114671883063216,-1.5113524473394055,-2.864331089431063,-0.6976589833585498,-1.8428815508063199,0.2680806519666103,-1.7044114147674034,0.7911718145480033
,-0.5028125314038201,0.016994297775618245,0.11262160749430715,-1.27726033969514,-1.2363688933229715,-0.3236368328889685,-3.368020639278216,-1.5822808516103355,-3.1656277510292297,-1.1307781757510351,-1.3776081553763615,0.548916462725068,0.885446784693015,1.7102354983063732
,-0.7856832579644304,0.9356480481957818,0.4513547003778027,-0.97031171172828,-0.41502972315323966,-1.7464127885368328,-1.4653190256064539,-1.9190842498021676,-1.7017609389609238,-0.8908374771644921,-1.7522166512933117,0.36585641304919786,-1.1494096575091017,5.305772262730817
,-0.4252138234521228,0.5635589633274289,0.22565863547625375,1.7445301719191524,0.4886912393870209,-2.0411209084319597,-2.299336713452832,-0.9528501669699676,-1.3925826463701825,-1.1835643999416985,-1.7748737771758554,0.8727221106222703,-5.245449996495054,2.9639221577344066
,-0.03799320420589207,-1.3144014012084455,-0.028056466911403836,2.2067020121930856,-0.14612919012307077,-1.2198338455021023,-1.7379937283648235,-0.6642030918973737,0.2709025771995909,-0.9706617392116901,-1.4907514511520181,0.7050501902692593,-1.5783878366848412,-1.7043729754009218
,-0.4683561683258981,-0.8930999927682381,0.38174758703481365,2.4282546771485642,-1.3307322118400104,-2.1992725918527096,-1.1232647309405144,-0.9904826983883679,-0.29367520687631726,-0.5936920042883691,-1.3753462803081673,0.41298482569770084,1.369468958006128,1.0238222151818883
,-0.9772046525829237,-1.091822071475166,-0.23413990263399986,-1.0294029871369978,-2.4362451492487893,-2.806504118201024,-3.5773366976585117,-0.852464372224976,-0.5555539035380371,-0.10828731751686031,-1.3606974193324937,-0.12594667241308374,1.6060376508422567,1.4397424389917297
,-0.30504892194554145,-0.3595726656384201,-0.15292081265074883,-1.255219337789676,-1.5585645255215945,-1.2180738678707201,-5.71234303467949,-0.5585844124053563,-1.2859805609333748,0.3105239254602793,-1.184607320724261,-0.2948000587849206,0.13016782017214498,-0.5677609556634464
,-0.48905259408788854,0.5270674490138605,-0.46671628295565404,-1.9151712358796027,0.38935852089862144,-2.393854325810096,-3.994984961844817,-0.5527506361092955,-0.6235507693742209,-0.7078733421427992,-1.795008087236448,-0.3452774801786794,-0.457341254299477,-3.297333565299402
,-1.1566404946293654,-0.9381960159757062,-0.5861407122957922,-0.741277946464517,-0.39440336234400664,-2.046911809360335,-2.9257481558150165,-0.5939555897806057,1.0262942905475576,-1.2510918587629765,-1.3073225137695712,-0.41905493563991303,1.0177847712468362,2.154720091260824
,-0.7895544104596403,-0.187659891486589,-0.5417076037768366,-0.12855698836447607,-0.5694684987699087,-1.5798281424674825,-3.4055022703019913,-2.681882055107858,-1.189417332110381,-0.3405807409775545,-1.8676160850252583,-0.6312503829655681,2.585930891202118,3.306076960604981
,-0.1407394421803117,-0.7594747857513037,-0.4261379406448241,-2.4317222422098097,-0.5058517678598924,-2.2976576532475432,-3.5742096652553257,-3.283288709401036,-2.0575798661893723,0.11397813297681784,-2.0930166087866593,-0.9395504181233094,3.959213878603136,6.562171180070425
,-0.9343264799663314,-0.7969581573982347,-0.13118680578230005,-1.7855463580308237,1.3713384622479219,-1.1124020437914717,-1.7459470784355442,-2.8327022138428917,-2.00491449527458,-1.0306625844565156,-0.9158694634249294,-0.541024152898971,3.4664146577647825,4.4111348436846844
,-0.9803654587085653,-0.4100503545459485,0.1880204894471722,-1.0582994824127727,0.3040009958670758,-1.3614156548097938,-3.5604245241888366,-2.379275741525432,-0.35219316849995336,-0.6006820658959172,-1.5124699088761278,0.04259497593541389,0.5127764485239369,-1.7698774616363244
,-0.48976378915930563,-1.424491701329748,0.28491603462260034,1.5422502359107535,-0.6424548740669501,-3.070781359867161,-3.81714724549433,-1.3651992865271867,1.2506683088909414,-0.5737820692829464,-2.0505322651679156,0.29231196657355535,-4.343315346080582,-1.2504434089971097
,-0.2545379618695763,-2.2865563186491533,0.7801416923612973,-0.09412662486610765,0.6835152970065469,-1.6636983243778578,-2.010672350801066,-1.2824156472720052,1.0805480752763081,-0.15249296958657663,-1.5656458510646838,0.42990337308191534,-2.2904133648400675,-1.5542215088821851
,-0.508967208107697,-1.1513562779460549,-0.0009272572523395852,0.8552900311163908,1.7858183022160774,-0.12418142621902646,-0.764808994373192,-1.1513277754152436,0.11254731254339645,-0.6200219314146607,-1.3593597871331247,0.2589260352913492,-0.9431936781700827,-5.0913811392705135
,-0.3259388087172876,-1.9271335243687389,-0.20403281285338215,2.171558630771441,-0.01899787446870766,0.8846097071692459,-1.3603714628696515,-0.34899796843691827,-0.891499752278257,-0.46834178287857525,-0.7578751807832167,-0.0014164035174761113,1.295922979931786,-6.881902418347535
,0.33229850368255653,-2.020398190616564,-0.07719107275226425,0.5841252736173072,0.3522436013172553,2.130366973446843,-2.1765281371454726,-0.6260540212741631,-0.5792713922178738,-0.21659190869981668,-0.414562178095751,0.30104815821554676,3.4567055649601053,-3.1844862970741015
,0.0736893076099566,-0.739176852292712,-0.010310380615692635,-0.7503753763908491,-0.10032458225393763,1.3942307408154606,-2.8049008153473167,-0.7663847656158821,-0.6214651609971362,-0.39738127779148663,-0.47687775513416003,0.6480108124791594,1.499658699480338,-1.2830379805732448
,-0.25868660273833294,-0.1816814689376828,-0.03491798840540417,1.1063904787463172,0.012361320923915679,0.8081769897306574,-3.699415934382548,-0.8737734514642358,-2.3246149906255495,-0.7699756408815251,-0.7647843073297899,0.1978270684718197,-0.8523488087617883,0.03271535496093044
,-0.7703112590718255,-0.0643455003578713,0.5020430512144257,0.9531848260351741,-0.4899918147698295,0.2221928301141567,-2.621642161632636,-0.9389549836292078,-0.8050201785467612,-0.8656240229384216,-1.562243948520569,-0.0627351304765451,-0.11629283785231416,0.7238798695892043
,-0.5329342504681861,0.4831091874694761,0.5167030446999917,1.5650202040442844,0.046150321612388454,0.6216193945304989,0.017927670269109977,-0.6400795270415138,1.0915891951178318,-0.21558571676519006,-0.8620404609599032,0.8377797143298626,-1.6346843905420356,6.550245767181445
,-0.7579560078941724,-0.8425514192847376,0.1790109469008482,1.590449951645063,1.0798521016496645,-0.6808640616669024,-0.7199915315463253,-0.22165781785199415,0.9337820884976081,0.3681417550042599,-0.8821576722637157,0.22635812376598435,4.159879026581251,4.679702853221397
,-0.5564686270200936,-2.7624725894392235,0.11112406590917127,0.3138105053635828,-0.4555589701050611,-1.3747262151361102,-2.234762915269995,-0.4890357373641419,-1.2748957826780272,0.07173460696956323,-0.9202398985241157,0.031012671878701242,7.02010735245309,2.649852377376304
,0.03704324020940248,-1.3066220261852577,0.14095072348923537,-0.7393077747833844,-1.9476966787258663,-0.22192893109239245,-2.247095600952172,-0.7556480987490513,-0.7345453459323193,-1.2284362289494466,-0.7988273323508359,0.5702876062856883,2.9547644612759774,-0.4042593225741109
,-0.3170195362221431,-1.0843213091699409,0.08358552241304952,-0.5181587495299795,-0.41615050199477815,-0.7366196462588516,-3.4988994008617533,-0.7921540762944287,-1.896304768332129,-1.4378040484456431,-0.9686961425300504,0.14928147936641378,-0.48862146488890335,0.11794929634611788
,-0.06798553713350591,-1.8159928996132573,-0.0003758844216664381,0.9492454388184531,0.4303662912280288,-1.203777817259861,-3.2332695225668053,-0.178025890481542,-0.1337743370322677,-0.12990956807173093,-0.30115710811177443,-0.38821009782639304,-3.5666344353327983,-1.6372701301044206
,-0.013093429006392212,-3.584028156639689,0.15568192933704958,1.9225442298164392,-0.18422252263732344,0.14039172230909105,-0.8840141421908793,-0.41792321197200755,1.0173542632087351,0.06243764139643284,-0.09243627039514188,-0.0651307327974371,-1.4464430398055919,0.8909260187744199
,0.9308619235988413,-3.500195673466793,0.5878123372261306,-0.26211422409752405,1.0071656003135971,1.3829666467505195,-0.23943848686623873,-0.663568852282303,-0.7609118655835064,-0.6109934401059779,-1.157525169954396,1.026812886052306,2.4691922634511747,1.1228604941990699
,0.6494370599955903,-2.4226251356205752,0.6663332348635747,0.45907753430530446,0.12857097266384576,0.9387514501906569,-2.0804345703507754,0.048780849358659895,-0.5675136923135571,-0.7160842124402867,-1.474916431013011,0.02939496130363721,2.391186210097184,1.6534452963272765
,0.29748733290261475,-1.26934337511779,0.08155677806804289,-0.3310326812699163,-1.2384062230122312,-0.19861153730505282,-1.348372318332066,-1.091892610410899,-0.228461095471897,-0.3974303393598559,-0.8269393577249434,-0.39664251819801727,-1.2650332029759395,1.236697171246685
,0.28174684864243366,-0.43356843581967996,-0.16051240004032444,-0.7541424451860879,-1.7834597367556821,-1.4886808384155517,-1.7287883186190403,-1.6919312971371117,0.016900287056683692,0.07650911437239029,-0.24636983428773185,-0.8031687065552238,-2.031197897330282,-0.352348707611789
,0.0882532812252677,-0.3656778249580138,-0.28743290581252035,0.5457192050966848,-1.3657501573120878,0.03208549555115874,-2.0628795898197403,-1.0521616318902416,-0.5930519539901337,-0.23571028130809898,-0.014921357132812904,-0.5595573505863829,-0.6179869345771919,-0.04623639972150965
,-0.16542130125107204,-1.6056857013052355,-0.6016791689388058,2.8233741460845354,-0.06561078933349104,-0.8281922088653263,-3.175211733073478,-0.9130008507644731,-2.061728137135385,-0.4747278333244116,-0.767030073107305,-0.562497789017046,1.6825369019454937,-1.3168026985277075
,-0.4553242724995318,-2.7436294193100004,-0.6150871473835822,1.126561534196819,-1.0055300003556107,-0.6175453065774007,-1.7435711446407955,-1.0072767530606497,-1.391646720709134,-0.5484039386354792,-0.8699297708756321,-0.25592437814394997,-0.9080707065053243,-3.77956481335129
,0.08668888788162443,-2.7652049753175394,-0.06978131736799013,-0.10715547762190204,-1.6569888749585124,0.3332784021735603,-0.7912516974133961,-0.8660329176144166,-0.4511312839516269,0.05937245993000992,-0.9262286625298324,0.3771610134695179,-1.04244854383518,-1.4396424901862324
,-0.32741582504642747,-2.599484265905686,0.28661065068716496,0.36438131017306613,-0.054011384178787814,-0.04022705293541855,-0.7673265117417603,-0.10049884494899708,-0.22684886976360358,-0.9802215493387866,-1.621012971979274,0.5594655089165195,-1.4077505616174626,-1.3129120354653925
,-0.40992980394366907,-3.6854890917694942,0.6312407759577825,2.305761844041917,0.4729861317202624,1.7214541799467953,-0.8224314052545385,-0.11003791126123166,-0.2532375660798982,-0.33401628682000484,-1.0120712729802839,1.226771959662363,-3.2143161103835816,-2.1719736452492246
,0.15855447781556803,-1.8712427879311924,0.31182250403240325,1.947228571207306,0.2441326847498315,2.3872782751606265,-0.48461519917156254,-0.09289868858666493,-1.2957588935188615,-0.3533040517300669,-0.8191089009794738,1.358226113441678,2.668354141503466,-1.2089388623587503
,0.030880262905496118,-2.02977747371594,0.15120944412209195,2.523682273903105,0.509789475783973,-0.046520427976386065,-0.11452197791320111,0.8442883075707085,-0.3974473848251593,-0.3781893445931138,-0.3741964934892758,1.3272508810776193,2.6129080726072784,-4.197782857363489
,-0.1680440220163,-1.8095224955472196,0.28391641378334265,1.893256758176076,-0.6459550441301735,-0.8151490507658418,1.1674322074194567,-0.01301135991634064,-0.4318298152589173,-0.4177987637762372,-0.6035643449305699,1.1906822185340824,-1.2945040692293932,-4.477109940713058
,-0.9322920296139363,-1.4896051579075662,-0.0007235662065817435,1.910745494436659,-1.4734890655325912,-0.9994098294843695,3.190975869028613,0.5195176502470146,0.2532520857191753,-0.1410973945143179,-0.8130579167618617,0.7174700936721905,-0.2522064209411008,-1.8692680514573612
,-0.49393729519675367,0.34406835691369175,-0.024700237477625533,-1.216906797310535,-0.8840619817113715,-1.0043834153356106,1.952590922142372,0.15191994478398643,1.2320493248067368,0.16299716767364658,-1.271589101649517,0.494899778388768,0.5264213516034904,0.10106927077482354
,-0.6406344477490392,2.0762006496753393,-0.19885531588302718,-3.958862115969365,-1.2626077993702716,-1.2607790198812872,-0.7866801921314824,-0.7346969262133954,-0.42804179557674965,-0.9611904230347613,-2.0251575609526484,-0.013624509896046943,3.9639204139689177,0.6818857457050139
,-1.19729962120072,3.008547001718315,-0.67640906290772,-4.9222294441582575,-2.0944542147427865,0.24231021321372706,-0.31612835018812224,-0.7307243843946211,-1.203399134661809,-1.1720273153273728,-2.058974947200728,0.3881043703767373,4.673894260947567,1.5089346652873208
,-1.463556100188171,1.5863955570378074,-0.06256731157536649,-4.067520803061838,-0.4517447221681038,1.33991149408469,1.04463640133091,-1.3642229777632509,1.3461454633399865,-0.4391183956266258,-1.7202160877310713,0.5704627735000369,6.992163938856336,0.2866525890598065
,-0.6026204010914477,0.4557943967286172,0.32192591653208585,-2.3983976238215345,0.0916906982132722,-1.6931854910519626,-0.38654896063672295,-1.8415130247821978,1.584361714215511,-0.3722757973489714,-1.4443676740320524,-0.0715749722078469,4.260676975458041,0.5143736880573803
,-0.05434532113416377,1.04761268956325,0.24836448405138098,0.8130397272800026,-0.32342493385909915,-1.8436278847547372,-1.1841733072834284,-0.892560560417023,0.7423480347055932,-0.36650240792911776,-1.796827869181565,0.2510209571195834,-2.3981531198449266,-0.7047018709056518
,-0.1161905107809717,0.9641437545390367,-0.1009079598550467,-3.2147082656459482,-0.45718434970860045,0.2973624272326528,1.3829291678034579,-0.5331899065826957,-0.23438273852976005,0.28620740183440124,-0.9855082906117272,0.32210957800431583,1.94802199839341,1.350933611213783
,-0.21522553073883652,1.1314629997952503,-0.4587242339299681,-5.1070757371631,-1.78481970806402,-0.6241151934719067,2.1407746131677103,-1.2942446165479067,-0.49634082253423467,-0.0009841110054420864,-1.3221519728711373,0.4216838423867954,4.922362044646367,0.7906320841722502
,-0.25181351726467094,1.7563309715839412,-0.3153766370777376,-3.5366198358189096,-0.5521179709756865,-0.528869880449737,-2.4361898123189656,-1.2793348575945802,-0.9070630661392869,-0.06836841592451899,-1.6767824933858837,0.3369935867655294,4.416646804328486,2.4074101278246505
,-0.8239467151323192,2.8660814486023956,0.0684798883990678,-4.108814602564945,-2.29102678588428,-3.011332993561634,-5.06195911370864,-1.7185221796873948,-1.3209549467184105,-0.6884829065779141,-1.4560806515392979,-0.2728027542105799,2.922258609929716,3.15118146618179
,-1.1199482853355063,2.8300110261767184,-0.41239395781197996,-4.362169841676744,-3.2414299007107155,-4.985108719386382,-3.7396211456091684,-2.0211923787442627,-1.178295338995498,-0.7314542824531678,-0.9133962905393636,-0.0490901175122041,5.858932944704492,-0.6777660207945297
,-0.8558791202339585,1.8684025289526296,-0.09911665371634468,-2.5387421266671053,-1.4137242347292354,-4.51320782956166,-2.353322773583072,-1.6728616445719393,-0.9961848500804609,-1.2388915599639145,-0.7974260932881359,0.9033701422871393,5.065595471133129,-0.04042453449070634
,-0.8585189147191368,0.6252389709624604,0.6858826021624738,-1.470831915043883,-0.23400161219191798,-0.9802675232380619,-3.458931278595394,-1.8432697058145846,-0.27757644067682957,-0.790816761595094,-0.7039779830985328,0.7812179954378646,2.4695647326161163,2.063033895413347
,-0.8405112538896232,1.5145698685292677,0.6191713058008562,-2.281151052539507,0.37210130072099534,-1.671402522398583,-3.676521754359463,-1.6163746467795275,0.04252294027205021,-0.4366096787993082,-0.836064146733902,0.4054008299629499,0.8257128525032404,1.9826817966842578
,-0.6590171813433066,0.12906187565760907,0.1879778382778531,-2.524347609915033,-0.2969802406891108,-2.4000758154673654,-3.809743070862494,-1.811055975030509,0.6318262508520908,-0.1937166520810413,-1.2562679549917433,-0.3551980523661509,3.77970698647519,4.6359279780299
,-0.335304605347226,-0.2473236528923156,-0.5465485516567241,-1.5321947803574083,0.07826875995570196,-1.659409699513611,-5.381716460819675,-1.9218577532104641,-0.7556877854105511,-0.38512398684134247,-1.0984606244900876,-0.6060167566481224,4.926252440567728,4.551513054072588
,-0.6739069780649565,1.1638286094663317,-0.6310665846106008,-0.27735701144859093,1.5744568275450002,-1.3207307831092279,-4.1758653395234555,-1.8273201121485925,-0.4501456238951548,-1.500596911541035,-1.425301977603721,-0.17429897330154115,3.976239948212561,2.3036583296623996
,-0.7032092827208128,0.8609881784384228,0.21113636089964663,-1.0322340912036423,1.197484872619995,-0.08082013487144776,-1.977830454586532,-1.2020701191893655,1.2441813525864924,-0.9947912961259868,-1.6143111772722734,0.04715591745447042,4.285597936909682,2.897244166301819
,0.2037914747418298,1.7166212407192527,-0.17705513023636435,-3.481338363373717,0.0460218986252829,-0.42610923560936553,-2.1678968131344263,-1.3371698514007442,0.8255244466525974,-0.16062872074543258,-1.1799899390739976,-0.617686663215769,1.5037976652382314,-1.3440659165258584
,0.6630870091322352,2.5802528423168374,-0.10134352186566468,-5.48039324536004,-1.423159153332172,-1.8045043967949406,-3.041140298001661,-2.1897545031815926,-1.575083389871454,-0.21527300569759758,-1.0102220695828539,-0.30353890155513025,1.6735805931803427,-3.2079410714837975
,-0.8194428806083973,2.615254146369327,0.03773701625608304,-5.229881686983768,-2.265474472370882,0.18064679734641798,-1.9805454900185777,-1.5225966184305775,-3.125687458908116,-1.5276444416556132,-1.1046755950229288,0.26336720960809956,6.537359730177449,1.2718017650775624
,-1.188930647226188,2.6340227690071347,-0.2606687002944448,-3.81030099472211,-1.5017799000527616,-0.39061898940066775,-0.9514830523825343,-1.3777534062311485,-4.245035437634935,-1.8315419386450797,-2.3010317604061785,-0.2145617047220456,7.370905487722367,1.2050142447624836
,-1.2108647091707543,1.8390264401231022,-0.5332877078258424,-1.496532152165174,-0.45676583622552136,-1.1500687536465501,-1.8378253527191237,-1.494820896933263,-3.156986860695889,-1.2912133494266582,-2.3259431241387367,-0.2580880062290349,2.4747969071424154,1.6758687379655672
,-0.9566614669835837,1.1967643114305104,-0.4598906771750432,-0.3784879586424358,-1.692313356126741,-1.3966843297494742,-2.813425862907571,-1.6593545406541517,-2.5738136338872573,-1.2564031647328882,-1.6023878018946194,-0.22725415254930376,0.9263576314035205,2.3455235679034265
,-0.65280197878437,-0.25899430622028796,-0.1802196654696281,-1.2908814981666603,-1.4956145536101986,-1.8921267591272393,-2.970416869555527,-1.238434622563263,-1.4858977840922278,-1.5789767062463635,-0.7572640785341668,-0.6107721351409244,3.2856749595483277,1.3318625321665707
,-0.74141954414505,0.6576433186641923,-0.5017148405777158,-2.2238915468560885,-1.6555810235607122,-1.9404529309849943,-2.2036298427792453,-2.331913167234077,-2.6487727288208873,-1.1801573149258249,-0.28099342473693334,-0.3541054117468876,1.8030110078531203,1.481803471511814
,-1.6016041617778958,1.8752277682879803,-0.5752354672031047,-0.33104993175987635,-1.9456852957208681,-3.396620494699541,-0.9292424142079826,-2.595338282029734,-2.0012880437791902,0.05640540992940169,-1.2939640175768323,-0.018875692840991824,-1.310580686467244,0.9209116803783114
,-1.7448195598613443,1.5710914602363264,-0.7536565029508564,-1.503644153090298,-1.7662142890388606,-2.691492437457233,-1.5482453036671027,-1.025321121929427,-0.3390739040404684,-0.206265793264424,-1.6824782242232934,-0.11137028759551566,1.37417370827289,0.6735775545309417
,-0.9132558725591383,2.4816296740317645,-0.5674632562271181,-2.1462804209406374,-1.20913372020869,-1.0824540957604398,-2.057702427299736,-1.8722666481297499,0.8478486825780117,0.04134229569054565,-1.3391730905633983,-0.17750686518579306,1.7388755874572248,-0.09485541421365737
,-0.4134494695949059,2.7887786852239045,-0.3206728090847962,-1.9168760435846923,-0.728630046013416,0.07223316016920808,-1.4098295336382511,-1.4652750670375996,-0.14632796466218057,-0.07967644496154959,-2.520627384596839,-0.27735672252331894,3.089647491838425,-2.7754076247941493
,-0.0006382491787798243,1.4815047817554987,-0.05381351138210628,0.3461599263379536,-1.6410371428592236,-2.126411302709788,-1.325973493957988,-0.9390495919898613,-0.314387890168773,-0.7091151691033354,-2.329397795639643,-0.4161402231851812,1.9917054292095924,-0.06400946474456717
,-0.3534610032253011,0.6647900774228221,0.12794073554555926,-0.6032037603375395,-1.5856062777708593,-1.2461665307233831,-1.1972596252185423,0.44841723896169117,1.7017787619806846,-0.04226602336601321,-1.4862970896629621,0.668657739133088,2.153667412437427,-0.9415246631756905
,-0.8222392027631615,1.488036172225175,-0.1343526858375018,-1.6623851126888765,-1.1780745497119445,-1.7896152446792655,-0.8942864340539136,-0.6834095350288715,1.2015681891563947,0.13251328831285744,-1.2903845943356802,0.42928357010345036,0.7069228711142838,2.2910677981257472
,-0.9301659918238729,0.8489593861627238,-0.33505477450037924,-2.1364548439503364,-0.20984909615917663,-1.9987557465443562,-1.1138042709932658,-0.7524475334986197,0.36908489304442516,-0.890928854518189,-1.7079056224707814,-0.019736350258179446,1.42915768389574,4.9237647129234725
,-0.8222577281203692,0.44695992960460545,-0.05495386853808179,-1.344674072527412,-0.5449676335572552,0.5506447719521191,-1.7319217330549703,0.003384412959069469,0.5797041818870466,-0.7682576062304484,-1.312588073330778,0.2266229484159357,0.45631621882987305,3.9902653093413667
,-0.8914914191775618,1.1150203989145198,-0.0018260314402860922,-2.093728022575534,-1.179309804919235,1.1156339476449098,-1.2279440474862613,0.7515433625431908,0.5180633303248167,-0.667464488760545,-0.9852278761128176,0.6903274728097281,-1.2337711311110195,1.2631532166949297
,-0.6250708604149287,1.5069366320455688,-0.275359367117945,-2.128981142741834,-0.4972046108485254,1.10331395719319,-0.4364141129373796,0.09559635238468439,0.6814172085052776,-0.7482805396511579,-0.9175984675862233,0.282276896856302,0.3653556655895308,0.8151355153824266
,-0.9017430222363836,0.9198041806435656,-0.8729855901671231,-2.4527818021221672,-1.065180557291876,-0.06078214267121135,-0.3513861838797265,-1.5520123830160033,0.3521755461941104,-0.3389753836271191,-0.7876991966806566,-0.9256668655079765,2.267346028280004,2.1618281355004907
,-1.6102804306199843,1.2840739565639188,-0.9999144119507412,-2.1908130406303825,-2.187954324915249,-1.5977891440543415,-2.942135617263054,-1.8205096726623415,-1.985773377789462,-1.2260979069600242,-1.2803644488076769,-1.0629633228289406,2.6316404433339016,2.367418816352158
,-1.6979380438694656,0.9856838628928632,-0.7191170994198817,-1.4458581218325264,-0.9338773418309232,-1.4193330441770942,-2.6111726602936765,-1.6396572313378175,-1.2270159458327907,-1.416246791146969,-0.8879322092442568,-0.7703254929589417,-0.6850608953031764,2.375739411350537
,-0.309158450212697,-0.1429927352407976,0.2867899659691346,-1.0049571454487383,-1.6734129361397354,0.76855842915166,0.20356334578260304,-1.331063370057795,1.4946804349558274,0.1745496165698344,-0.5334920817505203,0.17864086490180325,-0.21174908393153863,0.4914556658755674
,-1.101872984298257,1.482486348798391,-0.0997019245026632,0.04656610258647101,-0.5916828411121005,0.8865945862615937,0.7774781233168571,-0.45763026404685964,0.010146684334577381,0.392313670904667,-1.0067560038751486,0.7325421574797182,1.9630846519557064,0.008911948702508556
,-1.819200122885905,0.21440239735539873,-0.5959564715505766,-0.5034138625311275,0.09231142248355163,-1.7006460256752598,-1.0696378143496792,-0.5328144692559692,-1.521356361688854,-0.9490610916706161,-1.1647644567512594,0.03864372530380045,5.217696725003244,4.92196587896877
,-1.2696816684195653,-1.273535442858225,-0.6036552099353387,-0.13058383846253555,-0.7854814321256215,-1.4933672075883737,-0.3824035273528259,-0.993448513687344,-1.595712683921285,-0.7741194209449004,-0.4146440307018154,-0.8210759793636304,2.9301731894117418,4.993857821405699
,-0.7224065112245809,-0.2872909326054065,-0.29036541424625323,2.533377731407526,-1.0566722975336211,-0.680640707454047,1.010994631509965,-0.620050738535563,0.4562678586573165,0.25023551894919444,-0.5844843910734848,-0.4799243611522592,-2.759791440304786,4.484305318092007
,-0.8403321726179493,0.9753593546088983,-0.29241251383082584,3.5489692369474786,0.05157865039943536,-0.7391089538181508,1.3389395925861052,-1.2201557761012283,1.9826418431791846,0.4020972153353231,-0.17741155115975946,0.6195909918901115,-2.090341066847293,1.4601102435519309
,-0.7840174534777105,1.1154132818569655,0.3494600392728955,-0.11833157997530429,-0.42253592346394026,-2.0575940016672485,-1.2439299962682666,-1.5571398731997559,0.49202758730872137,1.0120677954272348,0.17040714925327877,0.5758119527796397,-2.164411267813778,4.329695693987009
,-0.7146468055616346,1.4338917035301504,0.6798015278123369,-1.267509704497396,-1.7931987282086972,-1.3991592972109537,-1.8800635984825618,-0.7741979886489091,-0.5089792573565396,-0.12578202223702153,-0.30109899901162623,-0.0644835356594045,-1.2269940913885713,3.2765347723092275
,-0.5073168601410866,0.577640273958311,-0.21735918904061655,-0.538914442156537,-0.7824334577197422,1.2611223991693223,-1.023329703177052,-0.8312848249135448,0.029086769842945503,-0.5011377467728377,-0.2791786444554762,0.3536370755786104,-4.800475282170601,-0.26851957614694166
,-0.9044621732120421,-0.8612037025500566,-0.36357946030049193,-1.9657532221229461,-0.132639663122532,1.298854997158621,-0.8413243548915089,-1.1282744659952644,-1.2491667140511324,-0.9095427827553603,0.19954002349114344,0.0487075238793348,-5.873459835314776,3.2146082022948024
,-1.3492231569176634,-0.2447974523779866,-0.25296978824273036,-3.8858139047909055,0.4551354920745702,-1.3246424285815366,-2.10378831799507,-0.7444561671376525,-0.3387239014287186,-0.9718533768042803,-0.09661902637499326,-0.4265884581238337,-1.540756154620923,4.813575432399772
,-1.3086617275788626,0.5241190051500125,-0.14079473428205452,-1.5587853336937036,-0.24437010462402198,-0.9241601465768102,-1.8337813963499439,-0.692336974927129,-0.17310492723172488,-0.4489464565678862,-0.19584770853467043,-0.10739100947723822,-0.7963771004379271,1.3513971957460662
,-0.6207993680778635,-0.7331783365887722,0.03253448406654177,-1.6910364322707347,0.07967902561710849,0.28557219707314774,-0.14473694558658237,-0.22584561999394706,-0.04032739632226815,0.21521686143673496,-0.34895801681852867,1.0557560212245385,-0.5312849291399697,0.8203351000879707
,0.1473996770753097,-1.4371734503822131,-0.08642311704434287,-1.8875917534061968,0.0756073357408662,-0.3932689915958578,-0.06624429629593472,-0.01004123939034181,1.603457470451767,-0.84947789883811,-0.9148215472036448,0.6906566021011693,-1.0564762392774136,2.22039796306194
,0.16438493526015077,-1.0537278050736594,0.10239911801261614,0.40385021680351824,0.33635373079916947,1.9205801701623462,0.05916757809173401,-0.4011979461563561,2.9757561133122645,0.030170166117577703,-0.5217973764779928,0.71140482885337,0.11165010205108972,-0.01475591523736654
,-1.043786338204403,-1.148616063728346,-0.19994798699616323,0.4923994196979202,0.3921961961570073,2.180838470505966,0.33842147411682366,-0.18850896708316514,-0.061435023189001445,-0.18828998139971825,-0.20083139722723084,-0.07853092731213067,-2.930826736864234,6.161283982580221
,-0.8967388105934657,-0.8294749981035476,0.009862583431117775,-1.537773254718372,-0.2926622911562628,1.7242038807141646,0.44415416544862535,-0.418870024399161,0.591691117506202,0.24059723035979816,-0.6749405503337818,0.3766598684278425,-1.2860726877793285,4.760184987132064
,-0.777474960626612,0.4917923947002406,-0.07807698036208063,-0.0013626594261581968,-0.6260061809149162,1.9136207027348053,-0.8937260435549456,-1.1485074028671034,-0.3091019588137401,-0.12744450753297148,-0.45081249236568927,0.40610968062712155,-2.247242970321065,3.349814213853227
,-1.3097194219022814,1.34401964259707,-0.015193286637213012,3.0505236158122666,-1.5577909339613183,0.4527533874530119,-1.4572648148640328,-1.3787046285458158,-0.5905370336907647,-0.3147141431246738,0.16087568743717873,-0.1373365379751258,-4.271700736716594,4.807450036562742
,-0.7881079512786088,-0.17055479941646887,0.25694549162819086,2.195919270547232,-0.2251294439628705,1.319696681369082,-0.6169330360052507,-0.9661868224451285,0.5048284655177537,0.06937385355799176,0.6346964846661711,-0.038729772196428966,-2.691611572404279,-0.04387389050710187
,-0.46210220265798757,-1.8062519566791166,0.5533770637008638,-0.9639101855796445,0.7883641273347148,0.539672164430914,-0.26612128377790745,-0.7577892482707564,1.6070253210398848,0.23663160978506273,-0.24660836467820818,0.1374514369031211,-4.9182457428507735,-0.3443011831932168
,-0.7241548199998058,-0.45827642612460145,0.24365149726166901,-0.5607251576058269,-1.480877664312255,0.08680555100959692,0.9149208693563812,0.15976435187455865,0.8259187747087517,0.13709154848160318,-0.7613479084314587,0.6605782594673261,-4.631770915708864,3.1991919037756125
,-0.3157790152089498,-0.6582185502321871,0.19213915001169302,0.6460058326514878,-1.0380059918480211,0.02902364877721287,-0.04644542085408838,-0.0674568716519661,1.2107179746021477,-0.08698699602038136,-0.7933429970653001,0.5322732767708893,-2.860275130973596,1.8979946008034798
,-0.06115922074506411,0.2132263746050246,-0.11262157876151917,1.8676935885362975,1.0000493071592356,0.734956596381675,-0.9729705109529342,-1.3993184945653734,-0.3768107404460087,-0.7568092806646227,-0.36202861989409063,1.1124344587584871,-3.1475109234648664,1.8141532813095447
,-0.0019790739045935884,-0.4944939946366317,-0.1574618650834182,2.369537343677339,1.3760474167306735,2.4146779387166473,-0.47122313020571316,-1.3230204204492033,-0.02529639077187704,-0.7228723826202406,0.3468123822496144,0.7855416933015821,-4.7881140111018174,-1.182961388993895
,0.2849392477513372,-1.0458155757030168,-0.22903241820447703,0.9921074425767239,0.5152251498502406,2.095766638413849,0.2920785150998978,-0.15089695085426985,0.47970539646347976,-0.6082974511124767,-0.0677184808351648,0.03916170048709679,-2.746240570783274,-2.2158624886018234
,-0.9143496836679241,-0.1997888386386447,-0.048723503688075626,1.8770033320906685,-0.43866537666863215,1.512000350779235,0.18334885964968933,-0.9148343977035941,-0.9966898464127778,-0.6924402563586017,0.05155025790024508,0.07186156244230026,-2.0039710992468125,0.7917959097677622
,-0.819847312409567,-1.3587848772690663,0.227643308106203,0.8234362129197519,0.49169254097610476,-0.2876761581037881,-0.7897766500284414,-0.9141882785160613,-0.5902545707225033,-0.15339865078606152,0.5586237538015169,0.9855991009039748,-5.866700737118104,-0.17890991826491326
,-0.5817889217669299,-1.020002652652908,0.33515161739084687,0.8876837861700375,0.7770197478908132,-0.5958588444224532,-1.0931274393431203,-0.6481890342155349,0.5824777303417663,0.14208462680967518,0.23558518364212683,0.8407125696607504,-6.501946683483143,-0.4305094458137884
,0.16986294312741199,-1.632736396963656,0.37300787256043133,0.572025139171776,-0.7045013262838267,0.5881831032392422,-0.19128660474062917,-0.17509990734180075,1.0683879378415053,-0.6256391514232855,0.6117978293133219,0.4637648554000455,-0.7820878363258487,-5.469335737599619
,-0.015231097176844587,-0.9183463628522733,-0.019630903522168057,0.6754851970146708,-0.698613110537872,-0.4206577087590128,1.4567419284428866,-0.15364721936660689,-1.3770884164977415,-0.9612591212511418,0.11262678672569447,0.5958740302740121,-0.08966622726869267,-3.2336981779385074
,-0.3122146775422676,-0.5602245048778032,0.15958527755984972,0.28992948232522175,0.8150281753520953,-1.3827438661916902,-0.01720818761394947,-0.0917187655343826,-1.6204980971221539,0.3289986015495703,0.17069016605473195,0.62213059646977,-3.7625720797748197,0.4755457278086276
,0.49607339205937045,0.034218363720865626,-0.05009942820465389,0.21293090670423728,-0.6472171735873505,-0.2795533101690221,-0.9750333091924825,-0.3235086154663947,-1.3265640201183553,-0.3642548421647429,0.34818531179328943,0.2381566156287078,-0.67713898987854,2.2101976184036265
,-1.0495710994439584,1.4454197363590202,-0.64381035536951,-2.002008343051495,-1.3898698988187586,-1.3488717134419574,-1.1116239712163092,-0.5844385385862262,-1.5655577194293142,-0.8272633508382047,-2.093601669381919,-0.8994622693948183,4.059259661264031,0.12447820722399609
,-1.5680543310314439,2.7060691782630033,-0.8247672692938323,-3.230844297353075,-0.10291385835628188,-0.5821895047071142,-0.11032509464436616,0.11781545428321202,-0.7458917885054109,-0.5189956139469374,-2.5517765701875277,-0.771142251478418,8.052633982481897,3.826839525488887
,-1.2033746759300092,1.6844802426998182,-0.10508073606983341,-1.5987038980748864,0.6719518746030981,1.2249797591225469,1.901455280300438,0.1405941882841954,-0.2660515859828373,-0.2440747472187227,-1.905352494366159,0.45823730319195854,3.5313563598349815,2.1772744106753055
,-0.739502740239211,0.22499068203823022,0.775031327855672,0.944960950641404,-0.6647135086494261,1.5447138705792165,1.3286453734352384,0.24738966856152314,1.3948862612481059,-0.4463147092635266,-1.8212251011538854,1.301379138520308,-5.72034310664168,1.8632124209533105
,0.055723646130222924,0.8187615083801087,0.37211890565732236,0.07029571015442906,0.09642093129019282,2.573406720121561,1.0370883469442864,0.27444207142648647,-0.13254395154801699,-1.0419015519594155,-1.1404326341599076,0.7796934758945474,-2.7570049760338526,-0.7747831317568938
,-0.17839414327906017,-0.6883921641963645,0.2720739668262397,-0.06257626432199194,1.1887822728878086,1.3074756188607337,0.5396331234160796,0.27197755279262764,0.14284311178645093,-0.9094913589973832,-0.4530746489675084,0.20536635022779318,-1.113057838886648,-3.196705599201813
,-0.41957037568691946,0.6450934293446238,-0.02340848458611084,0.20975017093056403,1.2649583824949406,0.4786778827396717,0.7855186690680346,0.48705587674696327,1.69782151407766,-0.2582254598652731,-0.5268477211310624,0.6935400282790175,-3.4743214686662434,-0.2694610224900129
,-0.5126483221214104,0.9170528034195914,-0.23976990318586577,-0.9402174555943439,1.6105121550443535,2.0238335789515234,0.6039118650901828,-0.10793886965666308,0.6603207799737639,0.2317053564843726,-0.2011839028465874,-0.06438393575888265,-3.317611181926255,-1.1120884898816932
,-0.5438468870668414,-0.1299460221996152,-0.11900422480961735,-0.9137518220001796,-0.45390187300934526,1.1885650234443863,-0.19224623460601636,-0.9199132038022098,-0.4646733521208972,0.19786835644872064,0.12480974368688827,0.19046908640361138,0.6753019299899428,-3.751987991754648
,-0.8845806917640776,-0.00933476785514494,0.3094272581904854,1.0060573218920537,-0.18408845701890209,-0.6218122688179315,-1.1784058525603587,-0.6275777810932335,-0.4332691885344784,0.17864991898267404,-0.18135527919140648,1.3528710022132506,-3.1026237365268434,-0.7549705617427864
,-0.719600070497652,-0.3490255155810953,0.6992276822315266,1.7734097185591118,0.23451670713010392,0.26708399314653114,0.15223341747522334,0.4377939183060507,0.02377081173410553,0.7102945826297882,-0.4797740074929705,1.273378533504565,-4.578395775168423,-0.1428764162406837
,-0.5268147811975219,-0.7958817468381546,0.040494555454627296,2.7762894383759793,-0.3828636479352601,1.4204784667226298,1.4391729516664342,0.5038766293615164,0.8603182428036374,0.8578626642035848,0.36585255119363025,0.7741200546542375,-3.4332394596694744,2.0892063720802425
,-0.5842159923477647,-0.6103402338462648,0.21602356317221968,2.2063471451823227,0.13864699020905585,0.6904990925327524,3.022128481871955,0.04178501136341137,1.947514878304622,0.16975707232939824,0.04883701927023045,0.48505700396509777,-2.460468073375582,1.4911529113684685
,-0.38341429077631595,-0.5929633492265404,0.10015300515920623,1.0512495072387278,-1.4364860305656044,-0.13084872995939822,2.0728931049085952,-0.6834995515925073,-0.14321809127054025,-0.9071692504883466,-0.3736960965107092,-0.10758133887361819,0.5628877432930535,0.2468098205185104
,-0.5176305468451828,-1.0864380340264759,0.09844119379372532,1.6300666168556173,-1.7389943970400215,-0.11337595716199857,2.0734878005934307,-0.5700413511803544,-1.1291184344556071,-1.0799676599739407,0.3182392381494244,0.15003466790285078,0.020625948348441482,2.33188852573239
,-0.7488633778853354,-1.005177561909015,0.3892588790123391,3.0511023282692324,-0.6071772619116802,1.4828925116001506,1.4787061455355315,-0.5735499577290404,0.3452809621299083,-0.11343982353081442,0.75794767637421,0.6591236646991475,-2.8055603070725486,2.55577104917243
,-0.24822120994125657,-0.5242986656667502,0.17835531435075208,1.9223366389515746,0.9251870460681616,1.3274150706203982,1.1646988610181592,-1.4279101874644904,-1.4866068237549623,0.3130879159663588,0.6735188942455524,0.6690015585657453,-3.5387551516857787,-6.1170311595035445
,-0.0019997050611321697,-0.5543703859536411,0.2787152475537711,0.07782228983526293,2.0066292317052463,0.2805027407312796,-1.2132467904327089,-1.6741761061288032,-1.1216390133426115,0.23064650063077333,-0.03524403694571484,1.6716728127790978,0.8039014923934081,-6.943480747683514
,-0.347968948052586,-0.6436585446705827,-0.00409632710758485,-0.810633690810258,1.6242550880583781,1.3293172120164554,-0.9314271813344739,-0.2558765639431462,1.0238912471499144,0.4582466565843834,0.2725178713804867,0.8967896789695846,0.7552240788898142,2.013543693985017
,-0.7757380346363142,-1.2905045016637198,0.004443966534807109,2.0681106513453695,1.2541818131548363,2.4795411358811568,1.246969910019026,0.3167627499441794,0.6238864693135371,0.33974264790689385,0.28052275275865723,0.953023884712167,-3.5036372380511818,5.385476138759144
,-0.8403797526172463,-0.5340280310297802,0.33895070983134823,1.4716364818518797,2.196827397018869,0.5714178667885793,0.004793775773280292,0.32071618432285387,2.230556936259562,-0.336430967795744,-0.12705884026356334,1.764450337399416,-2.9693863430661134,5.392952764910559
,-0.45281551757805494,1.481391390839437,-0.24879511297444581,-0.7424592328216826,-0.8450955017146883,0.09980149362577459,-0.18896853393986499,0.33914422225850355,2.3049453401262903,-1.034220283177611,-0.921135782455814,0.07830435439425378,1.5209029328300419,4.296402952288318
,-0.6882378577172592,2.5271434991470145,-0.4299002897255098,-2.1523251879853667,-2.2275900144056164,-1.8437006229496289,-1.4829865330010086,-0.9788425631080461,-1.4823129563079651,-1.5491306123590245,-1.528120576506494,0.09123801062052771,6.234372805375946,4.411773847105993
D1,-0.8363195458778319,0.5292961090070086,-0.0861444261460529,-1.7356791231631226,-2.667204789476474,-2.213754511328954,-0.9513870122882917,-0.3018855536514789,-2.5020773580837092,-1.5997999147012056,-2.1592917284499293,0.5935133415402551,9.975431277615826,0.3107443088009319
,-1.416044356193108,0.47809544091459055,-0.19867007005709353,-3.9687997355537705,-2.733708685825327,-3.7014401954780918,-0.37119348751573383,-0.14448680865959201,-3.9979399667358515,-1.8004311779910345,-2.1406940439137863,-0.3742123703443505,7.156033115396772,4.2305875548570295
,-0.7744048942967628,2.1486115912664276,-0.01474079252998107,-4.274283955063087,-2.0249142660049735,-3.373622034629219,-1.7030847340762647,-0.5838375100364513,-2.6035394737871926,-0.6537356556998641,-2.175981754049782,-0.4863921581307698,2.1048149220690306,4.540852888480402
,-0.2260880900628696,0.3228611523811146,0.5538160365813904,-1.2684438501034883,-0.2816542700137888,-1.5449789643998744,-1.4242840584332352,0.10221651417858536,1.4431316266042975,0.18646726333924185,-1.1697905962582833,0.47918540286906247,-0.24744983491966016,5.047353362833473
,0.09013728343531514,-2.145893247750786,0.5098014373327054,3.199514262832849,0.9757925460368848,0.047387911954931854,-0.09902506593930953,1.0063876852948066,0.3208441194842264,0.13903849381476666,-0.1728963412033954,0.41977266247235606,-2.792092564644763,1.639238882423467
,0.34247071480920604,-0.8860506779196535,0.7276611105391646,2.3543383282320214,1.1416645812058177,1.313924855828484,0.01966450487139048,1.4655222245443542,-0.15243553955028566,-0.14655069635609522,0.33351019551381195,0.304409154142807,-1.321929327702837,-1.228135128410293
,-0.09176626789181706,-0.9618123146112457,0.28379954514989475,1.2103289968046023,1.0893223936680168,2.8534360174729696,0.5410297681566753,0.9782798864115927,1.3341015570509875,0.010891089734569814,0.6230905106270282,0.4740469774071889,-3.5357227065423396,-1.4989011328138873
,-0.884101958808492,0.5272905488223294,-0.022642104077175908,0.5059207388645549,2.010690671114128,1.225865530455661,0.8200201544129916,-0.2066752367889988,0.03841860142352687,-0.46980908109852076,-0.21252361008017917,0.4274149008393649,-3.6286184093270153,3.7773718396499856
,-1.0140779253769374,0.6578469512301789,-0.13879077619322483,-0.5456960373888508,-0.6178546666913409,0.4612702936881552,-1.106304827473792,-1.9579966679263394,-0.9359720122099338,-0.704038534952041,-0.30390879555595696,0.4078437046824997,0.8109119140757143,3.72811912992029
,-0.4956138565582564,0.055332486904735446,-0.04991828230523155,-1.531689800655787,-1.5528021921310466,-0.31838751023723305,-1.5874845667433506,-1.3829587112652129,-1.2180446628331114,-1.148099305052376,-0.9805480911235702,0.19082982794537753,3.84415875100577,0.5376015713534003
,-0.12568511897183204,0.5858089908973353,-0.1233442307599063,-0.5001578447610618,-0.6562286271228116,0.48689041407952854,-0.8882468370085166,0.4443585537128325,0.19654621590857052,-0.9809949023505151,-1.3205417177258774,-0.4936864238452924,3.2024650185145345,1.5958259764693945
,-0.035097600735866236,1.398048086372367,-0.2700634090804404,-0.1871726406758753,0.13425320201845672,0.9796405963222186,-0.14276292408462393,0.12090068230757052,1.7823255503357265,-0.6719383516216515,-0.9129513393033368,-0.9153992582475118,3.5340888880684167,0.9117736739788685
,-0.239736895885901,0.6209373999999879,-0.2531724675160057,1.3529784399367568,-0.5168316872587756,0.8867060290776316,-1.0155251703774346,-0.9214166988142829,0.4613237766804787,-1.0227379749178123,-1.1070669806202247,0.10931457147944154,5.99896931458613,-1.1629116962626087
,-0.3080892940573026,0.203563918240048,0.31355389991247734,1.4272473865660262,-1.0166146415752861,0.7835840287958029,-1.5909825066604046,-1.2334466359779697,-0.2431874127058422,-0.9263611892913287,-0.6821847085886146,1.0925033767559582,2.4056092980787773,-2.985723412341957
,-0.46740106900247386,0.8581397379564724,0.06303196338232275,0.01914231543301169,-0.049025009480386676,-0.07604416941918082,-0.7376920071299138,-1.1346002759192473,0.7809645044199256,-0.08924473425736693,-0.7555492951598666,0.31188261599844014,1.6165303509130986,2.2458458635123053
,-0.8203371959217531,0.9571953236093765,0.007004846362844186,0.37246136442393873,-1.4644943159299086,-0.6427686239166581,-0.39727325367093225,-1.9562783711072769,-0.5249723322467714,0.7565888585718485,-0.12839754939561504,-0.06236649228118959,1.84774701785536,2.372054270379559
,-0.5653971909417121,0.65980135658279,0.10158842997280891,1.0118656493018017,-1.2084041813592705,-0.9677334404139654,-1.4929811059857938,-1.1350518704143067,-1.3304627036281933,-0.28692689647542496,-0.8172365343673585,-0.016635099407390948,2.460282703465795,2.6827774806499973
,-0.2621966449472375,1.248562312642931,0.03642179770045547,-1.5911804868793962,-1.619653851974644,-2.013629415211815,-0.8333488095745376,-1.0589750140602536,-2.4089332528993888,-0.5865847220024514,-1.6423115171642957,-0.1796318720453664,-1.9134674758703152,3.4193057802470443
,-0.41810269237474934,1.9737519535996009,0.06885483227625569,-3.537145651540115,-0.7563834062603044,-1.508502056931041,-0.021935934381575106,-1.1885909294291601,-1.16518587703939,-0.05959021975331175,-1.2933268207368656,0.27575079845357525,1.9412644878233691,2.9802100976011
,-0.7107427808174238,0.7671860972712792,-0.0643948207924736,-3.7195954070444275,0.04034309657058372,-0.13725735831483254,-1.8924947653368678,-2.4431504556813577,-1.6889372466563137,-0.12599379004031827,-0.5093910314282634,0.3752172934596072,5.3462226580137315,1.894357794631183
,-0.7666490336106053,-1.0257101195963236,-0.515525335064802,-2.3568811349480674,-1.1837904778298936,0.596714228218616,-3.150091218352844,-3.2440259385983485,-3.157925898018533,-0.5053475649868373,-2.0881979121294765,-0.19729368747615003,6.364242164533694,3.99601981995565
,-1.0121795399828353,0.32763247323636346,-0.7523108068319224,-1.8768268914184376,-0.42253306858536294,-0.4278838782628226,-2.4533751892627684,-2.5616052678656094,-3.0603736603226652,-0.21153353673282643,-2.0350416057550507,-0.23233743394746054,5.537903540159074,4.9921345339909315
,-1.5180973941075813,0.6683964831760197,-0.29615308692844694,-3.046841459823544,-0.2917244614294113,-1.5747145097694815,-0.5766728207393759,-1.1191584351086437,-3.018261288094209,-0.9248705441246121,-1.8201843440534138,0.19178297802842612,4.94937418209191,3.322110127976771
,-1.338535340036087,1.3104505878196253,0.5520789189988499,-1.6374405558264211,0.7877500550633396,-1.9993495972274888,-1.4167729125540574,-1.274435533167848,-1.5073919836901635,-0.5383329849798812,-1.8004025942331694,-0.19330689688958358,1.7637442256939788,-0.3646176844089848
,-0.6856994119312138,1.083393788240746,-0.47273702434771503,-0.9731360394322128,0.2963526499859018,-0.37903250283316187,-1.7210618949899363,-0.39023081512820734,-1.1417757261248886,-0.35195991428813944,-1.5881243851208486,0.1304053309002555,0.36829734599124464,0.5542914793392509
,-0.4734766625168494,1.3062839334079532,-0.8028832163475917,0.39722719700551895,0.11144482052113572,-0.37465535451769766,-1.6177946457736392,-1.336829348699531,-1.9157629330100834,0.03137824660038264,-2.7987518473058945,0.29984785015343035,-0.2281953748058366,3.7515099564598384
,-0.31540621972594457,-0.0663407929266715,-0.03932660809034488,0.30210549702045175,-0.49980080885164335,-0.34583721062609984,-1.1151276825294076,-1.9529796418253198,-2.7080651928520463,0.1965948314763634,-3.1453086283389267,-0.09869671638238674,2.3489890439124625,3.471535159524048
,-1.4628295048932725,-1.0526218706937427,0.18178701192477448,-1.3963791922445141,-0.06947894118071841,-1.1417410258573861,-0.6709639543372146,-1.630164213466852,-1.6816164648783816,-0.326139741864273,-2.2315569660847667,0.4469940155028562,0.4356102209470237,1.6934116386105769
,-1.355387267756503,-1.2869403277065947,-0.27773529491791066,-1.2919309725365893,-0.3767819902204211,-1.6090919241794102,-2.0299286042733566,-1.3618690539089817,-0.31013733471053767,-0.8053323161004986,-2.039523630819597,0.37889155274941205,4.994467019453434,1.8134743992024989
,-0.8178447900772118,-1.5536022574988926,-0.12521277411734152,-3.2776884890376863,-1.5616930278833363,-0.49579076176239284,-1.8659766971252278,-1.9176330770900667,-3.1443871201407823,-1.6846800576854628,-1.7464575401805666,-0.3932300478372745,2.6193627097885774,3.726116411956282
,-0.6486017427866031,-1.0633769402660536,-0.3396814063840355,-2.261187478573071,-1.2494421088955714,1.3412354268427131,-1.0764709652781084,-1.517617239412128,-2.279187443734888,-1.2048697218917725,-2.0443014657098253,-0.500547505414456,-1.0443883837837296,1.8654702949414939
,-0.2927813735367797,0.18069293603445163,-0.5106167741191776,-0.5395262522037613,-0.0781024661398711,-0.10414896909808677,-0.7280437832418513,-1.7547128438296329,-1.5645481832213881,-0.7843406491188681,-1.975975272469745,-0.2261459268100823,-0.2869114780347248,-0.9074270774915393
,-0.31896934635270846,1.3133019038794556,-0.3498218879065269,-0.6331781426880921,0.3485590579570728,0.7785311836113279,-0.11377964148226345,-1.9859299429679025,-1.2446355248021497,-0.13210759910063427,-1.6155647742238,0.792739668941258,-3.0773261647622956,0.6703480650283391
,-0.4228881641034624,0.5769213605522171,-0.16418296193609827,-0.13392874515294803,0.8181179800509377,2.1085964795803642,0.5854112308042488,-0.8521647731994191,-0.22120267366079363,-0.4374581114549641,-1.0964015334923898,1.0796957249813721,-1.7855397874051402,2.004820110742672
,-0.6614862642706765,0.5553568478203618,0.05593569641608202,-0.42555183449034323,1.0690867788844567,1.8322794758170735,0.31710698718238534,-0.2009329000255636,-0.07879462126157735,-0.7977856320510217,-1.0432972452082898,0.6009160459566046,0.3569343516537462,2.8876297732903766
,-1.1044260980898022,0.24267050511608987,0.16776052193743382,0.16695595061948607,0.14280507417020066,1.8354764456499797,-0.2183423509634413,-0.32216546054418577,-0.6321352434903535,-0.23265400260490626,-1.6865322327562071,0.4490726232855001,-1.1398833958655912,4.939831646154203
,-0.9723671188520321,0.6052517837121225,-0.1072096338919347,0.12477817460214792,0.3906667299051293,1.7727270904938035,-0.8186603866535667,-0.27430864594633375,1.290075420220713,-0.21904128058776318,-1.2903063003802218,0.17657448124105002,-2.514617165993521,2.8844092894692515
,-0.8934948715208894,-0.4900279107268285,0.04071455481306862,0.3528314801634571,1.189774209610928,1.7221212738561666,-0.7565391781286044,-0.5396130198437535,0.9490626668371688,0.66223426126761,-0.6893470879989917,0.7371351964291817,-1.3024414567390783,3.63651295274097
,-0.8909637261336394,0.3922025502574165,0.41552797505724004,-1.089038084074587,0.41918140614652083,0.6671383319359412,-2.0548659853201228,-1.1424277944318242,2.2847871115676748,0.8105823865036742,-0.9451782000850145,0.1342018060737854,0.7478104430582019,4.448479222152507
,-0.8242456587722445,-0.8253679535362854,0.0013827354322008076,-0.63976559811306,-0.9715288594350275,-1.622337190852246,-1.12234951458016,-1.0632402200446378,0.5109876539235556,-0.18598925556541293,-1.0664947143047898,-0.4510827472583559,0.10439562088525388,3.7416723801774623
,-0.6423399773220035,-0.40971713225371165,0.09538909678901893,-1.2135515212543235,-1.1426560079296217,-1.74730889594583,-0.5505877847473652,-1.1865855667932905,-1.0645377430089888,-0.8204195391438938,-0.7162645565108917,-0.5532522310514513,0.8935547222021683,2.398626466444895
,-0.4528144007120359,0.47878690746048086,-0.020520075944149493,2.6081874499254303,-0.0497377974814321,-0.7167416499383363,0.0325407221207352,-1.5979482687790152,-1.4913505918079684,-0.6450762263821773,0.05367333824369504,-0.4119300766347703,-6.463062334041748,-1.373504617706562
,0.03273360236874218,0.173877253447497,0.21220157127230907,4.255269615283401,1.1680433333156366,2.8476398866405255,0.8341875264701406,-0.5798763746628925,0.5349709148808437,0.3365472586628508,0.30985247500423785,0.03694591175362234,-9.884618329780988,-1.1021082158152964
,-0.7975000970922483,0.3245454664103701,0.35391727422619795,3.12082013153455,-0.032571476295888024,0.7287215636235951,0.785840819780032,0.16698768759923763,3.168033089899691,0.908712579523377,0.16150299793597253,-0.019480185860728187,-5.687091426692854,2.667862794164855
,-0.9172164276013882,0.0867508636081008,0.004255723933923659,1.493089890000905,-0.26461790192478063,-0.33829194668314255,0.88047174582116,0.25278060689569276,1.9398687375105974,0.46544977551715977,-0.6813471942184758,0.46647313494501064,-0.7815631520550544,1.4037381082144034
,-0.5152827981018119,0.1745861678328113,0.1221004139145013,1.7278015494398875,-1.3204090683481327,-0.9872745843360539,0.45013386605772754,-1.8899807813832492,-1.7012485510105044,-0.04820817786135039,-1.1311864288668048,0.16741201414618642,1.0607149213056866,1.4095346193470308
,-0.2805164394602544,1.411254400753062,0.10428126247924319,2.27173447187035,-2.0682742257457147,-1.5938821348236614,0.10047035811747376,-2.3650795080335025,-2.105750239109077,0.2790722169389602,-0.2569311322088296,-0.5122042734593958,1.0192137761733424,1.8671487179755464
,0.006730104864029004,0.07706509116919431,-0.2204988997103987,1.6160725013605937,-0.2942979471937589,0.4468094998833472,1.5284631099119361,-0.2921565600145426,0.8844238846585242,0.4545984723073945,-0.31290555661424946,0.23576067766800723,-4.604023286383871,2.6697384815997207
,-0.3648473631187483,0.460460064088713,-0.13557878887940653,1.5216969082148402,-0.0774493732434233,0.5385796858721605,1.5525035787028734,-0.3524996649972572,0.0790735224397775,0.5494326615688886,-0.414685385630638,0.7754631113416387,-3.945203142083995,1.129113607461861
,-0.48498460895984036,0.04695225744654841,-0.18770606107535204,1.094148317733665,0.13835290285898447,-4.452289234983627,1.3621844135471317,-0.3261742263672146,0.730420676081294,0.4572930513572943,-0.43050107490059186,1.0629173311166582,-4.777602651921594,2.188255672005464
,0.08533589900054032,-1.3935034561517008,0.20383015177863356,-0.20784758196051203,-1.4028907417872671,-6.675267135954716,0.8361952934360349,-0.8334740614494918,-0.6498845699931121,-0.2247454883057361,0.1261230400759578,0.7678555531194471,-6.5089407237181875,2.2539370077572185
,-0.19733446348435216,-0.03748817930621393,-0.4321848935153171,-0.8296960163979663,-2.2579742260942446,-7.759847467247688,-0.4742766612448641,-2.190040887462409,-3.043834776361906,-1.1832788082662913,1.0031978748467,0.7511645784821862,-6.77625992691049,1.792663368932384
,-0.4710294424096349,0.2938536456097429,-0.47867904994923766,-0.1629153166539195,-2.515688765458711,-6.949675748374983,-1.3802817778304228,-2.310355232165633,-2.8336918237445485,-1.0579637479519681,0.4852070214380404,1.1429281508896432,-3.584695257223174,5.373670834504
,-0.4161155370596073,-0.9491928423521336,-0.1700946883904169,-1.1004027738940543,-1.7089606581550214,-0.6994362614768368,-1.3785652566032056,-1.1545787276778905,-0.7651409769523568,-0.7852211042657986,0.15291033704111123,0.14253048640277244,-3.585379148502893,3.2347314685812987
,-0.3943285473651902,-1.1334853214762293,-0.23366126272246285,1.4871386591244666,0.17482583693614026,1.8551658360370171,-2.330331883271911,-1.973438714752463,-1.4979077024620433,-0.4138780768141766,-0.4271856841552493,-0.15439927504205816,-1.2835159591509369,0.6490201085330951
,-0.8816728814325819,0.6899361759003113,-0.41087337096045284,1.1394547242524733,-0.565507511113355,0.020812236066759627,-1.835047768546942,-1.961921590097814,-2.410729648064608,-0.5891261033981481,-0.7748867072917436,-0.7284575386886951,-1.6150374278882007,0.6009423946296716
,-0.7306417322026648,1.6994751702905648,-0.17196648940568496,1.440642017204845,-0.05342984689898328,0.2523922832962061,-0.3867514667171472,-0.5855180683352786,-0.7914707896421841,-0.22560541224147931,-0.3453454766535636,-0.32473008652072904,-5.417622820456772,2.4650427236326076
,-0.5505846298177292,0.8125339888444403,0.3802806933841796,1.8007965846235723,-0.5801295948647293,0.2258381335266069,0.5038277491998167,-0.8231048143432222,-0.8649272394103585,-0.38163248336224825,-0.05976013438895971,0.17917461191327866,-5.186025312880921,5.753860729016772
,-0.8190126694244214,-0.3196837485732442,0.16399034034280893,2.4124465571337983,0.253760400034709,-0.2719309849279952,-0.21322909111703636,-0.4935241443777051,0.3264611621271305,-0.4530268713898431,0.2056071161762256,0.4230687870928503,-1.6752374360657438,7.287754336358272
