event,eeg.af3,eeg.f7,eeg.f3,eeg.fc5,eeg.t7,eeg.p7,eeg.o1,eeg.o2,eeg.p8,eeg.t8,eeg.fc6,eeg.f4,eeg.f8,eeg.af4
,0.05077749627011549,-0.39242944653657474,-0.048944474344063495,0.03430053464645495,-0.13310565148218792,0.21373651914533465,0.0032383660781454397,0.13043281644284635,0.007403480746230618,0.03170229642292144,-0.1622372020390594,0.034848977896681135,-0.10919891295451457,-0.29771031062532066
,-0.042617935853566734,0.12234904973231236,-0.06618251819266718,-0.10229765354107838,-0.07910528326355051,-0.007094275297552771,-0.17926816574875765,0.11619586835143143,-0.000599808369967774,0.01710693167887546,-0.3698561359267146,0.13753488044763584,0.1309062538827971,-0.47329314722906796
,-0.1980415648177854,0.6877329716568642,-0.08133189611992217,-0.1057399684940544,-0.1433773240471341,0.04993041537804483,0.08490620413018031,0.18317412626513088,-0.027763524850636174,0.08430264852718626,-0.40012006031898795,-0.0391511131089371,0.36473260160611903,0.017661831414620827
,-0.01853826721952117,1.3120857968896646,-0.1059608141521795,0.07502500031178355,-0.05924607831566229,0.001000127797674816,0.3933162897100011,0.26595347296457095,0.05428600408911296,0.03192425504629985,0.03385173733519663,-0.1308593552762048,0.08388948930585655,0.43891132935203253
,0.2988846577549992,1.6267968596499383,0.03575069139857561,0.3958065792239067,0.10254454955892502,0.11859353707800994,0.3123308013944446,0.10411386145496135,0.004729415929914354,0.10551042880317577,0.15309453103055548,0.0204138786415235,-0.073200235910045,0.12111096882170536
,-0.20124103453592326,0.7025443109062401,0.06368200114857954,0.07314458434746955,0.021473628995062437,-0.016178915072717574,0.1869074135337571,-0.06634042834804572,-0.07971613000505628,0.013305470919229241,-0.15538782111025198,-0.06735890694274829,-0.31750454440238884,-0.5447219080539767
,-0.15362168978906682,-0.11953899560686795,0.13170025216424588,-0.060315997845493144,0.01820784985524778,-0.02975431683671482,0.3157172557411089,0.06367384256167852,0.17117209470323144,0.007317796757853965,0.044754635063507395,0.06906178487217686,-0.07252615906982599,-0.4272885579333148
,0.1881367130649691,0.32482530319811725,0.1759324350954328,0.1865311523048086,0.02839760493527368,0.1498198715973627,0.31529100040291835,0.29876400327577485,0.12173789049932686,-0.07743168002668488,0.3211840313270553,0.22742507736008907,0.25223851343312725,0.35126620412663223
,0.31273828050662306,0.5268650631331767,-0.06386471364178102,0.13881054861155312,0.11905751649089397,-0.20014520846935346,0.24249569583735872,0.2235673587826386,0.10645105057167296,0.1408750458425601,0.47750869032657905,0.05438238082375611,0.5666249135935875,-0.009375586385683159
,0.12161601954626805,1.3230962677173705,-0.06582389725793897,0.46811239081154266,0.28235970352637124,-0.0611591550123473,0.5026398216616986,-0.029525334830807857,0.20494513164017694,0.36618734346945336,0.590371557005177,0.17541140497867347,0.5336529294696731,0.09747809141433854
,0.3275271751430644,2.8502384042489517,0.11537451839190392,0.60312657282297,0.326243219611066,0.37047777481295213,0.4420650397086635,-0.0679747363128176,0.12021059653470018,0.22515353885281156,0.5033916611147856,0.34459740786992116,0.847450772633201,1.2887529306228693
,0.3892739520209783,2.3082904260845827,0.038846281024219706,0.5438563266679842,0.41809426776230324,0.36044025378920835,0.41252010292969243,-0.2734911418720596,-0.31158811058618974,0.31909111064203405,0.4641104846248806,0.20179577834839532,0.8013595632906235,1.620082257130107
,0.42439468399410657,1.1246723918039099,0.08710647676189046,0.36744831287034063,0.32761482730322594,0.2200863592979655,0.057361863529289084,-0.19044656921794667,-0.19699665919836867,0.3778596114002087,0.32858427350711433,0.14287367144265922,0.4225392933390218,0.851494712543237
,0.03980525782781163,0.49561856838616,0.12525712578175557,0.24612482449008877,0.17290408171401284,0.05600594511141359,-0.2501428973609167,-0.13279974549050425,-0.08086280047775843,0.39019631965896734,0.2659055356325758,-0.10381144090367747,0.5340013318332316,-0.1779446292455311
,0.38830107646301326,1.5392078907166737,-0.015232798063950784,0.5748225320524059,0.10433493639606117,0.18281449032014016,-0.04279571617656993,-0.10577359924681703,-0.056256965345277445,0.2981803097121434,0.5985250607331638,0.019229843358014417,0.6200581211005279,0.3353167774872328
,0.8810007424913106,3.0806797913205313,0.09523874290877404,0.71377716183879,0.05967663646497324,0.3210910640600866,0.20608468821738832,-0.0652379999093091,0.10501218061009066,0.08370925502550422,0.6698230354854695,0.3676232789338708,0.7202287173137724,1.8183192910808812
,0.7769783098578037,3.2594721893922833,0.16875086751351004,0.7422982914264199,0.14196904932999282,0.2589615912917795,0.32001872188072006,-0.0982552324052722,0.07934575664051742,0.08794340972269243,0.7344813756896501,0.4613496277637393,0.550373763866234,1.9625160191478332
,0.8815100958310775,3.368306846925508,0.026063289080375633,0.8899161282829205,0.3580160857402256,0.07138421578027909,0.40323427137330464,0.003725014269558869,0.01593958069828147,0.22541663682031515,0.6841692997896018,0.35429557785436805,0.4162476748775942,2.9099622833481185
,0.7419659812007089,2.1857143036420283,-0.0561355198503236,0.611269586034208,0.3198377079895536,0.25249381018381734,0.5154861555127169,0.185167476254921,0.055371949419394495,0.39585098893400994,0.5627070138340962,0.4097613959047316,0.36353183607722467,2.9112150197002946
,0.42832395305858434,1.4646356064327999,0.037888937231525734,0.5082693951262661,0.23355460818216667,0.5018228597234771,0.14192086836458628,0.0762275196839462,0.19812870939210253,0.6246052781718657,0.4150165248310226,0.37868876502277954,0.29185096781691267,1.7372999891897212
,0.47016464965531424,2.0145318049291303,0.07524318191609447,0.8813817197400643,-0.09606661633233494,0.1910331276033327,0.11653424838552445,-0.1347622332947562,0.0900739159765153,0.4520934727028607,0.5334219982866447,0.457634049131921,0.4222486572693543,1.3873038639961763
,0.651914765361552,3.829658846091184,0.07455254687088766,0.7129432642182306,0.0104105093629679,0.07781690207782266,0.27499623418220503,-0.06742683589578527,0.1437057636738015,0.30301880758029426,0.4905627027362755,0.35550104072025884,0.5699540253432696,1.464542289759263
,0.38750541327806004,2.1071468151227033,-0.18032570568792305,0.20514675735031737,0.23785708044961484,0.11429381582161752,0.16324296050499998,0.33060314600756374,0.1795088404229168,0.19833213617442622,0.4118373109799676,0.2764660705592848,0.2582333048886395,0.6163415228797172
,0.13512262924323898,1.049585061034445,-0.1189581814633903,0.24075947982449689,0.5822451361503752,0.11639331634302018,0.14520527241278935,0.3395742701028325,0.11988724878672528,0.0765144183107355,0.35877304966986073,0.04270095363004562,0.27713579414763484,0.8039868829338143
,0.47778380226695294,1.6647862621966891,0.14658529846540067,0.3347953504597103,0.5200081149504395,0.2540366498898168,0.1872542673766944,0.2781209036524962,0.381887173100742,-0.1592182818580184,0.3987887432151324,0.050253505840003,0.5912385255567048,1.380030851238425
,0.9025213946894798,2.2033059265564754,0.263532896815297,0.4565471176115914,0.25313685590280804,0.29509638235983726,-0.055432186986687046,0.20208051431384005,0.26561400638352,-0.17861659702216726,0.3039260574540957,0.08639230746154822,0.3923042128038222,1.138882737592259
,0.4710739259342529,1.706831193036059,0.31332696923978376,0.3263297281144962,0.078986647148225,0.18284928350696092,0.09016327566368215,0.23715222024271077,0.2147456768897677,0.17746032037661993,0.249108310945096,0.11455486808610932,0.4231454393667781,0.7626223738317667
,0.41947815812385786,1.6662012431529318,0.1446287393184113,0.13071662666525616,0.08514001977634786,-0.1979410070650317,0.23635783772454086,0.19434899330818278,0.2127366273481017,0.21858105070871459,0.5743836310227028,0.29145126219262574,0.43072287537896664,0.5321321167798613
,0.504971934371411,1.309627470267493,0.14175505488539047,0.286139032625957,-0.1434720005998105,-0.41973851492812225,0.2971612489009835,0.22612892134278267,0.2771813667390504,-0.021417785913068456,0.23383941927417112,0.07512521934578036,0.5913877267764648,0.39682682544892506
,0.36589799576603665,1.3470123159133778,0.22972922158838285,0.4101477611102214,-0.07304062990129935,0.042241607421289844,0.375085491454509,0.3007331102768428,0.12251049742393948,0.005633873584204987,0.31526806641844735,0.12470206806181049,0.8825037475172823,-0.1638733673472638
,0.32920209935630107,1.2479837061223038,0.0865596120824986,0.45622033579100546,0.0397640442092744,0.4645515158280904,0.33314816471603276,0.4791615509856094,0.2539354267757776,-0.07071972314539855,0.7866053969900517,0.4540315373087831,0.6479151223813022,0.04385286234147806
,0.5207015078270963,1.5489368470471259,-0.02949760912186598,0.6045241997354647,0.2105814782603198,0.5286585939430465,0.18510585013148023,0.5236394522883544,0.15031671938907099,0.12458458730589334,0.26614221641736213,0.35899361932788015,0.6346461383960244,0.7214505981393298
,0.6941851274120651,1.7452298642702713,-0.051830570852591906,0.5873920449677514,0.2838714015713405,0.4428807764027277,0.13312543074717625,0.3865088135173518,0.19237962527788358,0.4210137261894989,0.21125510972926428,0.16364565590586358,0.5471302017558094,1.5728838850761528
,0.7589776119634242,1.8461276044159767,0.16284503254713778,0.7605189837700466,0.11815233033527069,0.19834691312765806,0.3286825346993969,0.18868842815020623,0.3914330929899506,0.5334735523468069,0.47710925743565785,0.20125760005176302,0.8543986363714638,1.4499641860057595
,0.6736797922434111,2.114739879718136,-0.01035800607100545,0.9729456925172162,0.10789811053827554,0.24751798933802724,0.46385461130166766,0.12697736444553312,0.09134306944483132,0.04585669187091442,0.2985900477458555,0.15263208820399693,0.6888472224884877,1.1625046837693525
,0.634943931292341,1.2803922243766,-0.028334818338353128,0.9499941521688039,-0.09206307300135469,0.3095040031818023,0.1563838752083651,0.07770419574766319,-0.026120416093946545,-0.09100649898495443,0.08873036862442144,0.18379864665753085,0.2375092988200058,1.138703114960335
,0.21842358538752013,0.9135472163886179,0.01525013257912696,1.0419009611292471,0.20733099407090094,0.27441188168399994,0.2256737860350532,0.14445919047353895,0.22486851655871976,0.08969733805999489,0.17093543120133192,0.13582960471993308,0.14571766098661673,0.6417065793646477
,0.04673391736785788,1.6731739609726524,0.026720924754337787,0.4216674042527518,0.21250916797581423,0.310385445733996,0.49423741038385605,-0.023146537366294843,0.09871521736430872,0.3282531627012496,0.259334676616343,0.031467807944814165,0.2913201942451069,0.5908765796211415
,0.14184898848231092,1.3486936726142922,0.05276690813519188,-0.1776639843180109,0.22277668187181285,0.23704186070402644,0.5213470778162621,-0.08474971240582016,0.11037373829107087,0.1672241773083312,0.3150259119656255,0.17808888690576258,0.41874425342738897,0.28787872777487467
,0.30702444314619753,1.067899280235743,0.24433520121476401,-0.11395973938746634,0.30010724076014983,-0.030104818992913077,0.41268641580937654,0.14650968282396665,0.3386230351035955,-0.14224984768366167,0.43255761583384905,0.14855527335139596,0.6436504961985333,0.2251584707323541
,0.39995150608590935,-0.15144598207861484,0.08067446278906687,-0.2190020370611022,0.1282627030055911,-0.022431154616177038,0.17876598860373627,0.22894202502421251,0.37286360814081854,-0.05431475442923968,0.02928214694285212,0.191780713067462,0.3406693317708301,0.47103515943250923
,0.11187836135870245,0.4714635641110434,0.032012958734948305,0.21630782642369673,0.20399100623379707,0.06689230032651942,0.006289079421937694,-0.011845686527364997,0.2266773542234985,0.00763195198329831,-0.07524683935273858,0.16210090122381546,-0.40025074574939884,0.48560087612285335
,-0.44835573732346695,-0.6304761790886743,-0.2428672370181197,-0.057760929036406526,0.21791572175404655,0.06670996866667689,-0.17310043904990094,-0.34926253620618897,-0.021357928793042144,-0.13791684320389083,0.11398231999315823,0.14357836750696423,-0.8651549524243551,-0.5820483310702663
,-0.5056718030505685,-1.718935931150146,-0.29424853805058127,-0.266046385491631,0.1555733723366605,-0.0268420070011008,-0.19001358697891205,-0.33802854114648234,-0.07429047150062489,0.009209662598461643,-0.03297637959277217,-0.055076413741438214,-0.6393174534905065,-0.8891252996877694
,-0.07480927323602199,-1.5004592979963562,-0.09365571738293219,-0.09210954958562118,0.01836895174167879,-0.06254086254044441,0.056273053776138456,-0.15105325584955315,-0.0606413201178987,0.16269291726772356,-0.12562473339483907,-0.02914285178045634,-0.2744030899484547,-0.4740562279056152
,-0.3238014707766906,0.06896583387187559,-0.061559394593755236,0.2266226061620047,0.02381273007796583,-0.027979985385093376,-0.020960424249895325,-0.011962037253039537,-0.19221241796555655,0.2359602719248405,-0.27228845817501107,0.05832278092755884,-0.5693542518912904,-0.4783947539940937
,-0.5311451977643289,-0.8727461720689251,-0.2432813785612254,-0.25810586522632656,-0.27324349468058073,-0.3770403582182162,-0.35589554769789955,-0.18930415011248453,-0.2555171253240661,-0.2644155545939304,-0.8058667094426907,-0.12919608338098312,-1.287231004323882,-0.7072145552668614
,-0.3710495065150314,-0.8964563642782074,-0.18400118950488736,-0.1378476867077393,-0.23637739890548382,-0.36530549667291695,-0.1259024586522313,-0.08130047983393081,-0.3810110921595289,-0.19456544703931275,-0.7640159193374382,0.009700842288015252,-1.0550316819275076,-0.693340163768275
,-0.3235189518310191,-1.5006648835255758,0.15601875962310785,-0.3480774655528507,-0.17581304602862818,-0.35691248398591086,0.33900551326856915,0.10454199695726228,-0.3120413934089899,0.05374043434371347,-0.2599218090890778,0.07754524685289325,-0.0815572956724075,-0.5885475418217806
,-0.13366082952238678,-1.9626135790992476,-0.04374680229772825,-0.40576825155328616,-0.29524552369998003,-0.49995763906511864,-0.11252628246143252,0.058382965891170646,-0.24501280633405734,-0.11052975211358945,-0.10468955331140302,-0.14233530253987747,0.17183009640108507,-0.4319799293510489
,-0.7613539413656486,-2.2349667450941957,-0.4584090967625108,-0.2893578305151053,-0.3964284418641919,-0.5232497850466314,-0.2393456680804856,-0.09670964377187484,-0.23405209279802208,-0.30830892860743997,-0.6001890354859691,-0.5154016177798155,-0.3352488829530153,-0.9562247100213371
,-0.9299758368055056,-2.168327119146863,-0.4656050785176251,-0.4803761767726974,-0.3373326338376401,-0.5028148086249137,-0.3865714137060534,-0.324035686635263,-0.21178124463601664,-0.35327790781353124,-0.859627205759684,-0.47922721828706494,-0.8382245022045242,-1.08641071638931
,-0.9080985770820272,-1.4097713484702223,-0.4685591776784491,-0.7200402757449808,-0.2948690764862493,-0.5357658487707889,-0.437325143861421,-0.29456347427122975,-0.23235833193509298,-0.4462025444168962,-0.8490409967951436,-0.31546372778285175,-0.8187361867002627,-1.3713289821052796
,-0.7663106342363154,-0.878400796082904,-0.4320830318206448,-0.6297039979094248,-0.3372246939883043,-0.4716140699316266,-0.1249064838200851,-0.2879363229466322,-0.2890576464812761,-0.40727743851981363,-0.4687700308268989,-0.2920392772022671,-0.7551480393396524,-1.0049561627028798
,-0.5883027172983049,-0.25515460695416,-0.2662992932622539,-0.3819272925102654,-0.16800901430654758,-0.31263926497066263,-0.07921685292733036,-0.3000993433307133,-0.3384210922799213,-0.5152175413794442,-0.475555951033589,-0.26987064105420694,-0.7989649294071233,-0.5299920850620975
,-0.08390504391183023,-0.5808220310602814,-0.05877462093864316,-0.3346577257934929,-0.038701522028748166,-0.03740496166169542,0.0463199012759647,-0.006668927281309782,-0.27505384079366235,-0.3387847792269781,-0.2759205720687079,-0.007277932350204862,-0.30228189051172,0.35194156085317013
,0.09071441357808267,-0.15069708510736773,-0.08219299100286165,0.11656004067897664,-0.09334706323288183,-0.13865288262824083,-0.058940214296607896,-0.03534537538488421,-0.13013302104648358,-0.10075330432245003,-0.03594276925349826,-0.005526486083086055,-0.5178534807521209,0.034526583983965894
,0.039874731692044196,0.4638578939815876,0.0042977468187861126,0.1258542370631948,-0.12099443864927639,-0.2240672996692549,-0.1266044405999329,-0.027046765751522095,0.003122413212478184,-0.11063335079194435,0.06822223044437606,0.02556856207819983,-0.21451897470235295,-0.23155574566356663
,0.05771680912912265,0.5183230188153857,-0.02289559696980694,-0.04625773426064012,-0.1665005707927542,-0.12733722076294177,-0.193927731804525,-0.1201289100995832,-0.19724956597389784,-0.39391623950671534,-0.24028050289753738,-0.07207799406405516,-0.08924268078209012,-0.11945668253248858
,0.21572158534785538,0.015736798580148318,0.01372516862663454,-0.2165747135815571,-0.16071996730272395,-0.03702543479149771,0.018447901917187405,0.03224271465738177,-0.08596787477519731,-0.4066299659156282,-0.18319837539720246,-0.020616586704092825,-0.22872241624519418,-0.27181783126484144
,0.3337837727778245,0.1800263805231486,0.05270528806235622,-0.13390475260567286,0.0467758159445735,-0.12714589401726117,0.1488634044768127,0.32137824537050796,0.5496951812110135,-0.020287737054833412,0.07460936908583181,-0.06277026222893933,0.0434215456421688,0.0721452069533664
,0.31058745144613137,0.30816287780048435,0.09419057156981872,0.253177909776232,0.3826188414724793,-0.223665154701302,-0.07654755462445458,0.09642097054707016,0.06039503410052245,0.013737434991773143,0.04875612196618925,-0.05642567759538483,0.0108449265606639,0.41606724449380683
,0.24709276598096067,0.2318755031491571,-0.0962278798042599,-0.16498807280897612,0.004609266809093209,-0.2788879833521852,0.005955521609172317,-0.1310052622242733,-0.14597460278273044,-0.05768846862047456,0.19827745607378452,-0.07693741734361663,-0.003159569633211268,0.9116390019051879
,0.08701608275366511,0.19903373241410718,-0.15655763124475108,0.028490142886634585,-0.15197045503751297,-0.26017704801638974,-0.08025436727458085,-0.22998823428337076,-0.02973058783515824,0.13235310290278418,0.5574414195263869,0.005302293110344699,0.012676017221894742,0.29015810447998075
,-0.15267544034932096,0.525116299101723,-0.16198929304073587,-0.13020953548748918,-0.2566418438037326,-0.2964091688525048,-0.26800352278703427,-0.248818528614137,-0.028562401930311364,0.2776599969501086,0.5346074815532973,-0.10143036878481862,0.09299970687558112,-0.48749198263108234
,-0.10950081331942098,1.2820869695719135,-0.029831457606473124,0.1533674512637532,-0.15220182561358508,-0.34425370528545496,0.09764051060841769,0.030939256241199007,0.03142112475089851,0.04823330985292576,0.332507819068705,-0.06250798597444435,0.5260325984016312,-0.26897422283590905
,0.02810437230591544,0.2910579948355163,0.03102741026739141,0.03443822342179283,0.08447915991557471,-0.21275157526339897,0.4460997856240555,0.1530280672202888,0.17476242609571233,-0.13453572316822432,0.32552798002631134,-0.07840339236767414,0.3378956569891692,-0.2323220767431202
,0.010984596138219895,-0.5558758260201715,0.15738506161223262,0.020715069190649003,0.023371839686331834,-0.1079272479553974,0.3813431996504876,0.006589854364285818,0.02301583684879748,-0.1589218639657912,0.3304295303274111,-0.16673580867356264,-0.09631778825344425,-0.3631751414799058
,0.3096042995295406,-0.2948592565620792,0.024591557115265814,-0.28298473477459346,-0.21836771865234045,-0.15883942948120333,0.32459243503099355,-0.032903627717402205,-0.011656210496933666,-0.2623255674050703,0.12774060978191776,-0.1687069467123622,-0.3481539925265468,0.3483972658413658
,0.35536028442450235,0.15659862884171338,0.002721111479319362,-0.3037201364728942,-0.4832403282397248,0.0392741477693247,0.10367764998236983,-0.009739284127255523,-0.053221334976492465,-0.2498188994754219,0.03572842477535561,0.07735532058532275,-0.47648251880052456,0.9139151641803973
,0.32463421023201605,-0.34179965798198325,-0.11287464010668218,0.0946811904444013,-0.22251969888961556,0.2507588145693444,-0.020682828598255258,-0.09088160822980582,-0.05793152710627998,0.058110714865517644,0.08323380583402251,0.09557047813169828,-0.057215292169991466,0.4047252974804508
,0.15674363264696506,-0.2942725157852797,-0.09334031718758234,-0.037590496747512074,0.0670368132737675,0.1875013355325133,0.027652838311318158,0.0053519349111635734,0.03402648437418023,-0.02651211721358115,0.16628620980416103,-0.12777553859274965,0.04121984722036895,0.4266260973941839
,0.1489685052313548,0.6200065334112094,0.016683089299668767,0.4287557195828994,0.021699011798771508,0.2871108841977236,0.19691972440388078,0.07789619182099339,0.3212299817572184,0.09512314621240309,0.31651352961031204,-0.0193425038703411,0.33232413545005374,0.44510994490681066
,0.3407606716583784,1.1495567797521726,0.0648551303898428,0.4624281432515232,-0.007588376934213895,0.2116543888738147,0.10205214418770804,0.22319778171583926,0.35706279119000767,0.17888195557379485,0.0864919889705706,0.07909731090288581,0.8595768149419046,0.5424775753197458
,0.3126722592948229,0.5543438582175895,0.13308153693174068,0.06836407037782107,-0.03520041104630889,-0.02769352165920271,-0.12286768425026122,0.16936366939181666,-0.0356107320019448,0.26015452274504935,-0.2385499948141205,-0.0979464724470714,0.23155855397956182,0.41310589416898635
,0.2905183106067313,0.5696096370059217,-0.02285333709751914,-0.29754994595951806,-0.1455613872529939,-0.08307756247957286,0.057348480824288235,0.041152514448641125,-0.1882667124635346,-0.04523339649280028,0.03696762575240199,-0.03331307795930121,0.15169491220030118,0.4668658943604526
,0.23730949219352368,0.07421357947102909,-0.09320969890566685,-0.28909297182241794,-0.1481078344794594,0.2783739029703081,0.17193576749368492,0.3008576753647004,-0.23747013698509922,-0.2685203577283435,0.4173581912909109,-0.01898704117168056,0.19422500199466047,0.24485364805740056
,0.06767846998281625,-0.9787804146095657,-0.01107316651975539,-0.2678136688959755,-0.0609544003958535,0.2543490923638832,0.008339483939457479,0.4287136976640353,-0.12400420510053725,-0.48809721379264703,0.15721999521986724,-0.048074942525687524,-0.21284893710218133,-0.2688850140596091
,-0.20361904750421295,-0.8745268397150447,-0.05689810814194338,0.31761563686039784,-0.06685326203861192,0.005781860979290036,-0.08439536620471885,0.05555959522601437,-0.1510742510427301,-0.44052471550540256,-0.03180901413603327,-0.08835824521781384,-0.2487368525487508,-0.744491837512422
,0.01430980120467043,0.022062004730560504,0.09698846980948585,0.5168775337098378,-0.16743303503577697,0.006149083676746256,0.13461526724695286,0.005302902643942163,0.02532268160174414,0.05359490117507078,0.34371102998780256,0.09448450718623574,0.4302286305277106,-0.21107232959719494
,0.3211684908901174,0.6696489702237689,0.14723237160580804,0.1482274030347094,-0.15389849911183692,0.10692712565031733,0.16107799121774288,0.1815729507132121,-0.023179266472499002,-0.01525309388754854,0.017531581264966782,0.07175500227990318,0.1780420187488279,0.5721166101993862
,0.40047539193616916,-0.3030182021595937,0.09731238379236228,0.15715325452492238,-0.11108598848180669,0.10145750832379556,-0.04153830335684429,-0.029809733157541898,-0.16818276920737862,-0.12766308890814462,-0.03985631057039182,0.169523352517975,0.23770430446740318,0.1857663661375366
,0.011384459952420854,0.5044655443712669,0.07685346670608878,0.24023518902707122,-0.12773331799003845,0.13511192510673808,0.1734776108508757,-0.07008786220936392,-0.20409646709733306,-0.0572401274103344,0.24761836063650197,0.19809934500544257,0.8591954371816366,-0.1251099627429997
,0.045851518257653226,2.125233763225814,7.459652137805167e-05,0.42309209565254424,-0.2526970554914262,0.07335614689114363,0.13878833727550743,0.2938588913387149,0.16666202121441118,0.24295806876682116,0.12703249642035297,-0.0059107508950869666,0.5803533861896684,0.5589997395750018
,0.12542555111834428,1.5816393934693604,0.006474505368137374,0.6939861467233814,-0.17246797999365207,0.2142568025479984,0.2193088224346389,0.291684038837877,0.3797944769739095,0.11318715313546131,0.2345411115725144,0.03776038195297751,0.08466919604545449,0.623771549482119
,0.46533669483146334,0.8254038242459971,0.20616321194421666,0.13847467535460373,0.1822658890048933,0.26065496678384975,0.2892491710743265,0.21125334871754278,0.3682809523740351,0.10471531286837318,0.42506058999022045,0.13088782435565138,0.3202948654400236,0.6466378869045835
,0.3824172407024727,0.5988909887816593,0.17303856437770185,0.2645231573930556,0.1517613062285664,0.22654720362307793,0.12473742131363438,0.17121653892480043,0.34057511042066774,0.27992720245652947,0.33985749357735057,0.14889612531559507,0.5259528980425766,0.3162570099740609
,0.42998513981867537,0.6848593705817411,0.09348160035697345,0.4366600179660423,0.08264008092368363,0.3573083141095028,0.15785834020879153,0.15866543727253019,0.34765078075229305,0.19993080016131232,0.4187929452279473,0.07640627480821158,0.5811541433221982,0.5515781087560262
,0.6482035110358965,0.37901547600418195,0.0817042312119691,0.13086329004192135,-0.13720115832156868,0.20200922841615157,0.26456585181809933,0.07848458388300059,0.3417226505150422,0.06477600360969832,0.2574673624866136,-0.16451206320135747,0.3950125438647615,0.8737327519287675
,0.4432999102375417,0.18758965837407762,0.030981629990240473,0.35895792393821674,-0.26410500166948525,-0.00748041713897164,0.0746005490853844,0.03926874884700357,0.1985823531685101,-0.07425361762538657,-0.0703588318980847,0.05618540856179833,-0.14454715242978458,0.8475718117166398
,-0.4318147552306506,-0.728958367031063,-0.07252823936652388,-0.23733704289255816,-0.4012529773936728,-0.14902020316511572,-0.021561336156223427,0.04770550414106154,-0.11614248140798149,-0.37310486558297923,-0.4454802333424621,-0.09067306552059118,-0.3482836014517432,-0.3874606189769103
,-0.6511596311196128,-0.8836647108356144,-0.2096005226668403,-0.7019887130169321,-0.4550548735669198,-0.24669572826253897,-0.07201527786683036,-0.059234303499327255,-0.14677229879004158,-0.4184795026092426,-0.37187411366069384,-0.2114834204367246,-0.4538992577999589,-1.1087896549086989
,-0.3170325096285662,-0.3155433738421202,-0.13738273058287234,-0.613582731531552,-0.11537492103496455,0.03630164863682731,0.004823014416009954,0.1246381344468801,0.08537287641250507,-0.16729780709978473,0.09153593748410876,0.04494952267161081,-0.4047667534550689,-0.8800515425213705
,-0.024220868644586804,0.11993322546862414,0.05182469356874655,-0.36237978348904676,-0.10720689214654397,-0.048432280003351466,-0.04995033416356095,0.04180320090254461,0.28641224181766056,-0.11482366739375892,-0.2971054436858944,0.0463607488082764,-0.175556277275375,-0.563065804532361
,-0.07771996548782073,0.694840225454535,0.06528618723235949,0.11158205687112353,-0.0705536586590587,-0.11081712383601969,-0.11760946047422617,-0.014540458813765969,0.34891607632462635,0.11394468352851983,-0.3218391126463528,-0.09274066808600329,0.033718755084550175,0.19083740398914947
,0.061057928093534136,0.9714129437268669,0.07054736220088814,0.2647254535429805,-0.08829674474095224,0.04031523230625571,-0.05846982336360876,0.14542376788232764,0.09782319928619879,0.2631998361110838,0.008211811728072014,0.10684492617708809,-0.0756361905194488,0.535159813364125
,0.06531019080122391,0.9303125197517339,0.20810183687863137,0.43442933469466993,0.004520556268216484,0.18411113167839233,-0.08517517204282098,0.12424455278287644,0.2041564710809171,0.3736333789374408,-0.07558449827727179,-0.05426845896671916,-0.021626217500844827,0.4955666069203517
,0.14058932881068753,1.0708415023403024,0.10123830249007945,0.23066743274202453,0.09945099492624987,0.0361843616307272,0.020340180751131563,0.30442529257348383,0.4529079331914794,0.2743395417064997,-0.056322147690163187,-0.036595844622023435,0.2298374855426568,0.27497322902775734
,0.2785772180905296,0.6840800872298547,0.05678503755318462,-0.2413631643586188,-0.06435377268127057,0.08120821981763546,0.12102313753794526,0.22235554446772288,0.30689759394824934,0.40512097822111476,-0.047944544347644266,0.01123938332122889,0.22733885864169173,0.2718476314441945
,-0.30768876252687305,-0.757269562065196,-0.1865812015151274,-0.25776797686955844,-0.33870836366983287,-0.16537384851533782,-0.04038734005523033,0.09550273182389854,0.3122526168020505,0.08830959627769963,-0.7103107265408465,-0.11286424510414862,-0.7543549251099728,-0.0313268147509006
,-0.30626424860366624,-0.6321335567918934,-0.18928581095163494,0.24790158300774057,-0.336173799335437,-0.19310141644301732,-0.03008208985807319,-0.09217687729823587,0.1518312571846765,-0.11745002477637191,-0.6538261974938214,-0.07328920533062477,-0.7160094610387685,0.06795819792676962
,-0.110240059143175,-0.10258571685470143,-0.01969730109745685,-0.1706402998296383,-0.17044162249683423,0.0017740095711426768,0.07380898882997887,-0.09810501617961002,0.08202843348611563,-0.19894653842203444,-0.16255311873038003,0.1737116524330624,0.0830094227786441,-0.004941642596677557
,-0.2430270625280044,0.21571703676499826,0.16861840875424272,-0.0977446331501325,0.08703205961538622,-0.05159855744261762,-0.2637152168383726,0.10623639742910342,0.12864253769961417,-0.069258130324789,-0.09672273839204147,-0.026285094579102004,0.22404940736882328,-0.10800649460653707
,-0.1889524876340274,-0.69237556092965,-0.03306382930276011,-0.13674560069155794,0.27670373794069214,-0.04204190052796711,-0.30200229634177767,0.015558697621449324,0.058772666357714734,0.16542039188977153,0.06543448425256161,0.13046741166171788,0.37852975101641456,-0.38604561386372277
,-0.15568098653901494,-0.8727291522376309,-0.049026644878060514,-0.18284859815419396,0.2642748696312556,-0.06135351654739768,-0.11842026535583501,-0.18028592967281643,-0.2064262925494175,0.0032874632346276186,0.00660510062314725,-0.1620511517030827,-0.18279065698630995,-0.03766738509545776
,-0.08856315537105941,0.05727311652079997,-0.06814415026651763,0.10422273619769463,0.03753649748902354,-0.31039394396342274,-0.21643327277639846,-0.34843890525810184,-0.2252223130492504,-0.03952156796402796,-0.13046350851385533,-0.25631172755952386,-0.46555132610508204,-0.08642024532922475
,-0.18862185898387118,0.7402429630119416,-0.15811114096161755,0.17859773777819313,-0.060187173827076446,-0.2556302952852252,-0.05190692191693155,-0.2971205404072519,-0.1925822955651825,-0.2438227154261138,-0.150907985061244,-0.10128483572593722,-0.6641505244790582,-0.4191144090884953
,-0.13409164365030324,0.13123669317659187,-0.04605743422434303,0.5488296837631581,-0.24093900632193435,-0.20954060040578762,0.08250193344792649,-0.14205172742058886,-0.22088066683542437,-0.1888825436416337,-0.1426798172776458,-0.06825762395272211,-0.3054841438486273,-0.5315512443596708
,-0.11864269443971374,-0.14053958160801183,0.02199566697586864,0.14356702783517278,-0.2980158343904104,-0.027102825389038607,0.04522216798478762,-0.13094750147348316,-0.092967951729867,0.003941592608777138,-0.07248358653429024,-0.07551629222965561,-0.2969906627100462,-0.16163568909109122
,-0.21768712902619106,-0.411721767306007,0.09119475203161174,-0.42980320915057013,-0.2616903740256625,0.1903034908218492,0.04842856784373831,-0.23274256332058116,-0.2200900815887581,-0.14872482254587177,0.058519780195460516,0.08194224983235267,-0.21495127456501534,0.1226187114232911
,0.2954316124362318,-0.08960302134012735,0.28579211273982774,-0.3182578707235502,0.01086206046803052,0.1779516802245055,0.1838272586505114,-0.007362731777644394,-0.03187637619626588,-0.014530785917767939,-0.05689410891421098,0.29724083662586204,0.20524989243268607,0.007622532108797353
,0.33440203302841354,-0.37650619081524206,0.0759229234883863,-0.24928139502101232,0.07091522932787071,0.35605397286470686,0.23151904514261312,0.05966665637750936,0.1300782855737084,0.02791374938920778,-0.0220828744883761,0.18641403679232316,0.2402297995527458,-0.13170783707650305
,0.3313577651295604,-0.35682347299199146,-0.04502214126939181,-0.35049714869020127,0.04067087650100851,-0.035133051493081345,-0.03522438181775221,0.13632813950650816,0.014533990502973644,-0.05722429316077074,-0.06313139472336873,0.037985813058359144,-0.24369252761361815,0.023387622685621615
,0.13412786556105352,-0.17396474222596364,0.023108219815634337,-0.14079748411263643,-0.004916420580500127,-0.07995196698873437,-0.14933337762272725,0.23121858752009192,0.029367281624851103,0.07672101695411374,0.2957126373324114,0.07000408924519595,-0.20298150752135763,0.4127049117558254
,-0.041819150869899034,0.19492992098642561,0.05047046429334248,0.4025823185861785,-0.2881870816269911,0.05592947199343577,-0.13404121658556445,0.32576397058952866,0.28448002483959045,0.07083092134709003,0.22941846656837983,-0.12207541020765054,-0.10770121736598356,-0.07592038272981433
,0.2656361585159155,1.1139669590484331,-0.0050346054583868165,0.28729785694897814,-0.10015215751893004,-0.08383235694880924,0.0445507648471909,0.1289951733825962,0.29957921750058114,0.009936334870340322,-0.04840811029857837,-0.1608196856448946,0.2055466846485343,0.3581528925389186
,0.1898222978979906,0.5702044429769032,0.06886336669521287,0.3787700915507131,0.4615523894278284,0.02691766012682006,0.26535247829381686,0.06688599336757585,0.07728331507295472,0.16535163753230359,0.03401937940154027,0.0717113363079936,0.46920751010481454,0.25804649065009655
,0.175397934684424,0.08962619078870704,0.011740805072302527,0.1151243755735287,0.24375625736459633,0.15929507568722995,0.2551349684171276,0.22407606573744496,0.11192907087388773,0.07493356743648374,0.16339692484652568,0.13145643308084404,0.44338194958848887,0.29917582201502424
,0.08975143138953724,0.22765862836755651,-0.08757313533690765,-0.05614179273524041,0.07892250630507208,0.16601573169490647,0.12333527187116883,0.11147890494129749,-0.01545567934836239,0.11110535306101117,0.05420611042137559,-0.05022624574339692,0.21072687270939122,0.22895303517406845
,-0.04828112305992648,0.30335715293519333,-0.11601816526594608,-0.0017817014488036927,0.005248841037343415,0.16632759878421807,0.10686583006617517,0.05302409454040921,0.04665411633199148,0.2812571871708394,0.09940181802346199,0.01895732297589936,0.0548036706079296,0.23652749022781042
,-0.2803197473979425,-0.4273638982682237,-0.16995817180503955,-0.024452094526081054,-0.15294565431976664,-0.14398967677673694,-0.18947032613967865,-0.02217776550344019,-0.057847283001454995,-0.02978781809155672,-0.06038745873087145,-0.1770631146676429,0.1695588803866245,-0.004178564742259097
R,-0.28189656651236195,-0.2532748818099472,-0.2432768266032647,-0.24470898390869245,-0.353902635818902,-0.38336910745959335,-0.3060740657557955,-0.11638251396506522,-0.1529061314227912,-0.05188563537861669,-0.1042552822366767,-0.051721271781462054,0.2608756434083431,0.2920469352566163
,-0.2224150837233189,-1.087461952826045,-0.1828771422857634,-0.8889229415688386,-0.3497267543889684,-0.3041578582640662,0.02668989568885073,-0.13414450681361423,-0.24281348502986894,-0.33982984276421263,-0.3385721667486326,-0.024152874597297348,-0.3544142379051897,0.12460518138997435
,-0.48388285548486243,-1.1375138381315044,-0.11686243747163011,-0.8594775945997596,-0.28565654577913013,-0.2342474313802116,0.22896700587448224,-0.18309926161846266,-0.31114864183253554,-0.4542724169117606,-0.25435159725622053,-0.12862956963452843,-0.522023869520603,-0.3469107973495942
,-0.09009532865915694,-0.05443647665433208,0.057850233723595185,-0.3541400118522517,-0.07037663194154893,-0.013435811247642556,0.14538333962407193,-0.02105597993217271,0.0926177572328792,0.16509853886796202,0.024722110503674368,0.0015325414745462544,0.2374597872506853,0.5199165065291972
,0.46031232839254327,0.9991481095465252,0.03875089177410017,0.12132228635962797,0.00833578352735004,0.12124137499397061,0.12238995995229816,-0.08815446103334625,0.1566857145324562,0.3237298262353633,-0.04272457735380804,-0.025686106242949057,0.4541860814471355,1.2982605901303796
,0.20635156772128868,1.1691859836808554,0.011075647483728312,0.1658975040248452,-0.34061790785241625,-0.5161191790674331,-0.07062430009816113,0.0494722918544655,0.04309952756936981,0.06403741735644458,0.20224845789533843,-0.042776307966632565,0.2630451003412259,0.2500721624627583
,0.08941984310242869,1.7283514265833115,-0.03197853081924977,0.1916157895764516,-0.3614686130162975,-0.5266240007295754,0.004522850878021087,0.12001636483998504,-0.03498184660353441,-0.06281383287073859,0.3129130659047288,-0.033540206627787665,0.20749866321612398,0.23554923927332486
,0.4963848858345463,2.5361927888585027,-0.005386591076310289,0.6237852243336841,-0.18519949546304018,-0.006544079515156495,0.08262067505744913,0.10338008099733355,-0.4615516501608061,-0.33631492015898284,0.11133075051063682,0.018503110875874883,0.21377513621619013,1.2782585114175722
,0.6136427968988791,2.7565003105321937,0.13793506234940892,0.8977597851465945,-0.009487031067872761,0.3590638133313378,0.1656283100481522,0.24679728040061033,-0.4838303279965139,-0.3118654466211703,-0.04969365944335248,0.10931142438042496,0.7487101584739326,1.113335665199581
,0.3961897060994437,2.9917865474103533,-0.012281378570543917,0.6598954766641851,0.12080125985232082,0.2516457321497328,0.11120448378394922,0.31567517670965883,-0.00547583271858758,0.2243003204773442,0.05659128679040753,0.18791220627100588,0.41528109630582694,0.8880124717225963
,0.4948338387163285,3.7542246690851737,-0.11126512769721747,0.7885284892589425,-0.00961277740406202,0.022658733832008202,0.05147110944974948,0.08932869930860812,0.06891868986925813,0.2229797209763449,0.37827237821839804,0.24309249720041445,0.3579072484886975,1.2766511311713602
,0.538010426070126,2.5275636307315867,-0.05682768526963762,0.7856609785937387,-0.32014078085898795,-0.18253797264805788,0.13453981164113168,0.07007483488551362,-0.34310715832545985,-0.12933915099906038,0.17979439027865263,0.20033536364029908,0.5183869012879428,1.4444778580348383
,0.471256458698854,2.1240544398574377,-0.03729718945648974,0.47705260474345623,-0.26973807106181896,-0.22540784691410798,0.1703764859840328,0.15556820105292887,-0.28904319078331564,-0.06856771883594284,0.07819416515605669,0.18818847790802057,0.53176306475208,1.3982255577956242
,0.25088857778840407,2.084712230033226,-0.2118951250900235,0.41257611009648887,-0.08300977380827104,-0.23837236425085415,0.1560942475814704,-0.005829473912535395,-0.04221036348211822,0.18417155974375682,0.022077913256467206,0.09388796843993462,0.6261228533749634,1.231410688849358
,0.4828711579314778,2.0524463474687495,-0.1059841511841966,0.813246233247884,-0.2649665594774105,-0.143584358200654,0.10989641921851814,0.1117590531902122,-0.10119826973556884,0.27314102142840213,-0.11995516029219545,0.0997814388234579,0.6279353855792194,1.7339805717968237
,0.6033179715845208,2.5172673038048545,0.02737886446209297,0.9204984343759212,-0.0043475398677663354,-0.10935551086721929,0.1934660340891861,-0.03659561743797646,-0.0696280114385491,0.3189684528396571,-0.15365819225664717,-0.027056389074560948,0.285538060627588,1.622530509975631
,0.4053217524449604,1.1546572835125657,0.0014072379361835755,-0.1036873150627509,-0.15378644829211424,-0.04582409780803128,0.4214510680626287,0.030774339013752136,0.1627875606802872,-0.09735385823466604,-0.27830428937765395,0.042100110015594,-0.427914031390836,0.9616806711270536
,-0.1378382804437062,-0.2848713726901584,-0.3031932267303576,-0.7682627829873095,-0.19367522730345751,-0.21970389802351314,0.08332854712102368,-0.17240049547370465,0.208777733678745,-0.4982841477062621,-0.2637993403987774,-0.14678292590396566,-0.48451206931610025,0.2766623271601953
,0.050949390118365134,0.20796135365832913,-0.38011014742894034,-0.5292414933630818,0.14774224687132245,-0.2186661282073276,-0.14219805003859418,-0.06001598121033959,0.31079845842488,-0.24247203881033605,0.334791768016978,-0.08751482355876408,0.09767424138532402,0.7024768946558979
,0.37952471031577184,0.954498086557452,-0.011410095817770716,-0.025771301234563383,0.15641818421152012,-0.11318128370206601,0.012876316646191734,0.17825819194729714,0.2805579089996434,0.20330823618765298,0.710394842239716,-0.0006950619428910771,0.37975107306616274,0.664550297918558
,0.2473417017015325,1.3755837402909044,-0.08705143000890914,0.17011434732978994,0.10930720239299672,0.35011313842214914,0.09497686901872292,0.05059919414867268,-0.06612152278530337,0.23415835894599993,0.4467002953407299,0.07110361960475796,0.6858000670358169,1.1626389036668974
,0.35178663157926104,2.319105107397249,-0.13066914248838662,0.38240773313328197,0.016477115697859073,0.15374879805561445,0.18967696777310242,-0.2094526148764686,-0.10857373839269129,0.25938825775492635,0.3605474050743261,0.10951633224725288,0.3388611649743265,1.5113968104049833
,0.23171352214906002,1.2987376665474426,0.10650951341754214,0.33138693191229246,0.07047755748510658,0.01803559163894604,0.4684740727153263,-0.20635716858372352,-0.10946475919412679,0.18599786295985185,0.4982840571756758,0.09799056927764005,0.07342381040765378,0.6422528228423116
,0.21715353999226475,1.2503215179316092,0.1395545841637679,0.27843241333337265,0.07226582710107649,-0.10736920429301937,0.36162529220828465,0.02903455356448394,0.10688968638036012,0.29227242425837857,0.2555042254891007,0.14407992289269617,0.07125542386965442,0.1750794059608474
,0.029171905099001725,1.6466522747508066,-0.03368772193436262,0.4944266314283137,-0.024229304160377396,-0.08658105190337695,0.15939082349734912,0.10121546303339214,0.18966279224533691,0.21654042218900924,0.2722068485307861,0.0141164843070402,0.39070109417057786,-0.08544430813748784
,-0.05141983954248333,0.8803450680402408,-0.12491932029176361,0.2369811138036077,0.05453654241089974,0.2569211614571823,0.05433262720599309,0.05211923669121587,0.10001174988644095,-0.17916077164066727,0.3076524926226611,-0.11583855153346584,0.4844900771381505,-0.011359829154414684
,0.03113820093265115,1.306150443537864,-0.06035440076981407,0.5449931717922922,0.06503271382471543,0.1779144108179488,0.15387939793210884,0.004005071301298402,0.11229493296514081,-0.05109263933341064,0.1496991309559562,-0.14238101776882667,0.3676308019631161,0.40967944505006276
,-0.06837421823512764,1.9524001794619121,0.22369433306287878,0.3657501869878223,0.13292838142161664,0.08550842882303343,0.2696029718544266,0.0772814475781751,0.2609487362141611,0.3417356551304905,0.11075948612949992,0.03373572114452353,0.7418216525630896,-0.18406459383053006
,0.08545489738766417,1.7381585379090636,0.21701015601785636,0.3190214836146673,0.12888339989315456,0.15355761256180264,0.18649695799532354,0.02006499908812929,0.1569350114508558,0.29171785564161967,0.08954817908768041,0.11624726627055469,0.9117870201624264,-0.05869845380932238
,0.2458398546041506,-0.05726539746421711,0.17390820712975807,0.19506589998212162,0.22548584174117323,0.14393521869001888,-0.015127962313952742,-0.0643792997300277,-0.04320430186217738,0.25218466439584414,-0.19238515260047076,0.06966636290713157,0.9206116072516927,-0.012211449489750125
,0.3298042462069524,0.23708535469360253,0.09640437060288054,0.23932310070169802,0.46135211624482475,0.36400476756280226,0.08853984796740667,0.15201732498867762,0.1707986388256843,0.5609409828124892,0.16733429557447474,0.004386614665937174,0.8274997183405861,0.4229480465925623
,0.1665174425199774,0.9608617408977808,0.09142389794202666,0.11791595842950922,0.1397156714443037,0.14882275773087678,0.32228903348992816,0.2575641321045818,0.2572255093353296,0.3641183530584543,0.28292970098304787,0.004344892171946268,0.25089539094527197,0.7878902487397438
,0.0012944436711046763,1.2459820570518982,-0.1127008296762944,-0.17460234724586093,0.06849802541217993,0.1337611932108274,0.18306731492203068,0.15336648283003618,0.027822142584603356,0.04368999793001259,0.1656941958980779,-0.14759479347061236,0.013396448058751322,0.3344024161530152
,-0.0616583555331022,0.8631098763534572,-0.08844793544498313,-0.056622998310377,-0.10246231581193756,0.03300584780229435,0.15222929586089884,0.04362347672341109,0.029654801688514386,0.022335788879101762,0.09589553193546427,-0.10933424106070168,0.12700404744466404,-0.11141343701438378
,0.34795756072233147,0.81511549106778,0.10702745892904171,0.31275124788029696,-0.017028147032041595,0.17156863859376,0.1891908437877926,-0.045116892889068665,0.009117567127767921,0.24860992685292838,0.1853081067777703,0.07055849732096381,0.22694415034593934,0.3612484162697154
,0.4290850972917209,0.8400697257802311,0.08853843130247481,0.43381163271923595,0.116168342423002,0.1469701445154311,0.14855938337323846,-0.130138869553879,-0.005762011865046447,0.2419918705544403,0.15197571128031392,-0.0035938889469178496,0.6368002874661756,0.2633359404863055
,0.2784059894886255,1.0512840897103908,-0.06249374673264011,0.11751919610818196,-0.06423997723855346,-0.00176094119858204,0.13930028926969074,-0.2215330569835056,0.004781013342186193,0.08061189358929186,-0.0026988433811168497,0.021809576049906413,0.639807927034998,0.3367374049558177
,0.32886160024899624,0.229999895369865,-0.04362801043726267,-0.13901200570905609,-0.3561167571518851,-0.1019597170017598,-0.14892734649590605,-0.07077119273051237,0.014539768388691844,0.008253988449863341,0.11871099449643126,-0.1982819528710235,0.3973415946214449,0.1315048992951157
,0.10635502690207824,-0.011899111450369116,0.061440042735082405,0.008419134350106768,-0.12747834219264606,-0.07827018446806958,-0.21362682503162603,-0.24187750853198794,-0.15598015584412872,-0.11265249593835658,0.2341884033809398,0.014566052334873422,-0.06226290153002196,-0.12165761534079536
,0.08302881323477533,0.2740222982764165,0.3058063978847639,0.2637732812220936,0.3495616734571658,0.13204116083876322,0.0637005149991701,-0.14371473560908934,-0.021085447144844234,0.15440039770788438,0.406526786698869,0.24535330414151524,-0.1594754650627916,0.5544597269433611
,0.2060240397180955,0.23291725688062623,0.34260392068024287,0.4476483170931193,0.21024540597555005,0.19513604523526745,0.10276737806630366,0.15506577695230184,0.3548475360796016,0.34408367022307956,0.49483008690681546,-0.09421820094840438,0.15498675829976613,0.501080980241154
,-0.12097410215530827,-0.03901646521193,0.055977887818708105,-0.5576713781264139,0.06242549765640759,-0.1474478736028692,-0.006068125073850626,-0.03057075092415566,0.043072201145364857,0.155819366916431,-0.28256361870978997,0.032678824678656966,-0.5767896563969553,-0.5482562939294008
,-0.24099821423974638,-1.1696498845099,-0.1077421153904506,-0.6274069425410637,0.039941548847797756,-0.09504658539905012,-0.1292096214193992,-0.1097195940787621,-0.12014626558045853,0.0013352563647285212,-0.4450065605064854,0.10754510104538516,-0.6761455275796964,-0.5828121046845929
,-0.3607005784710671,-1.1660488493224719,-0.2486795905374304,-0.6164316412397793,-0.007586496445917872,0.1178613082736963,-0.16384779574447306,-0.10699417799336444,-0.12199448687850062,0.11379161236950118,-0.12639604475688263,-0.06465128728526184,-0.34504916995697343,-0.12576587720228977
,-0.4759548910174505,-2.1409783238946662,-0.28858922878981985,-0.8431961938313669,-0.27428285854365236,0.010958747460318703,-0.014507159775882825,-0.2202383231988677,-0.12515900363879284,-0.05568722392492379,-0.45733579551354664,-0.13959588691598063,-0.9651529889810759,-1.0501883236448166
,-0.5321432882689564,-1.5679434061767297,-0.12291040637759354,-0.40421739149675057,-0.1563131886688798,-0.02561990602702211,-0.03343460994352399,-0.38064523719263954,-0.28010397931484265,-0.11129014667744673,-0.5359698036950522,-0.057240308455489414,-0.7594529506330507,-1.0839354471732054
,-0.3681260529854998,0.2372336020738911,0.0028702878833445074,0.020438009823434702,0.05064234243126795,0.12349371202197895,0.09661857074930104,-0.24705907642462702,-0.26614153905758425,-0.11901305674542585,-0.2602769156271737,0.06099482161818805,-0.12591822193935603,-0.7908958964423037
,-0.16698666651810784,0.7720142726202893,0.028558524005608765,-0.12272307515080368,-0.312085116276318,0.0553443157220919,0.33040365012826584,0.2300641146787277,-0.07576533838803537,-0.07911054119694602,-0.08870629959887175,0.050158802715707364,-0.10353113976841327,-0.3175612487010815
,-0.219938980744782,0.5446646375626478,0.024910581000757763,-0.3730756670679849,-0.5070589112721777,-0.029494721958240423,0.3229227059029236,0.26595811923235274,0.11717977871640212,-0.06528724554710466,-0.35149192713543237,0.0002711050697674955,-0.2875768737088172,-0.48652004999737897
,-0.11544177347440698,0.2348817846055031,0.031084768697735722,-0.3167246402308025,-0.27504050817424147,-0.2940810409310764,0.6368922683391836,-0.08796471468594917,-0.00431377547434463,-0.10555798005333646,-0.003623130115883512,0.17902416718103276,-0.025355079629308157,-0.13064012941456482
,-0.14608289577544992,-0.08401376650859124,-0.03231041680370457,-0.37230976276456546,-0.18743162646595182,-0.6220875883859381,0.28152095857655035,-0.14278759691087714,-0.041266121024417055,-0.19366434323884194,0.24203707217069406,0.21517492444531688,0.13740618364244706,-0.2423613532470092
,-0.27508435281089194,0.7064971111030214,0.024721298612889565,-0.24161330240731296,-0.5861595607765778,-0.6894572430396221,-0.04728276772576608,-0.1625895450425862,-0.043361288406636486,-0.31070929807003694,-0.10986704470080312,0.007844896867398149,-0.4179666155584279,-0.7172106387869653
,-0.007778314719824688,-0.13693911039560291,-0.05151468165715112,0.21350491705328342,-0.4306512710274141,-0.6713033509975348,0.03175009252078906,0.0345422259063491,-0.20380778032803962,-0.4323431232923998,-0.18484126496926215,0.03167541428784391,-0.676443170275847,-0.11956741689663865
,-0.12174095258355024,-0.010809826690726578,-0.09195450215715655,0.47071078208342454,-0.24983857072376559,-0.5244556764391366,0.09713945163159787,0.03215544621598824,-0.21069787529786602,-0.37256560484202134,0.0034469673320330595,0.3148731928977942,-0.04231920111067344,-0.13095632664072898
,-0.11692266072679458,0.732379403562623,-0.1000609877434037,0.024116268322069444,-0.36656083649482873,-0.33882399595506346,-0.24794675378891218,-0.029265839593687698,-0.126882554227202,-0.0887366366833966,-0.02644533998276128,-0.03705146930619328,-0.04974392665311893,-0.4968313259729949
,-0.044175911936164367,0.8237385843396637,0.0016099008815725448,-0.15260819328198497,-0.2617417279259431,-0.1448671698022572,-0.14555760237366014,-0.0729673113216018,-0.04045904171903686,0.24473762049029074,0.4614677084254966,-0.17957720759221435,0.01846851807119522,-0.5784352222471756
,0.0847840962534569,0.09895937924953077,0.1304604415484296,-0.013610106787456987,-0.09076354903386591,0.10140247525788244,0.030216180827843858,0.06529430775381803,0.16341163096023015,-0.08582533857171847,0.5709044140991937,0.015271114522779515,0.19764762939122008,-0.3478662779382223
,0.3188231333151583,-0.2513675691001056,0.12718380897034634,-0.04217595442058232,-0.06990175774619367,0.13253133385129875,-0.08554510131856122,0.10893755710180028,0.0841197867949803,-0.19165501625557402,0.3730890713902526,0.018503591224951474,0.45156204738931355,0.4520429727783524
,0.4306268677648324,1.414727579748442,0.10769753777728464,0.019552010276420406,-0.0682890537037842,0.04740218579096323,0.1062796683186956,-0.09058174264427081,0.058938963248327265,0.11969473464295938,0.6290120664912265,0.11404206495328939,0.3567698648525418,0.8294349402027195
,0.4679230319948097,0.6794534636349727,0.14431319566171366,0.2548467850786515,-0.17363196756584004,0.20921620311554526,0.21651301612516852,-0.17576485288619126,0.06908874392778785,0.013441534198435657,0.4199290587781345,-0.06730894905310414,0.19463629799439602,0.1897264498737658
,0.2694297771767385,0.22083446545651755,0.05591223881982991,-0.07963628110279361,-0.1543281948905506,0.04287892393484384,0.0450147582637474,-0.15872315597683945,0.04395345554999899,-0.1866147491477542,0.2550814622772509,-0.07719050590840863,0.25448621383591785,-0.2721261852324209
,0.025393352909594047,0.6459510317473646,-0.20273478827783112,-0.13041382766085213,-0.1087366494617964,-0.03965344912395097,-0.09933450793570191,-0.09969453081707229,0.022733776804778043,0.07258618614136426,0.5012157760957036,0.08607856265277285,0.32289061441339206,0.09428024540150043
,0.13483406109738644,0.7329387608775599,-0.27107304502752183,0.3884555931967938,0.09689526763731675,-0.05289823246900194,0.189211296121691,0.13056181152262986,0.003582077384179377,0.360577336596422,0.6240185130332956,0.0743802130034709,0.42150914187100863,0.6918115184422532
,-0.10201816013859744,0.8632762918352374,-0.02672019791238817,0.34438072883145493,-0.1201633599370372,-0.24895033989915127,0.25561129163495455,0.15284231353604869,0.1384032050996459,0.12023423280744235,0.19269619896081572,0.08544131122151999,0.13541311385146035,-0.550396152057407
,-0.43411905226089903,0.1595036948794766,-0.03619252472420251,-0.18180495657774945,-0.2791989093428216,-0.2360493436761419,0.1448100117229334,-0.24918296087266154,-0.13479025556303442,-0.2678822758683061,0.2524884370985047,0.12134806180714208,-0.26906560099834814,-0.7193234559126365
,-0.43843266716236196,0.17865395543984638,0.007159968817533265,-0.22899874290147051,-0.20287809475746907,-0.18940900556801982,0.15322521616728307,-0.11745300542738939,0.001689393764950788,-0.23434327652378414,0.12959519390630156,0.13445705764885402,-0.21021076647309406,-0.8255366126812227
,-0.34461201767732513,-0.3863673681613903,0.17505228709196508,-0.24914406275451015,-0.14939338075452,-0.4341344734490397,0.12267045287755401,-0.0036209642018483557,0.03590282061663934,-0.12390916518830049,-0.35090206203150376,0.028965437757190404,-0.1063856475924633,-0.8609072825901141
,-0.029120855478605472,-1.0401947054043692,0.006846961554795016,-0.38776956233618476,-0.1544076347403317,-0.7273095418855042,0.0880334062870751,0.2150273948922688,0.13794611973943083,-0.06884957627391626,-0.13238975296193678,0.03119271276550837,-0.1484724601898133,-0.4107309415414291
,-0.007151968205267323,-0.7468451064999085,-0.13829278376323392,-0.2397047051250768,-0.06199009724135611,-0.6589319450106095,0.276959529168617,0.05956444032119545,0.11544002414972238,-0.05557784112333394,0.09261384101217264,0.07667657636017318,-0.4164574397459735,-0.014178415526194033
,-0.0671225571034906,0.041010459783710235,-0.06842427564938718,0.34569764553759286,-0.28166243457246354,-0.8441944394698805,0.5902880098079061,0.014509927100247037,-0.05164380619310039,-0.28407963643290196,-0.16331649780530866,0.11940470934956578,-0.3204839571509941,-0.38295307898067504
,-0.05147807534838722,-0.6394586717861154,-0.06334708740667362,0.3774623216931277,-0.5749974333902254,-1.0177190305954105,0.22273997511130905,0.07175478907783245,0.049200982484269434,-0.18444508507240895,-0.07473993090042583,0.2696039079819746,0.07733680288322588,-0.5930056649976043
,-0.25237406779989774,-0.8666224155954625,-0.16646784848657842,0.1699719996356328,-0.6632079162956034,-0.970974207996377,-0.01501528157239328,0.02165088973172477,0.002908498923951446,-0.009861053948027552,0.02893806600301779,0.06616989016376025,0.061678337214380874,-0.6216826421594557
,0.12522659210219483,-0.43238548215406075,-0.0967906125751635,0.25699275503320845,-0.6313629031932098,-0.7023628905515774,0.30088073950182953,0.04341620978463388,-0.15049477229952934,0.015001199656044132,0.2880322024497953,0.08943465733111448,0.2111799510783949,0.1883551035850729
,0.2546725274835418,-0.47689331327255635,0.0026035382251132356,0.24301381418232504,-0.6775935911072103,-0.5059738156506749,0.22044485249081913,-0.05156174540328974,-0.18420033669350355,0.11170824466908509,0.26733847837571945,0.08912885825062439,0.46732398498489314,-0.23666998322342447
,-0.17961580280782447,0.4241393856788516,0.08668555833328918,0.23543306271662973,-0.47320853116387923,-0.5963126449181689,-0.024319550802566307,-0.057326560198359175,-0.078970015747035,-0.07076295730354663,0.07275857429726547,0.08736414468073982,0.48865286283479814,-0.7559697533908457
,-0.6637479938566405,-0.43364886332035135,-0.20702800632119864,-0.26839246291894553,-0.5902786770582072,-0.9407279792337931,-0.4302717010652029,-0.3274507749347584,-0.44107660679322114,-0.46683138266577723,-0.3427843131310049,-0.059132481286536503,-0.1176401375141687,-1.0677816291083577
,-0.7537008753485336,-0.3884936737395981,-0.28896367979873555,-0.28060750519575267,-0.6299087190391798,-0.9117790037623684,-0.31713723685780093,-0.12206499388254238,-0.2846961295639962,-0.5496076832368211,-0.25524082107070406,-0.09883097067076381,-0.5801786897992901,-1.1445630672010956
,-0.3554209963731422,-0.8377483665240213,-0.18977920182742286,-0.5250351043872928,-0.3494539477928773,-0.8930437479702603,-0.02486420699607375,-0.047351276088449884,-0.08640388017468772,-0.3039487741137114,0.05553920591067512,0.23490779710468437,-0.6114771127621411,-1.0173272972911573
,-0.4164800423891764,-0.7133957202727567,-0.045024930573021996,-0.4861136433457226,-0.48962210783859,-0.4321771972134483,0.09194727331506596,-0.06146358234088692,-0.024623345478695435,-0.08322974598437724,-0.11336227425220648,0.2678047930118566,-0.5417830869907048,-1.1124621996965642
,-0.5971742985809964,-0.7145322635552614,-0.2453290476797226,-0.36356319790989816,-0.42007369097264446,-0.4036074342293929,0.09942783188257383,-0.02612928872008303,-0.17121787806292066,-0.28757734297996757,-0.002656838924127794,0.00017649258009295806,-0.47724154628624,-0.825079351576604
,-0.6797125833419243,-1.0280540556530653,-0.42488639085391605,-0.5711753082577505,-0.11918725007497233,-0.3650230699806282,0.09126513996383889,-0.1951321396828226,-0.5157933703672808,-0.6742523912986104,-0.32278864545014785,-0.14827863145451317,-0.5345333792607461,-0.7354130640698728
,-0.3763756687582047,-0.4648606498068051,-0.2263220466923951,-0.6485519195177072,-0.015908194627314364,-0.007407334295330672,0.2563285033419109,-0.03348138657956528,-0.32367297546106893,-0.5242348649994902,-0.3430673029451566,-0.09385243413265178,-0.2498360305356923,-0.2646998059750715
,-0.0010749504445258175,-0.24340691626204694,0.036055930637848024,-0.19670984416186513,-0.27253525998190525,0.03081434990512325,0.5301242645300035,0.32492942379228046,-0.21965861643193746,-0.24765260820784735,0.1906458805751774,0.04480352185142089,0.2002344855478093,-0.39114030533186384
,-0.26796833288862004,-0.8349432893859636,0.018697005239254803,-0.12498567428453984,-0.44208864649447016,-0.30646984358601626,0.22606383821719617,-0.028704288829385288,-0.33332715845438626,-0.13337466081529234,0.08372815477621333,0.13955827712544736,0.13542730156190438,-0.7876857669898238
,-0.4105191713997469,-1.186276868279541,-0.024539454410212876,-0.20135150116085418,-0.4043303784469951,-0.3530483039868985,-0.003026201453926601,-0.2162162618989978,-0.241447913821369,-0.012277709048281455,-0.07944630175444542,0.09222664727451468,-0.041312130090822206,-0.7901005375398555
,-0.3412749677178917,-0.789201560008138,-0.01638813257283872,-0.40435479893573406,0.07899699856394193,0.06488912970928083,-0.0023962908536679347,-0.11800034372134531,-0.15386972017517855,-0.26416355781962086,-0.3921840313056559,0.23092307869775264,-0.42441544754403665,-0.4730425495697525
,-0.16452614275374475,-0.13718055463076118,-0.11604834148697908,-0.2915443098873297,0.46064871596427137,0.18260502114556568,0.11787387664500772,-0.10646440278490002,-0.003744288783528738,-0.04899597632826959,-0.08803968266715981,0.2535009176023541,-0.31580714792058007,-0.2375564779123818
,-0.027819220174502515,0.34411957005725974,-0.060352122768228926,-0.204524960264665,0.12336586262150273,0.02065716597452383,0.034059356439082006,0.10188821204673897,0.23146695365942146,0.2837163664143222,-0.09722112216415092,0.23071557784571634,0.11229116278288225,-0.4908738603145995
,-0.21251280718651985,-0.08851619068376873,-0.19983013897334903,-0.1051836068230505,-0.23799058381659355,0.025605060509581844,0.23877943014711084,0.1695691614635702,0.0545339118908529,-0.17416676754069332,-0.19506021786224134,0.10361564500048152,-0.07688415419896566,-0.24602719682696125
,-0.2940951411697292,-0.8871679246858203,-0.37703556576328606,-0.19856926463831825,-0.30717427517953355,0.09270687377826296,0.3669321956310254,0.25542158335676296,0.041179749532867016,-0.3223925644111778,0.0011642145969790085,-0.01533220202218924,0.24676615468990726,0.3099635574150779
,-0.24638730173318346,-0.1431973179215302,-0.1828730224226225,0.1550330947359477,-0.07949894308560748,0.22019789398455128,0.2444367959678976,0.2426927074984129,0.1394031298456208,-0.0316071140469399,0.11956294261934819,0.0996440226953033,0.3430128525515632,0.11754087232406718
,-0.059520081652845135,0.5938323083929504,-0.036628109548145646,0.33229844061735986,-0.016038381690518556,-0.07077916235968801,0.1765783532811329,0.2748715423606663,0.20974123022976962,0.1969569903189387,0.5083520387115823,0.24722302640274618,0.36189498246041596,-0.5146834570644154
,0.13831157117617077,0.32361339918502996,0.0345470295683713,0.50566274368709,0.025939909054998808,-0.18441092071843607,0.245987738798723,0.3021962753459459,0.23954018036350552,0.36044331491599235,0.4340514484537856,0.25085294662539553,0.3258619109796592,-0.2763919275904729
,0.04945735745390947,0.5881658398623194,0.020258861536528044,0.8427030897890885,0.14621976585711063,-0.0619326551546568,0.3136513339895207,0.20051876816338635,0.16036577040068445,0.3563982902338036,0.35523366988228927,0.10185149176598945,0.44494168630650077,0.16477664060075115
,0.169182437842977,1.5294570769653004,0.016024956471821446,0.3310513117796315,-0.293509782639953,0.0666795894914457,0.4812146585895418,-0.1321680512451402,-0.02209737268559001,0.25815645560461625,0.6234375258037527,0.061333796855252073,0.525814843311459,0.5050960636123294
,0.20609202779597072,1.329253384625721,-0.05522641981192111,-0.04968242553702193,-0.5757947579534172,-0.24489606114408644,0.32324174645793996,-0.23182357560789804,0.13011200928524738,0.36668822849396476,0.7008378475662428,0.1510139496095452,0.09630874553212794,0.5008995634343157
,0.08064829350420703,0.09917415864793945,-0.008168247210470518,-0.09429095804099252,-0.06853773950149206,-0.040054742417267225,0.3433984309519948,-0.045333175963721696,0.2545382908116547,0.41617237662174533,0.6068670662642707,0.33207140785086037,-0.18553752993005215,0.09191343285427243
,-0.12346096874053528,-0.4245745303619324,-0.0035472531168833435,-0.19363620322585343,0.21888413728862133,-0.24158917888682582,0.515193806076062,0.14492586137337868,0.10243993312741835,0.024459406463726827,0.18099296277815516,0.28891616040454265,0.2709896492641153,0.03873286659533757
,-0.09887896902525156,0.32987704346907337,0.0011766612614005152,-0.08652350264069174,0.1222113074733145,-0.16530826513735988,0.3952863114562584,0.0912548838061197,0.03679826350702577,0.037393974479947856,0.277733731529898,0.11940480780613792,0.3828887070795218,-0.27958619057467415
,-0.05678928668901705,0.42456397890085235,0.013289605959774839,0.014524251815570804,-0.19819111756275873,-0.15920727784959254,0.09116966500209665,0.07842751226450824,0.010156902011432382,0.23122979309710545,0.2935708470202159,0.1873191268298124,0.5678917300874798,-0.19498419619339516
,-0.007727913082614607,0.47529478462091224,-0.10357539772603855,0.1434507428198775,-0.2870049434357899,0.10722979850793743,0.16513655227527696,0.09780638157842872,0.13167019609555894,0.40319866570504787,0.22763647036994714,0.17397560175445648,0.5016912639453253,0.6236771523900866
,0.21261468987174834,1.06165935406884,-0.10646677182950064,0.0786963294364672,-0.10153777967408485,0.3674229914124236,0.1259731215829953,0.0253234086576328,0.20541855882618143,0.34278246023614156,0.19068293218448418,0.10407210933253175,0.1145640605508965,0.48612141741790454
,0.32517759397348656,0.9418072024156142,-0.04036558467104687,0.22635838089297602,-0.017943295283295375,0.25559472404972294,0.15850095728070973,-0.0036388065642333073,0.21564076919837283,0.23349874378007499,0.1361805457983681,0.3794020274934042,0.048197828065601155,0.21961538778194553
,0.11041708648155392,0.350906584927475,0.04382431662691116,0.34354619046490775,-0.10004919064917402,0.06656540440086112,0.24099590943252366,0.15067171769114596,0.35912560917775965,0.404017630130815,0.2865007472857386,0.3543727902711449,0.029797289106095436,0.43490359261824696
,-0.010869025083211324,-0.4207516062584602,0.05573206251789433,-0.1266847466711488,0.08287134541839909,-0.04035962633299384,0.18665919027209402,0.07318741145261991,0.33070475250727177,0.4355708450613939,0.06324277210029798,0.4591839177727107,0.01856596986511435,0.24456372181633082
,-0.22168067986959797,-0.2529216697888965,0.06247263192316075,0.057640076546359845,0.06284360363319355,0.038375322260446224,0.20464978561326186,0.03083744145566101,0.04327173678714436,0.3116545665839867,-0.12221376706044314,0.4639732050960652,0.13628645896073913,-0.19207627924018483
,-0.026692221437882465,0.2520912491641051,0.13649372763032766,0.7620473866993929,0.2226749041101336,0.1491692640274554,0.19259984852317671,0.25970128689667643,0.010494144903730029,0.35832387473724103,0.02497610981549128,0.24198930822568504,0.452194101920389,0.6971205275044227
,-0.007251235586512002,0.48345840938607926,0.04054394386949181,0.5428673645184079,0.17463097802518246,0.09146559895740727,0.3305530932928574,0.14679043067505765,0.001679256903251108,0.2438454343819347,0.18260362715677983,0.309597291232879,0.5202038816352683,0.48608201447252314
,0.053326804097651524,0.5720616063491842,0.1330594362839583,0.4038093488498016,0.17712826759893133,-0.02940325548792146,0.45971448556255745,0.1621924896084943,0.060421415441513,0.19547413342076483,0.28064517988508264,0.24114988493345046,0.5714443143810152,0.019118815465359824
,0.13539422590159153,0.8986718777905814,0.12096431973710137,0.7820910840590263,0.2959510415973773,0.0473194062902973,0.2623485679865651,0.10100256169576778,-0.03522239991780141,0.29489186348457136,0.29000072064997534,0.29860217013413526,0.5860876276708056,0.035276877694247095
,0.13439478335421626,1.2887616331762017,-0.01631333866297423,0.8490993212979087,-0.15183186152682232,0.24707331353310266,0.18810279329128035,0.10070271689357668,0.05213387650206017,0.2904757324458462,0.3205153099209681,0.17202743177223606,0.3833718345375968,0.24419996411765071
,0.22858267062532575,1.102789277100513,-0.05086611300145624,0.9275646216065728,-0.39428030213344084,0.09215979670322787,0.3690141294445692,0.07287033842027331,-0.05632153373690612,0.12942064836586786,0.3952797754067044,-0.04741524078650346,0.023233250573033076,0.09178317987259857
,0.1396456535064348,0.7125517464364686,0.2134445106707595,0.5249337353001812,-0.2712961429806248,0.16231874719208464,0.40929066575106327,0.06032172900555068,-0.06067254481867419,0.10433034973874447,0.5777645517272991,0.04904511849179652,0.4849565314898744,0.20662156643583512
,0.3107451020171519,0.7051568374395388,0.32562800978824025,0.26899204047712283,-0.13083027505682304,0.2869414874963302,0.591259007798037,0.291311421428214,0.09696158359420687,0.4220188359383979,0.7230807480578566,0.25576764310931344,0.8762064418877784,0.9135547430325636
,0.19586473344513392,0.5489974346577148,0.2650957845562884,-0.01452920423338977,0.24880698260560094,0.05130679262722128,0.7984198996513637,0.37499328880772814,0.03766774197116789,0.35095660073673496,0.21744458265533134,0.17950834462507373,0.2580796369791948,0.23923581382446343
,-0.21196388305709132,0.7727458641576537,-0.010993238433783246,-0.22922219702006866,0.08907622884660858,-0.09185553905326568,0.5368043877661521,0.23146691732009173,-0.06504485108073145,-0.1092798948021933,0.24619881183864856,0.27231106204192707,-0.05121198799258338,-0.130710692213336
,-0.18079934537397926,0.18033360887835523,-0.0873436334460377,-0.13509234518412583,0.24065824669052688,0.07763771829376946,0.2400282677670761,0.38293032771413593,0.14338270590263397,-0.15542293777604307,0.4237442992784529,0.13061586774941325,-0.08516898334559247,-0.09556556851979017
,0.13122612851747245,0.5857433151045434,-0.08993304500531638,0.3097718642804817,0.21110949254009742,0.3126269929115936,0.07233103170918097,0.4325922832014422,0.2565299840646664,-0.0221080912326505,0.17428986254011705,0.13727108416542702,0.08335043300100246,0.16097601119740948
,0.027765041942104562,1.7021294958854356,-0.07424783706153773,0.5436943109088367,0.2143790373219903,0.1320617710753478,-0.040141738990089396,0.2650951402638127,0.3551602054774772,0.3595552388064516,0.3201511269673689,0.26879118422378384,0.47887816898784274,0.13011293516919972
,-0.203505167013347,0.6329225956151061,-0.21237928093493516,0.10307377851281432,-0.13783836579019937,-0.059375875117910676,0.07415704362093464,0.03797081938971646,-0.03820568543073971,0.09961139894169888,0.08862500669084322,0.1972371720022758,0.43748740895676547,-0.4394657483046831
,-0.4279902983540702,-0.7733126375532042,-0.27299484765959786,-0.6097316568130416,-0.23174964665513864,0.002089826540325665,0.12873801802752233,0.03330091929382123,-0.10263437950941369,0.03424594070956643,-0.12136188448707445,0.0015903024584040732,-0.27786129870245563,-0.5371105899912016
,-0.04470829288320673,0.374108377746334,-0.06904704365307737,-0.39228896170453287,-0.06631207276915685,-0.17236801765521723,0.08964142648033042,0.1580602614187849,0.16104108762170471,0.027906516498884763,-0.06989800213537473,0.23801232385551027,-0.12669370912816905,-0.07311571477372401
,0.03817801043255793,0.5174516962186307,-0.09857605433314297,-0.10086742467638964,0.17825582846086824,-0.21012959930324965,0.12725847106979923,0.043129901843794456,0.2292294281251007,0.1410170739421248,-0.06727417918697393,0.28057035482361686,-0.06171486415963678,0.03524058223528652
,0.08174766005795045,0.07373864912612405,-0.06941797277409643,-0.3189997079161999,0.23316191093472238,0.06838196128811667,0.14949861913602075,0.019321090933863742,0.04757144786010623,-0.027217922394094433,-0.3040869563605297,0.08028278113075332,-0.01619377084876214,-0.0906249341437031
,0.09928797276210802,-0.49504975703233134,0.035288266289474,-0.09486499421782377,0.11945447745834588,0.09515469631147655,0.08440144368469879,0.21424730674142353,0.0384442840721779,-0.11151381226999682,-0.0016456042269369475,0.2078561016413049,0.10766912054554974,0.10500379583862157
,0.04970913639407413,-0.6663009527156838,-0.02025690398928122,0.4075948369125107,-0.062409761512325905,0.11958330490104312,0.2552520699193153,0.12466234422569657,-0.0604684544543828,-0.08656749365558253,0.13443049442275543,0.19630906080300545,0.14718609203514338,0.07731644083105366
,0.19962851506031146,0.5318759329000015,-0.027820157240451285,0.30898397574215747,-0.39020585572254557,0.10376635597939386,0.25063539547631597,0.146649991837242,0.0022676042632552786,0.15795355055866273,0.2881338645399762,0.19353197358567484,0.3613982259814703,0.249355846959186
,0.330437242746092,2.354392404517723,0.06355180223630527,0.21837736836507507,-0.25327092326147255,-0.0650037264391866,0.20288925195548632,0.07436684061804467,0.12425459849565254,0.2389261261629334,0.2021491160184878,0.396418862803755,0.10029003102217764,0.41018268784359746
,0.23963577249858845,1.6815915470703908,-0.01913405188337961,0.11557429873172499,0.07481617851429986,-0.0654899911088186,-0.0029436474420069954,0.04283503165167279,0.14369974982661674,-0.055060934715717255,-0.03146394200381164,0.4501029196790844,0.08536921204868587,0.10322246377350566
,0.03822652555772975,0.13673230965096572,-0.08708127766739936,0.240495330832908,0.26430687670264247,-0.022346738396437034,0.03348179231431694,-0.14339280438895874,0.010518999296919558,-0.15451408592857077,0.16681358928484363,0.3050749066111899,0.2832383548475205,-0.27602804177428014
,-0.06814381550754563,0.4688786641098122,-0.23549790256460448,-0.04930517620125017,0.20986736011069812,-0.1262863761996434,0.22218404566258013,-0.14609182786752128,0.07203613744302684,0.14634237475594927,0.18646854573028507,0.34465834965939524,0.372707049461108,0.059568072737881894
,-0.3529297779793276,1.639566527381482,-0.17114725321186716,0.11913223793988284,0.25461079837489703,-0.13362461979024395,0.002110013427159544,-0.05168656280450948,0.08184362344187142,0.21390125998351292,0.21147422132364443,0.2916729079260565,0.19748973881050355,-0.2606831578256448
,-0.3616502709123638,0.6073819249119069,-0.06393417109029233,0.032093944826790025,0.13351088011143544,-0.06614578007484287,0.017685780857348236,0.1444094733741632,0.1517569996493379,0.19130954858250557,0.37275162296181896,0.24808118848296037,0.11505277313620138,-0.45118492541828836
,-0.17321842844740154,-0.0968047153152327,0.06771202136742659,-0.007768918439072604,-0.16701063227683755,-0.04715452819465278,0.03376752768345644,0.13413051711211996,0.1068510513780235,0.22854644442978525,0.37360898317361263,0.3025539370636505,0.2650359200275044,-0.46549460721453995
,0.2326613093729496,1.1785910952780736,0.0917424204701633,0.3275214847971688,0.11883924830156613,-0.1364890554426613,0.11356753962770572,0.16755849810489576,0.11791342315506753,0.1509229736841757,0.05339805169886133,0.32029801548131237,0.1583431701153292,-0.025835292520406117
,0.3545890709372515,1.4911380727691335,0.15110557616351078,0.6651704822212385,0.11875765066681636,-0.12794926358261516,0.22946541319265149,0.13152069519088633,0.1214370675306232,0.07155179446661565,0.2539084438541791,0.3074092181213201,0.3909064469172066,0.3429651596823444
,0.3242127934581938,0.441534329827398,0.03699342336096482,0.5128198813963216,-0.12957314969681757,0.159311649236206,0.5329308742084542,-0.07023789050000216,0.21681192337620417,0.19690403920332952,0.5193970934978067,0.3167427342558066,0.25567573702298496,0.7865408927067146
,0.12305905156963545,0.17887923870235126,-0.10971776921591267,0.19661755031772765,0.03191104634656164,-0.044317073428451315,0.7938585079381535,0.0014648814328865507,0.17211875957980777,0.37046360185180094,0.33819737910744907,0.28467664205785964,0.06112854268369274,0.2523377755208539
,0.2010744220962026,0.670991839501501,-0.17514731404029663,-0.22814871593179392,0.24528438228279942,0.06713466296236902,0.3187405897207007,0.28186879552620187,0.07901921809441621,0.36323136394514477,0.5483204429528773,0.11497004525260834,0.21583220144570342,-0.12968823338926033
,0.33953368195987893,1.2343561220238979,-0.1478671570287767,-0.17269162546410072,0.27592329233599333,-0.021529954338626277,0.09118624580211368,0.3243135859082282,0.0737992990001434,0.2973042779832758,0.8821362454310834,0.06244729889143578,0.47779070462328127,0.23336334356416624
,0.1507010925478663,1.6398768773568122,0.2363978301010174,0.1619877006124912,0.30237411081570625,-0.05589069064134364,0.10899984524630153,0.28496300936644325,0.027023102735505046,0.29839220445389986,0.7499577118227018,0.15443159184883637,0.9757500854890176,-0.05871358420497495
,0.15671127333500703,1.9264855007078636,0.07059674227234077,0.35998079533402005,0.11632272260638686,-0.048915837909204576,0.08802253888323662,0.2818402763708816,0.0773498802188416,0.29053704663866003,0.488392970180952,0.16180696934331484,0.8384436187374813,0.19329205865957363
,0.04051350781579723,1.0789235888922504,-0.05851617916290745,0.4848596903648756,-0.049026418139427,-0.018178235336814053,0.29266864043580126,0.4187439390306991,0.30302656668654043,0.48652901284159067,0.42321740912090916,0.18033390363995436,0.9437715523956203,0.08898407229540006
,0.10427157131625724,0.4709925421060247,0.1958251477904616,0.3028077831378528,0.005160086613433453,0.016918291169153908,0.544982907117711,0.39602131675515095,0.3516140202138385,0.4406098396015164,0.5302376561703424,0.27881223514246367,0.7765020322197957,0.19602379119323105
,0.3792060622916363,1.6900153458631935,0.20108927499508925,0.4472194517995192,0.19767918836343573,0.27279094737564435,0.7864611185405983,0.2606127523181329,0.16338820210352983,0.18841745527627937,0.3930031497755548,0.1888503006648511,0.29641943455907693,-0.13764909693365374
,0.24884322029193465,1.720293383115914,-0.03195710753777187,0.24179291197856898,0.26079314341359755,0.06772069406477935,0.6897324592118768,0.30767495198392536,0.24192262987998187,0.38394822311507937,0.4966882698177437,0.17884705782855218,0.11264482333706768,-0.22664636819622996
,0.12813285016480241,1.5335916331918262,-0.04123392099006019,0.3906430144199542,0.2633610754438929,0.03149848798634146,0.7147784789308494,0.2065956424224399,0.08402972597150801,0.3962631607045839,0.6762530676529358,0.2991637549597647,0.19038818383450956,-0.07797246448962414
,0.041150095223426,1.4332978096485063,-0.056979597577524244,0.6886211254479364,0.21931526347256552,-0.009040475206043105,0.45171391272610717,-0.05039289793438571,-0.1215362528734079,0.2618904726757963,0.5975787113208358,0.25255836083422345,0.5002668338249443,-0.23130103102637972
,0.02740646212950468,1.5467831061777917,0.11472530230237508,0.6686414388097046,0.12794639457633344,-0.2218176172564869,0.19655026753028648,0.07764950270403803,-0.022286371991387274,0.37128699459475034,0.3948934006324633,0.21965607250212874,0.4608477487349186,-0.18498594986286546
,-0.059378132898711154,0.9965410528742931,0.0839550571527745,0.4941662236943427,0.3049919743533164,0.02434292203380757,0.31350216640019324,0.2640243296379052,0.26714481634564213,0.1345411282894699,0.5340448282704462,0.2662211231093679,0.29238886532715214,-0.37680482857172326
,-0.09278431618074948,0.5114446556800728,-0.1309191719331369,-0.04677325019936428,-0.10743619255037319,-0.06962056027314882,-0.04581815924726132,0.1556341538757549,0.3293142872460595,0.11507481754955673,0.3364339736168688,0.41726177317281643,0.13816467016388662,-0.3600737754019805
,0.1272714076105015,0.505865710841709,-0.12043276724596562,0.062263414706134126,-0.4142998616561576,-0.05323228901405225,-0.007490563990422524,0.1773831819068489,0.19327235322238942,0.29364838368044494,0.2508703027685469,0.29363598625792636,0.10079368722460588,0.06944219986337284
,0.3225003242510628,1.2548710698688788,-0.011884687755726094,0.3888772968708981,-0.1523939116987932,-0.21189745620845088,0.2714902634315842,0.08561931839430817,0.2130254388766133,0.059933689154261095,0.38181467165941224,0.3611685227569851,0.25389804453132175,0.41242179288473624
,0.2384199564211569,2.080016941342034,0.05958813206241832,0.5131808843375336,-0.10376630139175666,-0.42364989407684983,0.44561812929375144,0.12947012167159733,0.30073890466585523,-0.02150803156024369,0.22218008031738437,0.2991116887872578,0.023713085786933475,0.4808929744478099
,0.20492215679257245,1.516419674566128,0.23614277295388075,0.45728515136898396,-0.47383238809747336,-0.5382440418502423,0.29581317201261603,0.15062269978612625,0.32355104783574506,-0.09468700366964738,0.4926453072659659,0.1302373883726744,0.043877287955990565,0.5849987910256027
,0.05666198925042463,1.1310027675353236,0.1898520828562079,0.6097915538634,-0.37388748741693667,-0.6206760096222957,0.20117037192465498,0.24113424411277015,0.38485261622849054,0.15220237292770586,0.7257026410021018,0.09717096376170445,0.27880466811839716,-0.08441290976665765
,-0.11576112140907256,0.7764824458604485,0.06627686205732584,0.49483720412112,-0.22177593306246418,-0.3526226819698887,0.2833089587824679,0.028635012533858722,0.15288216173235,0.21121624461550126,0.48291381987555315,0.0059414538422147434,0.5327026756655799,-0.4592856430343366
,0.026674954664614416,0.6921344630462837,0.07861682339838397,0.40205335962002914,-0.17150787843247517,-0.1615303865893885,0.10521448750254006,-0.04921344232215454,0.18870147051313377,0.06119724649266993,0.46266356577129986,0.11522319595563797,0.45398668626074024,-0.27630658440751044
,0.16492462470983021,0.9213458409690723,0.12685179897868534,0.5146420414882177,-0.14881491854572046,-0.17402888211057918,0.018759398768737993,0.021404870197495124,0.30344137304822577,0.11756446123663898,0.4826767938960053,0.11124438052735518,0.5178667758545599,-0.014864348576022765
,0.15709645791452456,1.6467626397833899,0.07055275921750247,0.7626331515604353,0.09169660968245533,-0.11855973834109729,0.40804756347345633,0.2257879478655156,0.05476468543430867,-0.30881805744875834,0.477826655813791,-0.03462220953915108,0.21400862506686769,0.3688428363581107
,0.4204226506863966,1.7100943999706257,0.06723655445047212,0.6532717538489643,0.04880795613717101,-0.25659686762286116,0.4558501237497858,0.08007306697644194,-0.21727901552995982,-0.6499197059593197,0.34592422935370204,0.2012088460785708,0.11588574259992167,0.8813409945935308
,0.6216657865999364,2.1714254416390597,0.10971469938720857,0.031890248246173175,0.16661007488520943,-0.1919884733267006,0.3591502161509047,0.045076471551947266,-0.20658832445792957,-0.5199021616718988,0.3999149411670715,0.2047148654308276,0.07179550796803472,1.2377951556669955
,0.2882777099741167,1.9868146820807453,0.011916776994227257,-0.040374900083363224,-0.0713424333771344,-0.194557791146037,0.15354381694844987,0.19990033935234344,-0.09524650988021241,-0.47807623667676125,0.09350018768208022,0.34519689611956433,-0.24844995453053595,0.7556627832308132
,0.21184414597419485,1.83342414351476,-0.0698889036448876,0.6405231041453905,-0.08009670454119115,-0.2115304712719401,0.1449784665977179,-0.0063683090503596634,-0.21152190258527892,-0.3689644943867665,0.14439419945055929,0.4534797540415858,-0.01340032613643158,0.44212120331218424
,0.3724087042877159,2.000745411724009,0.079005353806827,0.6412726187054971,0.038618164956261754,0.08874074221532227,0.11423330755622432,-0.04189425991602346,-0.2787404195844708,-0.510334961034362,0.4113514997825549,0.25917373866008453,0.31537425159190574,0.28268087150080207
,0.3715960604831868,2.3869836808691014,0.07093557022092314,1.0643418565453906,0.007827438499458491,0.27757409558875756,-0.001973106121019924,0.2506117655972671,-0.1348206710833966,-0.4006370045129604,0.25422996075365734,0.3120189292369085,-0.08579080993794931,0.5517956010414935
,0.33330416496842685,2.7353465041072953,0.024356412293300028,0.673782566416588,0.050498699180431414,0.16856487398428957,0.15549037141605462,0.32055158721001165,0.07220660933838162,-0.345492022225504,0.223386141752073,0.24626000775377296,0.08042383167683365,0.09796773745035699
,0.465919000937217,0.8731463151731252,0.07062038005257745,0.47019407852298983,0.011877095782667439,0.23131107420309394,0.32696690685774926,0.09471497172008932,0.042590337122139235,-0.46272238816420047,0.2683427831743222,0.15105857862819755,0.19914538662662357,0.5010246975773656
,0.13618739041122824,0.403249955443193,0.0650925798592599,0.6537719384491814,-0.2935424667641732,0.19902656487062753,-0.00856601411300148,-0.0029417385017783777,-0.028548998048780673,-0.2412419960227344,0.2537118320380323,0.21748164389021765,-0.02132296678194201,0.5757706303644256
,-0.037222169959653155,0.7436608687082435,-0.018659476237879984,0.5252985744784833,-0.18545122273763318,-0.1564369996718375,0.11357881136241386,0.1991527498810511,0.11473239895999507,0.061893742250074046,0.5714187699959564,-0.04564905749877381,0.17430287697670135,-0.15122399445131526
,-0.0021196040927201993,1.0933469844515948,0.23218410892170388,0.34449585986115233,-0.1843202742267379,-0.15127519570602005,0.3536601423914567,0.1865810821282794,0.13926490791212892,0.1811756559723269,0.6495086532320267,0.0254619430333294,0.34598681859497576,-0.30029559646623966
,-0.037045992620564586,1.74440318155475,0.2484080074989847,0.3662296148674033,-0.3169237816947901,0.08174260770343865,0.19196408677770366,0.07706714489478815,0.13462290511199068,-0.07582081261463086,0.628512887309935,0.34463793600421544,0.29393706021967564,0.2726788006072779
,0.09227699174897634,0.8207248598923959,0.11264124343935765,0.17408768633798416,-0.1254413084870208,0.008701527435600922,0.22663258538564215,0.2027334317622676,0.1536163614226981,0.01623103921366549,0.3965298818530755,0.3071419555251491,0.46558577251603245,0.32169976169725556
E,0.13273274892894954,0.6364320669969566,-0.027350140986338378,-0.16067633407549375,-0.22559800567940708,-0.14297174217404476,0.3575720620160995,-0.013544276898853047,-0.12689905535987447,-0.33575791200213645,-0.2330189095018323,0.32264238842667786,-0.29063961434083013,0.4106277549446333
,-0.5896703600813851,0.3528772204928319,-0.2887595653076589,-0.4814087954423934,-0.24799480006863747,-0.21643436350809975,-0.152651871528377,-0.21729754589193878,-0.29347792743054874,-0.6647302327329112,-0.7941011929150464,-0.2269997449399222,-0.8664573402150121,-0.9641201644261674
,-0.7066913987672463,0.13920810508624765,-0.23667111901304902,-0.11983347880331287,-0.17665921678549798,-0.26943684306133603,-0.13325773410489775,-0.04999122895276108,-0.11093690262449724,-0.5050392616640507,-0.6574522154781719,-0.22859633727380593,-0.5951985642579084,-1.3585187494787163
,-0.29535596115681095,0.7768016753272375,-0.0458522753270244,-0.15361786877000208,-0.12174646167320143,-0.1395357410320917,0.0959959029333313,-0.15378219157099637,0.047648510456500516,-0.16087136983495598,-0.4714182248945517,0.320603041217944,-0.6006952771328329,-0.8589129839085065
,0.026076812957128746,0.8810138235175966,-0.09394148792618463,0.23936326748775968,-0.1322976786730436,0.25295478263200355,0.3581956244989869,-0.19491862070023624,-0.06416741420062998,0.03729606581088243,0.1903895523063981,0.39187460866856144,-0.15386423580823422,-0.2451576136238313
,-0.15457796123989087,0.934160663331086,-0.15214500216595364,0.4351909203580031,0.03936412640861283,0.2511039568529219,0.3040332626669601,0.12126907116268973,0.06810884014758378,0.18314680090010343,0.4740244041687459,0.22495919955070418,0.40064583712405866,0.0980063233378194
,-0.13687163311685666,0.9773929726542447,0.020291897675310477,0.41793398106858204,0.273736437507433,-0.11324400388173601,0.2665392587979509,0.15687648778720606,0.0359883385287171,0.12414400602722651,0.5554727268850701,0.08319303075650993,0.7283752480443574,-0.16695051782364442
,0.0043668804142035006,1.2931123848661918,-0.04986806851840082,0.5009883206494533,0.03241843695127063,-0.22385584397072114,0.15155469527497403,-0.0657756038357285,0.027527951981312297,0.4578008423857267,0.4125038807247221,0.12691646798364362,0.7117017589652592,-0.10297229169171598
,0.27260582571205466,1.5918353144687654,-0.051992938453472914,0.1428472929167915,-0.2544373461196142,-0.0023580028683711537,0.1560347383702037,0.09247860559845977,0.3764672223650026,0.10226532405601103,0.3234308352933658,0.0903866560910679,0.24494927737396993,0.5435678400129383
,-0.010272825921959562,1.0468457204185013,0.20211620737911942,0.20735450882016546,-0.07800327138171509,-0.007243161277360111,0.012100118611521568,0.038944784508187946,0.0042293966396902555,-0.23611454488246755,0.22289800635145468,0.20576079333381922,0.3314819366517273,0.08734702916690026
,-0.13097613509172884,0.93879436281349,0.0789894733305295,-0.042952116296874024,-0.026676939266762706,-0.01833162673839289,-0.08529387999909088,-0.1048527858764233,-0.200097233216732,-0.04374971828169478,0.3545785715112912,0.23910548044740582,0.47802526311688964,-0.22015749204428856
,0.1039065644955874,0.7290287645636347,-0.002527717506710902,0.14283147608994745,0.07540347710845989,0.3021529572445189,0.06411860493086116,-0.06761242481864248,-0.1336949051480133,-0.2532901540406958,0.4123143595030666,0.3835019197389168,0.5746986553687692,-0.0469324726873035
,0.08281313631554821,0.8031822789070717,-0.04514055194634982,0.26697912307924976,0.1394485681041088,0.3502304570274217,0.4635289865409044,-0.0920017725177717,0.029104024552764056,-0.2127790774332249,0.5189890066504317,0.3439359746504208,0.5951302475122567,-0.33271034771859254
,0.2734230915821963,1.9750121624516466,0.0001393187677838901,0.36819216002849964,0.03393425904426546,0.33354879657594216,0.35043791762659665,-0.05933654694200427,0.0587220278567375,-0.19783996641603457,0.5451870443094466,0.25368942331351324,0.4539643443224584,-0.22574236946591306
,0.14300560868591825,1.4515464937037212,-0.0032635691300518135,0.49388487325818436,-0.16339110957651584,0.20167140483999021,0.16944405921822364,0.07770836415226716,0.06610282894913391,-0.015663569246245165,0.4851416158479809,0.2781596319402566,0.283351781978187,0.1941748093464195
,0.32791637267001633,1.8304896299055409,0.11718600735989768,0.5047248570595079,-0.313783527772369,-0.03169735836577858,0.14297414894538943,0.13143091032901105,0.2611023335517764,0.1081352095281006,0.5005841349249357,0.070293199607475,0.1101114128202661,0.34922228900050645
,0.5156244800207671,3.0369274090323755,0.1909610150164832,0.6339941136778219,-0.31686243125372837,-0.15757268333605812,0.5595487599897168,-0.05296961900551321,0.12991055833948498,0.2831212780659753,0.6564496304903401,0.19977191355865276,0.5049417943409588,1.271360521962532
,0.1846569487946482,2.5682978456573036,0.13104881760097845,0.7969680190525648,-0.34496335374625475,-0.15810119625675165,0.5437717930498985,0.08730908590929877,0.14112182668863954,0.14715427639806566,0.4054083067423357,0.19944734577741263,0.13596190369478642,0.6296573597559827
,-0.17328859360816007,1.2300929667886527,0.05382030561925792,0.8571698383637268,-0.5045368102195122,-0.18728572982815214,0.41287438299107554,0.3045625017250368,0.18468638680730567,0.13550490465525805,0.22151078440626704,-0.00242461101803552,0.19828768904682523,-0.18169540378104154
,0.13011730710803565,0.2200009639989185,0.13903053804871546,0.7850446618295246,-0.45077045072243394,-0.22904908086833148,0.3488678080254848,0.25928556572271616,0.11884926035441788,0.38753988995060307,0.3186815358341482,0.11772420132324737,0.779998584978684,0.12813484758772795
,0.5137277365108925,1.0463424167718451,0.07075193718861225,0.5560574261865475,-0.3669994204245858,0.04850089433446435,0.44674182588094846,0.0753949836100326,-0.1682772618607042,0.3945168842303594,0.36942038496988017,0.337736771589093,0.6686769118157276,0.9358610298406126
,0.14551029272808688,2.639098757487779,0.09819688629287215,0.5518665598075769,-0.11670551156159761,0.4488192898648768,0.2200144124897996,0.20519292679378437,-0.006744297515478118,0.3627627249851294,0.5218425293846978,0.1934819102440223,0.3872549962236123,0.19363315193812286
,-0.0458158410526609,2.6636253590167414,0.04271040165866833,0.5510171097866404,-0.2470603196792318,0.30471255022030097,0.28125942903596357,0.2631688743032133,0.2525667888682226,0.22646261622334116,0.6409486467829557,0.4062241051228238,0.2316475658367639,-0.22275369486249924
,0.012445766542928068,1.0266251226424403,-0.11331559247491982,0.08987922659091803,-0.18850924884438086,0.05982072841447304,0.18676092799204458,0.2646752458712673,0.3423241971305122,0.5359549964441702,0.5503055104004495,0.14707168707997018,0.3914859987997881,-0.24014811065001662
,-0.00891108137501766,0.5431547422352079,-0.04871167724148312,0.09221328392131364,-0.08021578479343584,-0.0014461025319930105,0.17249588952608397,0.2808856561126249,0.18219743236469338,0.2587550428437314,0.1801885096515645,0.15593287952217935,0.5486897192410634,-0.29961445873920484
,-0.04749699556673169,0.39314216186346096,-0.19014378453789257,0.45830970834219315,-0.16045290143121,0.04669614698366042,0.10128246179861605,-0.0840342903634961,0.053285236679980294,0.015702328898113974,0.4428447054694768,0.39295412054858475,0.2985631937841001,-0.4416429362422148
,0.30764352559326913,0.5030129166716538,0.013270608132857905,0.7642832934966525,0.04589766970606933,-0.09588878688802074,0.1133902085183947,-0.052752960380268575,0.3495555955211027,0.0525184126295967,0.9546695028755584,0.3119292086223857,0.42389473452469584,0.43689007338378383
,0.1614460687362249,1.5039596740956849,0.14027733404142817,0.2986029656692066,0.16462641487292776,-0.2275031079741429,0.4043976878758208,0.08792327217454003,0.2749279546374694,-0.04363456543108912,0.7828696013824665,0.3277679189445964,0.7484802584814129,0.6125134758998237
,0.2958374873954818,1.3720533355185387,0.0656938090154139,0.15217888866195642,-0.20394032543732726,-0.17750702557880946,0.3453021288955571,0.15393461564844627,0.19102664279578524,-0.01255107934093731,0.409505499151415,0.23707239209339787,0.6216775596359079,0.551238659739906
,0.4713136774386757,1.0874014406070505,-0.028128235324563197,0.17696477908047079,-0.13186098298406781,-0.24477127558295178,0.28719701418292515,-0.05193704432116814,-0.18887636779699524,-0.23722782377618684,0.5081942267199293,0.30103421735538893,0.5523943872197733,0.6824390693474923
,0.04929635696430209,1.0280103719765783,-0.06989449350550576,0.1465554529415624,-0.13613666674165625,-0.20226239131298113,-0.0813438582378981,-0.024796157419557822,-0.32250496463411643,-0.19267487709782985,0.5842123828075342,0.20597534006941157,0.1840402923048779,0.3075793951950109
,0.0049187230071588,0.24252947243886816,-0.010549384514078393,0.0833687024081763,-0.2723415438357106,-0.26778708207919905,0.16343743679118744,0.07403751945667578,-0.23621983273307381,-0.3095703084951371,0.565874270614822,0.18144108364303668,-0.16470258482840072,0.027458432447964542
,-0.1330363166723784,1.1203734176709375,-0.21047924209320865,0.5697935140993818,-0.5381225966938259,-0.56000231513432,0.005536748883787679,-0.05852184398368994,-0.31490621654430173,-0.39800275927968565,-0.06165522326501654,0.23869129244977277,-0.3154084094940905,-0.3940508888688612
,-0.300777988714627,1.9119888308266975,-0.22604791473951633,0.573910702720068,-0.42097053786379857,-0.6384153379542341,-0.0289271630867124,0.0015211047335717805,-0.06205986524011146,-0.17575936897464664,-0.2579676213090614,0.13400534707745973,-0.3938183758815024,-0.6593861155725939
,-0.2596077907759866,1.691568671099731,-0.08791510400220667,0.34196537414237904,-0.23559350615745503,-0.4818348750704977,0.034010348948459224,0.05579479613664529,-0.16080464525149513,0.016405381960734385,-0.04772071591680676,0.160349059769691,-0.15665723539737747,-0.6845384633110172
,0.11763482957816435,1.6306881484157216,-0.00028311495395816675,0.3988982182569891,-0.37016369835727536,-0.1228660864683322,0.13578389702059673,-0.024276130451631565,-0.25364304705253143,-0.024714289616649326,-0.23091503651067882,0.2611183101043768,-0.41897377513583955,-0.08891174586389357
,0.03633028763225802,1.402625256170629,-0.11048477526120624,0.38076429333458395,-0.49237575334137734,-0.3665856678285474,-0.11840550848409247,-0.017329635650368262,0.04502895890150389,0.14537608494406545,-0.33710388634380545,0.2531444868204911,-0.2725023626700698,0.34894895642910534
,0.032532938863222075,2.273048338153377,-0.12071442632864306,0.41873891918861345,-0.3891396918787831,-0.3221807207771925,-0.1388852107386435,0.2151007594749057,0.19549884219874955,0.10742283595936092,-0.24087124489931241,0.23704354107285608,0.21242523217604356,0.46045285146969916
,-0.005180574669034768,1.7689155140842738,-0.09316433156915532,0.40657162642625877,-0.3771631092730036,-0.39699523717816315,0.04144162282932445,-0.03069073857853924,0.008652759114787434,-0.09780197696985997,0.06770823931580147,0.2800750090969427,-0.09898680905138806,0.04670515561780465
,0.052041755085759506,0.3973765632858777,-0.0838414397323117,0.4890968431799945,-0.4461773628336709,-0.15570865944055445,0.3293252915278886,-0.2005243814662969,-0.07967226081460076,-0.05831077262098532,0.47961261331319577,0.2818293398050553,-0.14430007843892684,0.15635752010620887
,0.11851968757252868,0.6532723230460887,0.00651192607741714,0.26748238822688486,-0.6119319137760112,-0.3546916482629088,0.2595367076385143,-0.127475406165727,0.1342596997932595,-0.19219982598074903,0.3303356888661142,0.1125918689981466,-0.21799085922123607,0.20369312395831723
,0.0059074190620696816,1.7487109075768403,0.08466075453548327,0.27102100646200095,-0.5190465170529441,-0.3263060958793495,0.10999328054475209,-0.13956528507001606,-0.0625645587887388,-0.29364015771882657,0.28730009699865616,0.11076769336876652,-0.33623998874871563,-0.07855823328750448
,0.2393038052750235,0.8994928273767873,0.2692630860525754,0.5360900328460145,-0.21156301908342087,-0.39860689546354666,0.12043839636769053,0.08788851555499462,-0.18329826415143613,-0.2307396263022766,0.3855122465766093,0.24593777220894678,0.1693292013384302,0.16774676806994507
,0.0711740309499565,0.863182963166558,0.17805441964715185,0.21462831814475222,-0.3167416701418605,-0.4090287763800241,-0.030172607950148877,0.132344737906315,-0.24547287331120973,-0.053178091295558394,-0.03073567778849483,0.21066582207146914,-0.06587315459166565,-0.04122765504219817
,-0.24146740022332208,0.20793450527799082,-0.05115393529006815,-0.1842808215141416,-0.36480563482674805,-0.25071067326168084,-0.026709285084189682,0.17441773104223585,-0.07558252546864276,-0.18916180573880476,-0.20387967806359553,0.09043791035359346,-0.13802279061542222,0.38329240644451035
,-0.14693560268157482,-0.719312604120282,0.02431537908835281,0.11791255550172779,-0.3212070131418493,-0.6945789108198457,0.14142498237299067,-0.13032764363152927,-0.06351092958791922,-0.19597680583866836,-0.08649644171789589,-0.05329529050834264,0.1073126854642081,0.23535370170407233
,0.17560055055154167,0.17421739977513392,0.0983393187542024,0.4678077103047394,-0.2789187938697098,-0.6767213107604144,0.38208249155625534,-0.10123487398913503,-0.1455116963976513,0.04910682032982865,-0.06097319454063216,0.018212546051315823,-0.06093262721121424,0.28729542076623854
,0.5794468086462049,0.5396849516920976,0.03612765485888486,0.4984183895213785,-0.21614712701603792,-0.5324691473542011,0.35054619392275815,-0.11989559247274448,0.017833152832251398,0.06439653137510223,0.27606745514930087,0.15186027209044398,0.019251973414998794,0.6548454035086715
,0.4347747438648489,1.4294401921310804,-0.06442619612501212,0.5935765136925769,-0.2819405802968195,-0.41003309461309645,0.3311370737946622,-0.00023240806712319592,0.15127317540359225,0.11684275206771999,0.41412689659718205,0.09661814666066208,0.4136702936330111,0.5273126671975087
,0.46684996352936015,2.5114867454386056,-0.13191487129877727,0.6438684680318052,-0.38267616636775015,-0.36905314394887656,0.4768018539031789,0.19160715690395763,-0.04334419621967924,0.11995346439264883,0.25516463666138334,0.09732819618745715,0.11520123746800233,0.5300309499973819
,0.4078404833333501,1.6765761736441354,-0.03893066607323709,0.8423424896087681,-0.4204613649431221,-0.2855151527415954,0.2643193369334499,0.11509599565964677,-0.03776656806475771,0.1458013573968233,0.2638018118627416,0.12787858132965632,0.17471956421969734,0.4240336340134181
,0.41723677652534064,1.306934235703433,0.18606502808966296,0.45052593298159543,-0.4340114716812879,-0.19506095857093347,0.20619521721501327,0.10789321801853452,0.07190649358064138,0.16565465084670722,0.20921414039251007,0.13127324750148198,0.09361654064398817,0.7606095503651733
,0.43286188665558406,2.445920063389106,0.1944641418963277,0.35081830142645115,-0.36280778160115784,-0.1404158736106953,0.13458067599118423,0.23901977098669333,0.051070853977803546,0.008049345859273947,0.310433418438676,0.32447870071970136,0.37636257638887444,1.358736652955859
,0.35579055258875353,1.7520864923243977,0.07924586604371112,0.7125223477877354,-0.1910493438301626,-0.08289659889361041,0.3444168698167644,0.1794231408322696,0.35366938147629196,-0.018199011409989436,0.44277794876816895,0.3324119243109179,0.36438315194112053,0.9904805162725921
,0.35482852291170003,0.47135254409082433,0.18251931622323558,0.28782688794914735,-0.19423217818393423,-0.08557126490649185,0.2947512574970984,0.0062649675222211125,0.18997021538847142,0.1402832678832186,0.39315175187099183,0.257678384640763,0.09884049709115361,0.9106716222504587
,0.3887894960713768,1.235726436215759,0.20286204476240585,0.6178512968684072,-0.1940941574429278,-0.21517808576761488,0.029119457507124004,0.13308750196672242,-0.07586928384632165,-0.1685151351077035,0.305500215947315,0.19291837929544123,0.006495315548997497,0.3833003385107777
,0.1400726823092813,1.5408083324913295,0.12767611711560292,0.33912890299561005,-0.23443801558304592,-0.3059170880404769,0.03968258458552006,0.13327589878463206,0.09562052227075005,-0.5550177621793769,0.12656133587266835,0.26663259182587545,-0.12642755102014347,0.31777780038711206
,0.09842515928424436,1.4862607319856076,0.19552622416742593,0.056016798798922,-0.47113222099553553,-0.03961568172816519,0.37842888618152387,0.0828001209599957,0.05874391894196599,-0.4960724578226656,0.1774589205958613,0.059555676139144476,-0.19531884788409787,0.8060177915494792
,0.22357013690429095,1.0032197206635485,0.15274809631663788,0.5871995247410927,-0.27831956685584236,-0.21218662961729332,0.5396284701246928,0.28830057101499257,-0.18276991329767586,-0.23366270784085608,0.4878784821104577,-0.11069813795166951,-0.14774724562356054,0.6249076125051609
,-0.13591338938446484,1.003594738343976,-0.07394015600116483,0.7692988098306908,-0.004386515482852416,-0.4774832218369226,0.5262718566535906,0.3137553363025038,-0.3539434124058343,-0.5271596713797628,0.3371338459346043,0.053919376048464966,0.0939412050023203,-0.2016604032636951
,0.0013760911156826096,2.5325551492397986,-0.018755228934631375,0.6346665767687099,-0.1319679170862375,-0.6783995622497692,0.03317509956965308,0.17581688117332803,-0.2699477149010488,-0.6331972255866496,0.2753116028134432,0.09417297178404553,0.18640310406799415,0.18803864036612952
,0.3621006848528664,2.2158907517734034,0.1198637088274991,0.7521915988933147,-0.21392276150347417,-0.44408654013322035,0.12596912741064403,0.033042255662490826,-0.3562776730533446,-0.4074964440311606,0.051910638055961404,0.2063999466083883,-0.046214929877609286,0.7314829657317619
,0.33942580737601724,1.6664313092664074,0.005676989749149172,0.7030736727376902,-0.5867044966318885,-0.08415831332548604,0.0299865802038467,-0.20475693664161726,-0.6710004478193173,-0.6499004707745017,-0.21972202176227956,0.22170551013583978,-0.6746907896649764,0.5639047508472071
,0.3040680159875498,0.8935070178505605,0.06726827544433282,0.6576524089565459,-0.6312708995268693,-0.27206712208097744,0.014481638371005117,-0.17918193757901024,-0.7883368485484678,-0.802649750040189,-0.111362824775965,0.2800973955364782,-0.6551744161886178,0.6009641421711656
,0.27789283383040236,0.9099241751885606,-0.12457640827063039,0.24773480826997923,-0.3459214589674227,-0.21603519331108675,0.24224778218916765,0.15517288172782748,-0.7238468191673507,-0.8828973400462901,-0.1847505688257184,0.007993574309268005,-0.8088758836757923,0.5523613254440439
,0.34258740862149534,1.2412135708948813,-0.13060587479564156,0.17245150577346133,-0.20629441285462297,-0.35250868236989263,0.05038671789692261,-0.11580537990384572,-0.7995787561150167,-0.8484487078298063,-0.04973070367974498,-0.06838696803306096,-0.5335045025567275,0.20527780638907686
,0.0362673870472278,1.6404755179157733,-0.12553606042689003,0.17342641274892528,-0.4589445709473611,-0.2199001745468141,0.04221312769080171,-0.05774911911139301,-0.6630467720682484,-0.988866797703318,-0.0514209722315175,0.20315967202879445,-0.3519551809205509,-0.37719521194388833
,0.03440819864116899,1.6621134848589425,-0.05521975327201419,0.4453894584881549,-0.19012306645723065,-0.11494491078708982,0.23970733771530517,-0.04654855913448152,-0.5606421576432419,-0.6918607572637097,0.11139029946460416,0.2923693516168125,-0.18473141298301687,0.15772094582256613
,0.21419002360009526,1.400630630791528,0.2306614090117166,0.6700247143044507,0.07468130333749252,-0.32862650152894923,0.09854640652530433,-0.0460215250482405,-0.4851804397807082,-0.6132723678488765,0.26405903049594787,0.36715166412193,0.09055347156216666,0.5207533033714141
,0.32093659488539983,1.204303147117017,0.02091987723051991,0.5129959425701802,-0.3553137929559112,-0.05356705228401502,0.1392049440996824,0.0218763438879216,-0.41491961450008696,-0.5315462634346554,0.24948364580236415,0.1875651039333064,-0.22214050686084327,0.36992209218489475
,0.6308248902207041,1.5039500818722695,-0.1278773706617286,0.4492032023610769,-0.439879161146649,0.19113001128584323,0.28964405388822245,0.19290910466140465,-0.0595477271149392,-0.5144986121381344,0.010476159298407771,0.12161861690938618,-0.2762335877680394,0.8631801937381061
D1R,0.5211846871825143,1.801031240985519,0.03695058689786703,0.775053143589899,-0.12518901610820543,-0.024571208391928914,0.47822765693878055,0.1702753663792732,0.09052140281741125,-0.4656365338786762,0.016426201390954354,0.19469207976255742,-0.02806598292532298,1.213634906328741
,0.38208516274197374,1.0722517775510052,0.031387178835256546,0.5207753854748473,-0.07668006780656125,-0.45596360641990846,0.49675405265728106,0.10394408547744637,-0.03814318832900759,-0.3233589322832195,0.09498382941058817,0.23087705114833787,-0.24881765198615063,0.617691092457359
,0.25602157424259153,0.5725159686223639,0.006639758152756919,0.2659310370841208,-0.3074422600128801,-0.2606988370803234,0.12020113808612409,0.15271281507223639,-0.17645294018250154,-0.5389220461674998,0.24582033853981541,0.027797079314746804,-0.28763091939271496,0.029342356859241917
,0.41838818908079944,0.7633669117253711,0.11280650173825864,0.33911461236187435,-0.16312674465579316,-0.38344278767882944,0.4198398116505882,0.018087605529601147,-0.34759157098770527,-0.4381335328013498,0.11076600160485743,0.1970148206954929,0.2216676543552318,0.3219550649497448
,0.3093084326368396,1.0937571175395786,0.16394525829128131,0.2353410713418331,-0.4044693876597278,-0.4322617459455277,0.33835621852395276,0.05005479121781515,-0.3224447860022685,-0.25489091940418507,0.06393448443188694,0.4200546944341531,-0.05207849644993733,0.20705868701997787
,0.1586674356342131,1.0569540109460944,0.23702605958451767,-0.12734031683775726,-0.36339200144209666,-0.20670769527126442,0.06762363797539019,0.1548850270922156,-0.007586375768769486,-0.37626802245921065,0.2808087396834749,0.45551040579610497,-0.32780131581613403,-0.1460423849206456
,0.21052534851918264,0.35170233591488903,0.18710007616309318,-0.0008865877897450416,-0.49801615481238626,-0.21515155174980596,0.25117456568240776,0.0840493146434842,0.21517956567221158,-0.22926722396189242,0.3417316239339887,0.40624849316271455,-0.21652511321617537,0.09544121535120181
,0.1692558852463349,1.1899869005540915,-0.015392773841213396,0.4330022347759081,-0.4529714955442237,-0.1082688008604302,0.3047620846803502,-0.07061608203117918,-0.02070509160795185,-0.16721490191982002,0.20945914577595365,0.18350993711635727,-0.35892178564897226,0.16284026269114132
,0.2527203081827078,1.7216667687766514,-0.04113884030986794,0.6916383276668504,-0.20448818604852448,-0.30414036876090134,0.25336053116419954,-0.06929183530486419,-0.024471937438224414,-0.15484646014837536,0.25646147845174055,0.14314819651873645,-0.14513954992538233,0.29804346241708907
,0.12777039795752054,0.9757679814118828,0.02949323447315727,0.839778625546248,-0.2521994867738767,-0.46375781898396684,0.5527782875746579,0.0846160453151617,0.2497447852320268,0.018105136563888662,0.6199292685149274,0.22559335322207164,0.34544476305153726,0.3002362315800028
,0.22003690531734407,0.7720078383507938,0.08972887980895566,0.944477012541504,-0.358863471859429,-0.2402393740997484,0.15319845085706493,0.08124428982734455,0.22370723942983498,0.07030045361933589,0.6601020979093721,0.19815610479831963,0.48440388101358023,0.7819375290524331
,0.4279776089133493,0.7052466835889599,0.0485611048801701,0.7403965505445982,0.03904115260683126,-0.1854886025729066,0.03225142733791585,0.061758873824492085,0.20776662527639098,-0.013906311926364705,0.45144529675052136,0.26730835991251706,0.4130688472527974,0.2777274323226353
,0.0937450578459499,0.7969256585442552,-0.01798560256708984,0.5512519573940212,0.3427700195663329,-0.09550615440517445,0.1445124053449905,0.03519860566854428,0.3149225449792713,-0.11478361233137271,0.25113447650395954,0.2397991992891671,0.5858206451317626,-0.2925687578811247
,0.2488323848200446,2.474852136478705,0.1700258526347299,1.0026001581745825,0.0675574236321743,-0.014419297464355656,0.10805452973564036,0.03926604069381636,0.2512853557227584,0.0958996470626738,0.46358718519665476,0.17679761928710463,0.23845965415331624,0.12898005747123678
,0.4592508082325262,2.1043116194849243,-0.0024174883933519705,0.8628005694962995,0.2727925484522846,0.07876839897974529,0.21403387235481897,0.10521654498306562,0.18065296904963457,-0.16586842218503803,0.48027096367415634,0.17963711056476173,0.09836260468993717,0.626709431502197
,0.4578857461856793,1.5256110582520137,0.07679050613448184,0.6092459364556192,0.05204927193456748,0.12083037397974847,0.36836372433867004,0.1656563504450357,0.19915269958996204,-0.2804859726895187,0.22903199761769474,0.16193397443922528,0.14599869369706778,0.7519336383528066
,0.24881307749577924,1.1989710289108264,0.260266329062243,0.02890478947681907,-0.30815800828379614,0.01618552152453984,0.30370607728692,0.13278303782109616,0.012815332400385621,-0.1755650065064575,0.36450267187127844,0.24103443499966778,-0.15754342385776654,0.5815400585278093
,0.30842568365495193,1.6656451787063191,0.1449932686296455,0.04580339493568085,-0.24210960294264688,0.06131466892365399,0.06533724578123551,0.11913251260442706,-0.020202293216746655,-0.028331406083247808,0.5995138788958493,0.2532857679608052,-0.2897539285054896,0.12653168227975983
,0.22564716286080225,2.011524218336507,0.12706754710054388,0.409222113405582,-0.34109741948051253,-0.08870359407196224,0.0769850770395499,0.04321098736274479,-0.022431033712597907,-0.29913716108555705,0.6277157033756696,0.22873180762279044,0.2364789402335495,-0.32052389363157435
,0.36571299358370035,1.4136260026074603,0.11237208929733791,0.21203496900258686,-0.24597582342047175,-0.2386160948894156,0.04924651936631548,0.24275207606341068,-0.046737515543503846,-0.2166461824863565,0.30122058634986587,0.22705674776499546,0.4181155886611489,0.024106413848492242
,0.29301835499372775,1.849311474788524,0.06376037071416217,0.7396822698331946,-0.20838932935810872,0.015152445040380711,0.22319479848244683,0.2610531416003812,-0.20569589612584,0.19034649575269774,0.16170333474664159,0.3401173876498241,0.0720318134701799,0.23362121129894015
,0.11217525962926804,0.8928534413242403,0.022005685787007963,1.070266773515388,-0.16884955259447756,-0.24317439766250404,0.29423761540686166,0.0906730767314147,-0.13910125444888222,0.07926858798087301,0.26375349433924755,0.40724780356469875,0.2567509978244342,0.19729570483226275
,0.19663335464535844,0.6145164272358332,0.13510619025810172,0.8816799543204699,0.013289775711383258,-0.29362107880515265,0.3093481578995565,0.05446770058994007,-0.016423005102738142,0.06840621327536166,0.20303970645328465,0.2915398824912851,0.35622624154585986,-0.08565219130002365
,0.3011421502570888,0.9388757032435693,0.038160098081978296,0.8130745555813909,-0.06289154928507713,-0.05136125550847858,0.5212417309503662,0.13767928494630302,0.22427118536155002,-0.018226281101716334,0.25310767948820506,0.1931736796311704,0.2761496771812844,0.2140022804185258
,0.17400467702018785,0.6285838449475151,-0.00548094494170307,0.6389373889120218,-0.36612294617931174,-0.06237770960504508,0.5495094219909272,0.0796675375409373,-0.0943318784052705,0.09872182274017692,0.10204142929233014,-0.034829615131828966,0.201543658749458,0.20034471714762503
,0.36723819100088756,1.0813578377700377,0.11744983834652806,0.38647705955340617,-0.41347339045096343,-0.17968800835717774,0.6712548464355542,0.32348620659356037,-0.06015659497602367,-0.1536786809582665,0.3510869059960445,0.040089788538889955,0.09197492260402614,0.5082583587228935
,0.4939545575566586,1.0669596533583923,0.09604682854248484,0.27788421022088955,-0.13209335114695103,-0.23549164235747505,0.6566729009102261,0.2127247036192306,-0.04401088701584138,-0.23789335097777423,0.441117514726886,0.2358968117595759,-0.055760309269903004,0.9290196518246344
,0.3606306995747475,0.7503687910973792,-0.12155851705952797,0.47140319741835474,-0.2810984090078405,-0.24175714887946217,0.6355867049053472,0.1306613140686086,0.05969828468509384,-0.03037573178621148,0.3608494929946239,0.41746454499272706,0.26019221354132804,0.8138363883571843
,0.45821390693684544,0.769902424122272,-0.04588113811935833,0.7219044776565564,-0.26879018209595285,-0.2938102372523053,0.7194567031157574,0.20706323723068787,-0.064402196886063,-0.07678080897393993,0.41180002201642707,0.22878366710517015,0.3331341344486452,0.6389397961712274
,0.30246831050198714,0.8680465310877848,0.06892144063193632,1.0191638554501183,-0.19613757065623685,-0.24702397107173416,0.7309704773809992,0.18467030047291616,-0.14141682682317433,-0.28953235120952636,0.41219066037618746,0.1895596697835401,0.4337752249198593,0.3000979871385155
,0.19164822378417276,2.340187446384674,0.07495038566669485,0.7678479509345378,-0.19510699513241997,-0.2529557150972356,0.5316972446670222,0.32934020656579227,0.10512576717167205,-0.08601252593196095,0.5110744727812154,0.19193241308785625,0.5961807980485843,0.2810604649207015
,0.19680816495714662,2.192645970724488,0.09159200450679991,0.44459178188540494,-0.2936342659148091,-0.4663233003301435,0.3923065839531641,0.2084203136525623,0.29792843597925,0.058779479999941465,0.1953386020531356,0.33270459760347887,-0.05765605538595283,0.27550697785567896
,0.5337184256480227,2.022363425051755,0.08684650306501902,0.46489826074109664,-0.4131489999849396,-0.545455877831933,0.42577002460148483,0.0717732865302539,0.3221953621138153,-0.07905992325408734,0.06955364061658545,0.268785895914728,0.021961349017547857,0.556146860861149
,0.8165412010891009,1.9139207095652186,0.0462841045199069,0.36095107386413405,-0.5504173361834304,-0.17698961782374178,0.15002436038200193,0.1282835490488379,0.40847168112718046,-0.28936725099801375,0.32583324979925105,0.13562660650417313,0.09108091532585819,0.5476373543860971
,0.9738385338787087,2.625863824353991,0.007092001819613229,0.7038156494282186,-0.24305769801649527,-0.25440446318570964,0.06020228427798748,0.06767610507139765,0.08522994529482175,-0.09606963519125035,0.36233399602093747,0.23516548254824934,0.3308233565468408,0.7624068371520177
,0.6528272770994542,2.8178602888005626,0.06036587197327689,0.7341489573388966,-0.1148638554491029,-0.26118487994085265,0.19481176545602918,0.04470941239822339,0.05272342983784791,0.044172214804250425,0.43050341045301593,0.29896802716781407,0.3599956288140795,1.5617378931479116
,0.5641128505200109,2.506172938469403,0.11569552433841264,0.6727844807175714,-0.5238144677354423,-0.4602504446741572,0.22403770149795918,0.1435393399147774,0.16207162445864987,0.14685008015759005,0.507451302966058,0.24538890729742618,0.2315563316817164,1.1417607977992341
,0.5402692264951214,2.4195052588186323,-0.06323595260952311,0.8749004882291103,-0.7945828207117089,-0.4418626575829185,0.30377239828701813,0.09726731771678382,0.21650489117849223,0.29723382540130405,0.4127159986942534,0.35558183654348163,0.43824366892292943,0.8687268581500321
,0.40858228326859336,2.1138495236104258,-0.06495345057380184,1.3807662357880282,-0.626503399484288,-0.08274486865741822,0.2710390391286429,0.053283196734971706,0.41298022971575843,0.3601086128000803,0.5962923374513832,0.30461812218483403,0.4501836828344739,1.3472599934807994
,0.4924901724849701,2.6227139706586966,0.08024019036368651,0.9031911124959469,-0.1063621830860512,-0.07797099495078279,0.3029564396742461,0.18230539726279135,0.13905678162243945,0.18326569218533748,0.5890810343837495,0.27541428581150784,0.5185983203606227,0.9150753430435179
,0.4287362866781294,2.846270793405053,0.10857639058318257,0.48980804486709645,-0.3190620812083854,-0.11330599135064329,0.4514421019904914,0.25323779191985235,-0.09545329628069536,-0.05715870130183888,0.5162965192889999,0.16001197055158348,0.5772098178014046,0.6734292737316934
,0.395073138175984,2.046726740253275,-0.1832877132055707,0.7190628745775821,-0.5668385640944832,-0.2738454926645699,0.24599760551566027,0.28633710217646496,-0.017363754508130942,-0.11092775177654103,0.6520653297326223,0.2754336007949498,0.6892935379056759,0.943974280575019
,0.3434661850766249,1.691774566657533,-0.297671420894578,0.5817176946814061,-0.7167033109392323,-0.21240654302478534,0.08707770956874561,0.34908729563470425,0.029446654830711766,-0.07946408054746737,0.6136839839700545,0.2500841365662772,0.8266402222000961,0.6765089678995362
,0.4154787200443703,1.568655401819852,0.024517599038183475,0.3930993862992669,-0.4569767735595829,-0.19485020607212897,0.20708469009694253,0.09709099301490526,0.1526587687552154,0.041137237638130486,0.27220449024682036,0.3286935349867991,0.6998920373909913,0.9738669912024998
,0.4226906140669657,2.3276074263902684,0.24822935183492012,0.6317072406716464,-0.23073349776414825,-0.2478845193354077,0.43435751379990484,0.11538313833745557,0.21524646897460017,0.065280922013697,0.12462430360198933,0.3010349547151652,0.6049869773078551,0.9753555377330007
,0.37098278217268804,2.397012462185421,0.007025146740920864,1.080387412213705,-0.01256656513230128,-0.15007501973422482,0.6007119224177294,0.3095746162394848,0.30932675278020166,0.33646586702113823,0.21154773781927788,0.2358962338138056,0.28447983619377354,0.45326812117361087
,0.42792980054573304,2.123552593057665,-0.0106830498348373,0.7974571486848643,-0.18375373072536258,-0.30599800657283477,0.5647137684591601,0.012906180433229587,0.18830595329834582,0.3727384250275123,0.3807517119168813,0.41549387840423163,0.2879083008622366,0.7161810604046541
,0.3878737638028888,2.2158570703226426,0.09993261181507301,0.7840049910483794,-0.3457761854451811,-0.10323461006045048,0.34002814952659466,0.034949648294494526,-0.012757015386249886,0.24519884303353132,0.639911784849369,0.5076491930569804,0.6364922842621632,1.0485802392701522
,0.24934739080598856,2.9936949342780066,0.12281664038162164,0.6766083225149012,-0.41550065844851464,-0.1960943901735629,0.20045113230861494,0.10537853915778983,0.2675606916841298,0.27787573188703374,1.0065040491890156,0.4364272445021917,0.5606998081527002,0.659346599226714
,0.44901824736090123,2.5440969143481444,0.11711542589180575,0.710129831266135,-0.6149189679957932,-0.418748777339469,0.21089746104816057,-0.06031682083557473,0.07205210325205401,0.21928597860870436,0.6290350654273085,0.25341919382245887,0.2806845482147956,0.4783587573704633
,0.4587736336502597,2.2114957683930467,-0.03987878022017222,0.8168401093731613,-0.4174261926356926,-0.5128978842374419,0.3276780972702228,0.09198645827256477,0.03847193051872828,0.03678700260069027,0.3460368600721589,0.2531393570246175,0.05526382593766314,1.3335736789876793
,0.4687542795790979,2.5060363296008057,-0.14152902735194434,0.7343606677657092,-0.1597583883547001,-0.3426829454559929,0.484726814023076,0.10446929240278212,0.06583495400196046,-0.041645707286076236,0.5392878222400382,0.2060570900743546,0.28830712999782737,0.8422616939803901
,0.5414971211953397,3.246436231404911,0.01681051771994122,0.7413586145391658,-0.33361780902212784,-0.2585804502713724,0.5769256633958932,0.2427967422293178,-0.001315741435311691,-0.08082994802877284,0.5282511501703687,0.35719033500384767,0.6448850019427543,0.7403685698444591
,0.3163048166568188,3.736235973834575,0.055532626342730984,1.009410004433899,-0.34828295244027274,-0.40130692212776325,0.5712649296876782,0.37036378167686357,0.1637082284561465,0.1047576340326861,0.4317649411705638,0.21398978769158422,0.263474843336173,0.6737619540242564
,0.4195558906421216,3.446831919557998,-0.09299774011174225,0.9557576829622747,-0.17044542852512737,-0.5181782055785077,0.37292333381305537,0.4781506490614975,0.15403213993470466,0.28369077875936893,0.32358265991509644,0.4372108273033344,0.49683132843337247,0.8865757266275194
,0.2625955686166029,2.2037324240098215,-0.1315795204151983,0.6406443105240054,-0.023207657285843463,-0.5750074151507075,0.2922150590318662,0.30513435800397604,0.046720628767575434,0.20725294161056748,0.23349572645908387,0.1780960048760968,0.6109391203892673,0.4898829172609114
,0.13936278097300492,2.1871082005942366,-0.11050672094736241,0.48771838317035904,-0.1201696055070742,-0.3885432097462473,0.2700493576081524,0.223387844720227,0.10227430318495495,-0.012710444537353325,0.40184612604869324,0.1468907362177634,0.5207252244626664,0.3021043820232035
,0.5331951767583152,2.9897220125603217,-0.031008860459564136,0.6082276479314764,-0.40007854109851787,-0.39131867077948207,0.13522749727976485,0.1907970976386912,0.28012520614320024,-0.17325870764545562,0.42507968951275155,0.12567692170768352,0.2399097875320995,1.332210901449564
,0.7966505040121259,2.2509199131632887,0.07459112703657227,0.7067124700178625,-0.309116278507555,-0.5457530464196969,0.3038526097768231,0.20558892939762882,0.06789078930670839,-0.10623003496103527,0.3027316981036115,0.132591986234817,0.3663044796402926,1.3438439919422034
,0.7934200289577527,2.086451963024474,0.13675603546693357,0.7916143917547044,0.0964610318659495,-0.35615492299143775,0.31941936610538163,0.36252283979919353,0.16974858764444045,0.277779758499203,0.5888856810171194,0.2922238862709113,0.6373215555071351,0.8432566595717488
,0.7400401444286574,2.214021329309215,0.08810411796853304,0.9355359929040229,0.23012443643075725,-0.4312439317972934,0.16670226315915299,0.3385126021573375,0.25231885803792553,0.29649711795536043,0.693697170749525,0.3386711203919534,0.9439910224007936,1.0953449102200772
