event,eeg.af3,eeg.f7,eeg.f3,eeg.fc5,eeg.t7,eeg.p7,eeg.o1,eeg.o2,eeg.p8,eeg.t8,eeg.fc6,eeg.f4,eeg.f8,eeg.af4
,0.20330957861856327,-0.0011369029553298278,0.04195670608508003,0.46769850787298217,0.1614771758436882,0.0701506997359502,-0.08124149653130083,-0.1184526997513281,-0.07544498817942405,0.034925783306965066,0.11589662958587302,-0.12676545699631228,-0.10436054512571741,0.2576319348995279
,0.06991803257176997,-0.1661656926895252,0.043903422511000274,0.3010123172907771,0.3077081167187392,0.04581179116723327,0.06074827382552626,-0.06354981383498898,0.2983205462820862,0.048203605290832986,-0.09925249080929768,-0.06440029135902753,-0.09335862091971125,-0.09540284126383905
,0.07851465713717266,-0.48584108569914103,0.13485999056112472,0.24913485666043114,0.26306976396780263,0.0592602169465807,0.2900639328989209,0.1579125286691669,0.2044192650968825,-0.07721888804247631,-0.20904803210051442,-0.074519265654669,-0.03904726703517164,0.09838832207653626
,0.09690270824902583,-0.4449047004072374,0.10531244922061953,0.10967972416772935,0.13134539458995118,0.14873821699317064,-0.012318614112658817,-0.03035919515018204,-0.09980205107340494,-0.2903314852327514,-0.4456266417672125,-0.12216235468473777,-0.19976316580368453,0.3344798063047323
,0.21243336267792198,0.25419503853452735,0.023515958799617317,0.3347239191452076,0.13799703381566167,0.2687881596601227,-0.04746109886866893,0.038155710255837624,0.013266196872174773,-0.06701568788353386,-0.3520654955181879,-0.08145086248375925,-0.0011678300393582583,0.4444018730634705
,0.2042548502297565,0.16090590951622288,0.10216776394480397,0.5020205742398304,0.152665937651592,0.22154984393381885,0.19028496375368953,-0.07950346470942812,0.19068746331601852,0.1947497089544495,-0.06923562940357705,-0.00716357779556275,0.1960579463464929,0.5012420954519967
,0.21476457894538614,0.19647550828750712,0.047534337658877795,0.5410893345750597,0.06798306997801158,-0.02148877948388509,0.04092501621786033,-0.12810223344427693,0.2068531437140853,0.5170837594567897,-0.03555725014895082,-0.08094522154635657,0.08855351675532336,0.6330896092416785
,0.5166178015458975,0.3190646830929107,0.09408291690955664,0.6057676795648329,0.21200504364759873,-0.05416134077357918,0.059541758678205506,0.005638812846989328,0.10252104598663153,0.31435498602970596,0.33355215956183976,0.05717540991854809,0.3043441883560215,0.7401378141457241
,0.43990450458209673,0.3120540188262674,-0.07240066568359232,0.6040803881779244,0.22948550901875284,-0.1551340783309098,-0.036862289587435496,-0.06808164795599603,0.16273985288364637,0.06532035958216902,0.3024739026791926,0.16233621686810662,0.2866719521078143,0.681385491492337
,0.19752142394439545,0.4810986802622426,-0.14522692351452396,0.5492322269201311,0.14336084467497584,-0.13311230116033115,0.10167926435264027,-0.0236969736652516,0.22978615037590905,-0.020162878680615302,0.06905125476818216,-0.12498660099684883,0.37715982432455597,0.9577695059170654
,0.29926276657524015,0.4907909205501491,-0.11115410596247347,0.3705098226887899,0.27751211372980067,0.09146057225628074,0.09356708812615899,0.06582332037901592,0.24067950580267541,0.019500657212938623,-0.056332230602430686,-0.051390137553468544,0.4122442052973685,0.8954788304576808
,0.4873397138462635,0.6554936277665357,-0.12293638255668922,0.3903572576956452,0.4054346086558659,0.10692874884680893,0.16115203600308364,-0.0494443098408339,0.026711726484663634,0.24489586965848464,-0.052575462792168,-0.09078359702849413,0.40501678038326494,0.7825675966545299
,0.6679009540612582,0.7909375821776389,-0.167188464383787,0.6194461267039344,0.4884963251678169,0.2768582434324102,0.037077943117403506,0.03955045668577258,0.04753469554004643,0.5325024145384007,0.10993837914297769,-0.05612828087730505,0.5080792808827117,1.087340496747225
,0.43524519107954923,0.8944483462062489,-0.11195717752259389,0.7050062462727408,0.22085374204934083,0.18518585720197336,0.1846662228006115,0.12720109992411965,0.038264307743968565,0.6179340851576327,0.1211060438188419,-0.0834484874068003,0.935187656786515,1.10077112239164
,0.2984895133548798,0.5777436605690595,-0.19183361823300982,0.5680973971385953,0.1600530547470984,0.18573256729568274,0.2564393973559285,0.01060936083586129,0.1602289173497776,0.25605598630041154,-0.008118038723008106,-0.11902043178728829,0.7106165849847564,0.8506525896009668
,0.4472651942008006,0.512175321261713,-0.03336024018185028,0.4197424134523961,0.21818761379166343,0.2916554945333294,0.1319684933707608,-0.02937029072293193,0.3176206286586726,0.1266128677956981,-0.07984049070209924,-0.10550055734578571,0.363747155513823,0.9349588007883588
,0.24358239087350558,0.5271020522048846,0.07471867194680443,0.1731685250551359,0.29952780254634537,0.22074181282348176,0.1286984331290193,-0.042130215769388246,0.40879306774264423,0.12574312059379877,-0.05718302464168466,-0.23588093240434574,0.3139859791198803,0.8185678726661249
,0.19944601397642028,0.7065534895265136,0.07563503416975244,0.45070695403040556,0.26981468815368864,0.21834165610492362,0.3403946290536125,0.22404562567953246,0.3007901367936358,0.3930091948516498,0.11176917873623561,-0.1985937261489418,0.629798347959594,0.7172111077384924
,0.16018638114499537,0.3234430814418634,0.1420868192272366,0.373994802810476,0.20445010481092638,0.28775335360111026,0.21479926110425485,0.17129438400506716,0.1380723616673145,0.30193967298184593,0.09452291273653594,-0.11192002424463902,0.6946180467882717,0.4229838408872577
,0.19875305550397507,0.21325653432304478,0.17507726078569777,0.27207986044820015,0.338377964308672,-0.03224703080222555,-0.011444202767472987,0.03569563784244115,0.03025264533312843,0.20441687194363856,0.22842314999639451,-0.07777976407332025,0.6674432895326401,0.14488761115363255
,0.2768016475836901,0.24123704011636846,0.19981932255086932,0.25677289226488587,0.4018127306651478,0.1392073218951144,0.04428044075462686,0.1286940553378849,0.01177007020999445,-0.04734441547046831,0.13391622384685084,-0.054221866015413754,0.7340791423104724,0.5514751681015898
,0.24600333044953657,-0.29060175019008266,0.025267860353821257,0.32971070129396574,0.2815908881417336,0.3430072416226225,0.14702247700064686,0.03837388667443337,0.14111106049928954,-0.08518825891623517,0.07697990574741483,0.027967688494128024,0.8294652048147104,1.0477133466883073
,0.41075018357925547,-0.55265971313511,0.008392689396866201,0.48379119708457696,0.3060189665261624,0.19606874650036324,-0.06840696059816176,0.06055558316792943,0.3923663187331793,0.31980569318347796,-0.006046803068723771,-0.06925018780747308,0.5485696855293765,0.3998494296491255
,0.350310243278727,-0.4289090115093956,0.17366755960322328,0.2764935215424592,0.29454119991227024,0.07930045803529594,0.018443957277218415,0.047559554317127994,0.18160004082991962,0.3429813815183854,0.0064599542512974294,-0.26895921530914113,0.25556888706355024,0.5586287174108954
,0.017878312222145885,0.06619727197204717,-0.035772214804667024,0.5020062585234891,0.41649934416408724,0.03909955853401086,0.27267270270839206,-0.009710384188376378,0.12823742369940322,0.1630250339594871,-0.03926621596677268,-0.10057388209992398,0.17097402883348498,1.249736972879253
,0.04762584275752661,0.596200826241282,-0.057342194013345796,0.48216263459833403,0.43194524791639183,0.10128136502713063,0.15804086891273486,-0.15528347699371065,0.18725309097782494,0.06425648410119213,-0.03931209164679172,-0.04704698805884044,0.29671621851977803,0.6941088484009763
,0.22946112975926833,0.09807720004994035,0.08070924018098408,0.29155336388851716,0.25699564778222994,0.21193668399993448,0.15315585041982405,-0.08705405719177464,0.32122107804731576,0.02898111392719352,-0.128731233456537,0.015110700555492752,0.4277487043332695,0.5681611659730031
,0.013592513049156088,-0.2371829475358214,0.052816548673048795,-0.03400392669505919,0.26713131670641055,0.046709343158035405,0.1883585770749608,-0.09374420419074837,0.29090083872475914,0.018167093393659895,0.07052867320356064,-0.09488598891245831,0.4142067701096083,0.8031353451722105
,0.08377220252276846,-0.20726600580865975,0.05501248153154531,0.08989680649893078,0.10570221437956452,-0.02014779608680343,0.1388971103807825,-0.11137080694655667,0.2626209638310984,0.0727657439141068,0.007468533441459875,-0.23585726489427267,0.33564913356163545,0.6953688483835907
,-0.009665709375952798,0.004169217760318146,0.058409292224349915,0.46656474570689227,0.071792828777767,0.041059248263987165,0.014821890259170318,0.14096377785754838,0.0958888951740649,-0.016601533312458627,-0.4950511738346033,-0.04753330788330807,-0.08527911842706089,0.2589933774806354
,-0.11467167908536958,0.09969856956526965,-0.00250812635438548,0.454458014078594,0.03939597768330499,-0.05454093829591441,0.10633975560794749,0.16534340341151152,0.09402095765481788,-0.16137769144817485,-0.5512554470799346,0.06801425735893521,-0.165602840180249,0.38626192663043035
,0.057035044084532194,0.6989083893737529,-0.03596825473598314,0.4706443285654348,0.08709000762140454,-0.10986513319880517,-0.08489521523133081,0.07366532080992369,0.05290521625513813,0.05258777434808989,-0.48766546921826404,0.01358388061959718,0.024843120603196257,0.3153444988890196
,0.2695983998482826,0.33615698052501114,0.04074572730773032,0.2900589051710724,0.291410113935206,-0.2138763715603249,-0.11104278321642427,0.14998275465550578,0.15405976613811617,-0.05118765866580198,-0.5691776704408947,-0.12825047833563114,-0.10343713805242558,0.2862160491893868
,0.3953883302713347,0.08821585442154982,0.12267422859137873,0.26673644309908584,0.25478706447039917,-0.029735227409790517,0.19612991138367686,0.3427183009521869,0.16569244506594472,0.12094098299087357,-0.18376472677804212,-0.01991580362331337,0.011364590744250131,0.7427959593535188
,0.27522606669193944,0.5606168143467575,0.1400184842404042,0.0300849596659738,0.4849378094631446,-0.0037787775180406647,0.013409167981144545,0.14241053831011544,0.21574590984299907,0.05542925748934708,0.02913638342757164,0.14985878125470492,-0.10082201643224992,0.9703003949531182
,0.18907961923275945,0.3341370801300154,0.23531428259263945,0.2031415834209042,0.37146903314557517,-0.0538418560352952,0.13653293878215267,-0.01305885421915327,0.20937536752282818,0.07022698680209338,0.0722329385553525,0.08696288957500779,0.25201322867296516,0.4791951637216071
,0.2343559836100098,0.35470808465054393,0.22279726713001596,0.5012615339671265,0.22290524574326015,0.09630495266836,0.23566954389181433,0.16063580004448003,0.4514770310481877,0.1386756243050095,0.1374130031208614,-0.06985528682862947,0.9008249218286323,0.47447813728747407
,0.05562976206448711,-0.08365754806601748,0.12875629041635753,0.47577106840275735,0.3164983387166731,-0.08099093745877038,0.16368746138065243,0.19523754737637072,0.23587059096555907,0.22005123408401744,0.42664532144752104,0.002166840644993103,0.26324649084115065,0.4699680139482005
,0.055835100964792814,0.06016100083413798,-0.022142175617239374,0.24139792687381859,0.34983614527063966,-0.19273194098429144,0.13465300232127334,0.08274108786453879,0.05625119928350481,-0.060908201063652447,-0.18398433542756215,-0.25299930939118065,-0.1420687913839622,0.6187376256959857
,0.014139192442104835,-0.5012957006442905,0.04748257159741622,-0.01357492793988147,0.10015326063376682,-0.1621783724155575,0.1559599837689845,-0.03592565509931114,0.224114510154848,-0.28463610018780805,-0.5272257132017574,-0.2134015268311378,-0.6292696530888464,0.17954328191766947
,0.061842718428259134,-0.26772034530754346,-0.008085019525513645,0.2772085144353189,0.14640954250840743,0.028820678523581122,0.06184173648283721,-0.023108600001128472,0.10539481439670781,-0.0631180942087662,-0.23350788408945422,0.06920059528916228,-0.2569115954921258,0.22864497322955837
,0.19790750810338112,0.27781045274954097,0.01830816520958251,0.3130722749012814,0.17203709746175933,0.012538942461353727,0.030450458151070253,-0.14316278705173022,0.08320711800293684,0.06060834383306784,0.06182403540745329,-0.022917179053296863,0.4109612451015961,0.2619011477365733
,0.04756356266079031,0.07425294389010866,0.11524574715214718,-0.10781399293058365,-0.047454312057095806,0.08158111936654559,0.034562576470164266,-0.042060629741887054,0.23032912470457628,0.02622962857051741,-0.6067127253895551,-0.02429411620929373,-0.15894702714883022,0.00552181876565869
,-0.3348055577852924,-0.24922793904119858,-0.12224058280867323,-0.5746022082123425,-0.24055543821373382,-0.10044618459247255,-0.08823502173788245,-0.10816915354708558,-0.07787068865384028,-0.31735137238911815,-0.9379607919372878,-0.2860490014009309,-0.600719567030816,-0.5775115036143628
,-0.1907289624911674,-0.23221741894068534,0.007981731724335086,-0.34113754666800633,0.15096280617448,-0.011842367847121511,-0.0975396844056189,-0.09824020994612623,-0.028205012242719034,-0.13662792033489915,-0.7570608695801818,-0.21669289277548437,-0.1373232016202008,-0.1847122178783921
,-0.12674594826361604,0.051525067967969115,-0.03814470360884499,-0.17266563647562963,0.23721193322060058,0.14616617806241194,-0.18693573780356834,0.08958330264899651,-0.023114809402388862,0.2740817807013122,-0.36921294060471715,0.002859556468562491,-0.2872054986869589,0.16588601369025321
,0.14518084471772016,0.460501984180229,0.06958995042754665,0.062067490494834,0.24521501367007795,0.30400734252927236,0.0019865051904770295,0.011211094957775005,0.2752598650676899,0.12668325530874788,0.12320626221886412,0.015046487723036685,-0.12797946471975977,0.45713844864832803
,0.1416585921913463,-0.2488486578256917,0.16169950172570072,0.10879429013038977,0.31588778462703837,0.1567508027247661,0.1834773972309532,0.11450106035858851,0.17192507516652153,-0.0518368624921905,-0.23665784527299333,-0.08682461903389757,-0.014870176428448848,0.4545027491941967
,0.03823634521744328,-0.512404741148621,0.08461193035558033,0.15965026473999996,0.10020426002597234,0.19569561988557546,-0.018831755652158232,0.026551568207414618,0.09100832505427142,-0.026885355808104177,-0.3878860254739078,-0.24505353311139197,-0.10988090616104942,0.15311944099056946
,0.044170211624508064,-0.296640184317312,0.15741983465842732,-0.1257445915991135,0.03378323616643335,0.20263196282130197,-0.05689485590214747,-0.017827613201667813,-0.04941207293671498,0.10907561652338083,-0.22187173532741356,-0.24350241638824274,0.07413415664075367,0.4172701562117308
,0.06657918463611834,0.15947551232483587,0.09813748444231869,0.10176883572386879,0.0568019949490327,0.18581851306379085,0.1758463350037372,-0.09432588402344662,-0.08265799291278293,-0.0059546525567603665,-0.05248346618889809,-0.10114999015281861,0.466663125344692,0.30659704829591583
,-0.08889579183208489,0.28796796055607515,0.042413290168656644,-0.10745265958072801,-0.022117968804393134,0.07153504652526141,0.18105291003999435,-0.08344971224133522,0.0006945707995563217,-0.14914871757962112,-0.2868837105362467,-0.028128212659158866,0.09045926698650628,0.08241998625180487
,-0.2536719592611874,-0.48607874105540394,-0.055821291640919,-0.12215978566010935,-0.15611015843494436,-0.08954355989212498,0.03457047914538633,-0.01706825470736029,0.12528623867526376,0.028161609808944877,-0.5217115514885364,-0.16921574352598945,-0.7876556925144929,-0.08285179389116241
,-0.37179518838173287,-0.6943632271414217,-0.06783187322246825,-0.19683102988195883,-0.12521997105960178,-0.1304869299677899,-0.1083965668855543,-0.13741757191237755,-0.14334803469909674,0.04782901465623519,-0.5519664267010311,-0.28831310915248026,-0.7632080444376877,-0.29594609306092984
,-0.28342393068984,-0.6454695566242228,-0.07893610760746622,-0.2587399951558961,-0.07242575152700138,-0.14821683211136144,-0.14228257975802497,-0.1868167626828629,-0.04840322664489854,0.12141387409426824,-0.39626039191387485,-0.25524135179152585,-0.5882115070041269,0.041800977434362764
,-0.189302841029104,-0.996332449279316,-0.11440501249177723,-0.413430439638797,0.20170963081391943,-0.06468579483097117,-0.13526121950848108,-0.1053489441508677,0.13286277967244622,0.08894074666630959,-0.6189111026419046,-0.15129479806285603,-0.6954043705027104,0.10697184040752367
,-0.08569972976099811,-1.1435059341996212,-0.08114651065633108,-0.26172234985495174,0.003531270040018254,0.17555039935222266,0.2003003464847265,-0.03170759336566991,-0.07202880896707148,0.05980749275742256,-0.507737693867207,-0.11845132146498971,-0.20877918948876636,-0.04010149861371611
,-0.4672002301354874,-0.7296099717283225,-0.20240803358639026,-0.2346139552863384,-0.12180802141561839,0.03950405355774414,-0.036719417868412214,-0.2627499820605889,-0.3014894623087269,-0.4504189651606034,-0.6665480506130662,-0.1580523130077601,-0.34607349394027637,-0.6066984915273801
,-0.3452232468874377,-0.11065442731180358,-0.07801936341534987,-0.33936543997222707,-0.08785268743744766,0.06776798833434644,-0.07431227150570381,-0.2814176858989524,-0.2608591143480658,-0.40467633672426945,-0.6050506077646093,-0.14020254194825557,-0.4021338899382043,-0.2917678796757185
,-0.2734766629140144,-1.116598869992156,-0.12612376831460964,-0.6025414896508163,-0.2319252363105143,-0.21611537838180878,-0.0888428142179586,-0.24633089027546318,-0.2434010571848112,-0.39958300378580247,-0.7652415193112766,-0.2459080419921734,-0.9976712125560422,-0.7020737909930164
,-0.5384663099097393,-1.4818826097745021,-0.33724667651162604,-0.7926555635079839,-0.3243771751981308,-0.39401453627069805,-0.2355541724939914,-0.2823336446340702,-0.31621252506374686,-0.6153125768936216,-1.0404555710760037,-0.4009819430746756,-1.2677264589763182,-1.0188555404400796
,-0.337403106987311,-0.7633210123383226,-0.16097735302974844,-0.4499793079922792,-0.18273760257516355,-0.03824847402608146,-0.11904801073191233,0.006758705895235524,0.03736338479333513,-0.26598357463500516,-0.6756456170860251,-0.24099626394196072,-0.4982889700763198,-0.4722576164421954
,0.011701568560299263,-0.3548117431101943,0.027185955711998073,0.12395197362592497,-0.007554257288828838,0.21816228054773393,0.11705471965009791,0.1561086279983727,0.16861619812084566,-0.0898068792860196,-0.17064127407394958,-0.06124471671858658,0.2042478525258502,0.0024666942482863435
,-0.07854759696713456,-0.48806455850906155,-0.10804393522846475,0.005722463898731543,-0.16197896839414355,0.22070399687826026,0.07106064896100514,0.05620170137477566,0.03960550003570945,-0.18921403100503592,-0.22921087916799027,-0.053310689741314775,0.1859227241759408,0.06510442241068705
,0.0887699008135227,-0.5755670399900942,0.01678995295931625,-0.06455451975731291,0.07828460450710915,0.11660561315701151,0.24793701538960314,-0.11171921718967084,0.06365911456013422,-0.036066035747955257,-0.3046506505171178,-0.07388887792771319,-0.03822656580144988,0.44374979611832027
,-0.31671378384827936,-0.9236640429854464,-0.06604004907058493,-0.41845933581182954,0.09233108498576133,0.24403627333632086,0.14271861190399954,-0.15886411693704203,-0.09775831768005806,-0.21550987973246852,-0.35120545550691756,-0.18271014601438082,-0.2855581691660608,0.12667736454827944
,-0.31359237819537766,-0.8360074252689644,-0.1553196788593833,-0.43250763924710284,0.07397776835801707,0.0706582044072216,0.015751754325699596,-0.11532697331212424,-0.06210236252254587,-0.23927547067432406,-0.22677366178626646,-0.25770424213886706,-0.30048672661922254,-0.15381919314230988
,-0.2113796042180739,-1.2563287490606014,-0.2215842607425695,-0.6467281821486509,0.20689534250725233,-0.0729401773860461,0.0828266189760932,-0.1389167800124365,-0.10513183828409592,-0.2940156192267519,-0.18842451948856848,-0.29950137913493496,-0.16027385298298719,-0.13153155498392238
,-0.23055036684177682,-0.7877300645003126,-0.045388031696827175,-0.7468054730114354,-0.0030216799907481925,-0.09492187073144721,0.429494016601547,-0.20775916119799603,-0.10463196741465386,-0.42814452402563097,-0.23902280470573245,-0.07922788379311205,-0.3498885250876459,0.2961570462220668
,-0.21480406653160972,-0.7688216456243695,-0.053149441633401726,-0.5368686852260341,0.028299585054152566,-0.14834562545362268,0.18993583209359435,-0.06671208982262251,0.04481799644537102,-0.17816633295884887,-0.289132656398844,-0.140182763942732,-0.2745427867015001,0.1607675510028479
,-0.29079056666067576,-0.5386372798808859,-0.06290908345737685,-0.19535984439289714,0.04162424008541644,-0.0657077817607781,-0.1000271499657886,-0.04005163930540306,0.08555778227211074,0.015563211490128882,-0.38645522967217333,-0.167536797814118,0.20452299968631601,-0.3524637125746678
,-0.18720831370348096,-0.17172960167442727,-0.09697670068957073,-0.2067755104541204,-0.10235112127205387,0.008693537437666037,-0.2008476657629769,0.02257354449826498,0.032921148050310566,-0.1319975441061223,-0.20611903749845412,-0.02884039565371664,-0.00035893852673057175,-0.349783088235828
,-0.33878020762972194,-0.9894570467510166,-0.0348655937081681,-0.4232167509634942,0.0379277803725137,-0.056486338160912634,-0.13043650998356987,-0.16171216653863693,-0.08886388309986996,-0.11466011793938902,-0.3896729107896073,0.00475228413542802,-0.17580587185183652,-0.5274460023505584
,-0.485880421046593,-1.3644829095717446,-0.17151306416593995,-0.8697176941831392,0.12532037315535877,-0.11692540216526594,-0.15593703416399243,-0.23874296223552013,-0.2705440486604859,-0.33532446826671675,-0.6047050750914601,-0.17451151819241417,-0.4028243121720393,-0.9132919155729937
,-0.5580231162668045,-1.2197148765105115,-0.15536478704887477,-0.7934887957224936,0.025638555748467993,-0.07151380166607949,-0.1553631251222964,-0.08976463971978468,-0.3707858671676314,-0.3336837433148327,-0.5684162512495213,-0.16720191623553926,-0.6658332160573457,-1.0075610101068189
,-0.3258450933871115,-1.0253208104140255,0.10049964712662061,-0.38925626664879487,-0.2149293941245712,-0.1457852942259067,-0.021163822841031747,0.013038677142958107,-0.21405697702161997,0.010303944146428833,-0.45858889464682645,0.012564331760101223,-0.5300572691331575,-0.818732647303641
,-0.4542393495766706,-0.820589498681483,0.11052755854826407,-0.13168175086987147,0.11062926214914355,0.06289688907735168,-0.1643404696898583,-0.11362266615298125,-0.08598088895340165,0.12716512433057992,-0.5521359568756353,-0.09060335307809653,-0.38260304126830313,-0.8843971293398788
,-0.43878365084548365,-1.2293134278031201,-0.10283835129310814,-0.4570459962714231,-0.11871604895490684,0.10957790936276206,-0.22212628677491686,-0.14811070431194254,-0.16574749063732558,-0.18399838884895897,-0.5948892556678883,-0.25212805650754605,-0.728100262344596,-0.48452394038224084
,-0.323921017659768,-1.497973049861408,-0.13636918681107751,-0.8072221329569786,-0.16094922240516654,0.03647491353057165,-0.09186965511816451,-0.12716436082689841,-0.11910726226284069,-0.213509989774569,-0.5272327350662811,-0.21480974535540795,-0.5976142143375133,0.08384314862995028
,-0.37979262253260027,-1.2596174970931329,-0.02368257169669453,-0.8676767325722151,-0.052170776153328526,-0.09279013956450174,-0.15387381942352488,-0.1449500951825507,-0.1189206456914387,-0.22292453389349517,-0.5691811958459602,-0.11302455355417482,-0.40857425426179556,0.16402901886063895
,-0.4759700938755927,-0.8732997470376263,-0.047999246153941515,-0.6057783035762547,-0.04216865390829571,0.020364407464840816,-0.11318385557974527,-0.20928187846873783,-0.18927723413069442,-0.3558697960785943,-0.4160341327981168,-0.037000579648253096,-0.10565704740303006,-0.2215367433459581
,-0.37399776386316086,-0.7990702989143053,-0.05627016874651162,-0.29582443097416794,-0.014844287664195864,0.19145892652151503,0.22600998048187942,-0.0703173131403712,-0.03241638082355097,-0.32177924734839536,-0.2597873451369911,0.0014623069154245192,-0.12310879561595382,-0.15991981336813685
,-0.2643231432113981,-0.27905663432256506,-0.08641804220197755,-0.15997103609106061,0.03321922187646289,0.23439578379218798,0.3474139350009679,-0.03899841343887266,0.057280308096944704,-0.24990058981040011,-0.10346517262680381,-0.0009583171749181121,0.08815763645264472,0.0030211705567198353
,-0.13808853523182607,-0.4568293627161373,0.04209088311163992,-0.41767190736273346,-0.007220498405829814,0.15967954637996656,-0.01152985698411701,-0.08757948444339493,0.1815462935467377,-0.13794349756767613,0.10752208884193942,-0.009620788952749463,0.04230553848268619,0.18749780548078296
,-0.21059800668084339,-0.38943133258887924,0.04240524541861441,-0.3641052326081068,-0.12960317976367566,0.014609688601691952,-0.12760555368095805,-0.11358063474652597,-0.006127250909377394,0.15968471432470235,-0.08909829029802119,0.02957012487580845,0.009179434547759758,-0.06345296504895694
,-0.037146868310282306,-0.5151826985712399,-0.10642408890525387,-0.3203930766530029,-0.00020992640226008942,0.11465936737573008,-0.14782904812869216,0.015850056521191123,0.04925728230937349,0.15677905391898736,-0.09481674181497476,0.06040251049580956,-0.12533353078885298,-0.2834633937955144
,0.09305823083884691,-0.6125473480202664,0.014482084134544859,-0.4656062997849885,-0.055527694793153844,0.28747443648672283,-0.12628813312204087,0.18149787436717435,0.22990400596799854,0.20146960756058727,0.06206026207569941,-0.08342175922620836,0.10755436812846142,-0.3875023043346855
,0.26466471390568036,-0.14346831298804352,0.1146142867866138,-0.2976991597534397,0.10951942094699672,0.29616078180894373,0.034007027075962135,0.1311907191871915,0.40404425432179186,0.27529144574433306,0.21599819506403606,-0.0723221809174086,0.30229524763381266,-0.44959108019404875
,0.38744431312454347,0.0901833221928849,0.12328682491074074,-0.1521427186499514,-0.07272857039649218,-0.02288786770223943,-0.0680438930309365,-0.0031152071650177647,0.327100146058847,-0.0055258394894949015,0.02835227108217453,0.03755395779680633,0.23836845537203524,0.00022777792152903892
,0.3286584619281168,-0.13250590859908642,0.18513455228740117,-0.10473184287138629,0.14340812661993774,0.13791639482217324,-0.03173730340946958,-0.02848167773806331,0.17824829040186757,-0.17789248694608156,-0.10309454721730363,0.03027600164118614,-0.1866615961493272,0.29282373363827796
,-0.03126528526593076,-0.4673612520203832,0.09505747448453007,-0.030102906339429986,0.2770129237153509,0.142695430281378,0.0717017961588195,0.09739545502550792,0.125911800139897,-0.06669960032338249,-0.15352672962377137,-0.04231228946670822,-0.004028864139744765,0.23440776201118388
,0.0039138273193201146,-0.03555995594135827,0.10194934475365329,0.16343238400278778,0.29486963637578845,0.019646606118347548,-0.05566797303937115,0.44051346406503106,0.18764769948248153,0.05614726464138286,-0.12918289671423597,-0.07264452080069798,0.061383358247872596,0.23674622954099708
,-0.2316010677697698,-0.24310752919158043,-0.002377949835720861,0.14955603924926608,0.1118566791892831,-0.06685550563731088,-0.08365572212658463,0.2945643084202476,0.057194335796176735,0.13203289413933114,-0.15803323692705742,-0.194620929980087,0.17102429260314736,-0.14152260400025854
,-0.2732901042587908,-0.7700424485657676,-0.03060396942165076,-0.06634953411761868,-0.003660224006660089,0.017888428149500892,-0.06447255209428582,0.10256163908114528,-0.19791607102891928,-0.1722223740411413,-0.13619006034119874,-0.17356760182823738,-0.07683583138248211,-0.35182850024880297
,-0.15424222948045352,-0.5990055905489442,0.08662004983103144,0.25541326872339815,0.1921712594751683,0.237745416535224,0.1032439078468732,0.09345846003806052,-0.13280599602942275,-0.20141531916350097,-0.127565059755796,-0.004342543496820867,-0.22996625281696284,-0.47982246647672266
,-0.12326620396201661,-0.03870322893272521,0.14455194349996298,-0.039559589576355185,-0.010656557418193633,0.19840786434450403,0.13867066683751786,0.17943082413423023,0.46546945165115616,0.13951030072197773,0.08338035676199192,-0.1277092374051306,-0.14184541453191876,-0.30687100223593855
,-0.022971892742190747,-0.5193747667933608,0.1211455144854449,-0.29203987228025446,-0.046561923677040276,-0.010517325537564648,-0.08733833679276108,0.062314798844116115,0.1398149396991248,-0.032500058156212014,-0.16734086719961788,-0.07221317566804197,-0.26028165744924137,-0.26944946769912803
,0.024460587684060113,-0.6677425048860672,0.054926224280675166,-0.2567257318737138,-0.023592076774040373,-0.0695425406731692,-0.06580785818668222,-0.14208876894223202,-0.19154801759138468,-0.06712571890520269,-0.246258410239218,0.08487530531342813,-0.23630107015648041,-0.1564501766244147
,-0.1284224701079679,-0.6884950023424111,-0.09265775982674279,-0.2266173929702388,-0.12816201282366255,-0.030042996059972186,0.06232876200892679,-0.13719196874105782,-0.3018130090103059,-0.16012130608731504,-0.33710864738072,-0.08526662288606038,-0.44230056938064755,-0.39135155207764677
,-0.18382769938872467,-0.8724482826974405,-0.12628297841631758,-0.30439417824003273,-0.07702618954515228,-0.05604622096796785,0.12020556144900367,-0.00019624079520160298,0.013351564547863648,-0.21515944659636657,-0.4180443999458841,-0.08809419429675117,-0.5408537221743684,-0.5306729443282475
,-0.02280928992500863,-0.7241276372278062,-0.0011854891658922724,-0.2332338607866509,-0.31710148659354126,-0.009409856323336461,0.07565305763990916,-0.0682661994021741,0.22132065664886783,-0.08962726205372706,-0.13948544722117948,-0.01510291930427599,-0.24634154206771156,-0.1099612022312164
,-0.33527271688365795,-1.0097369722548082,-0.089060051059234,-0.34445112639508024,-0.4265754518380175,0.025539704750136102,-0.12359988865217426,0.11841493949172643,0.06671106086908556,-0.1699232478351207,-0.13747398119959706,-0.22526411489612302,-0.15363870323428808,-0.5407759470276932
,-0.34064875110598586,-0.6868603389827805,-0.07046788421005588,-0.14076180765979165,-0.2516134690589867,0.21676502565296443,0.030824070258048435,0.3290735522820392,0.02189653008923973,-0.17738348835564532,-0.012826374049518908,-0.27196060187682025,-0.09691944910035827,-0.5051890999085924
,-0.07398700462241409,-0.5892639857010871,-0.014168250299963929,-0.09571663068437897,0.04137739535048432,0.05387691199708589,0.21838462353501567,0.24407695205686902,0.11003317504893508,0.07922433332923151,-0.1577938349196235,-0.21621255035504364,0.10007000537068349,-0.16652769672911255
,-0.03750492914236313,-0.348912104088517,-0.014226158157982139,0.1048635961679566,0.24376475407037254,0.11823975437772585,-0.05124274405735283,0.04788940094618133,0.1507338558741668,0.12092038761797554,-0.3453301570142226,-0.21661499332268405,0.037573998613752484,0.17660556897246274
,-0.05277990844907209,-0.14963112359089994,0.002213851284441543,0.29992919214558034,0.03950119767352337,0.09297990766076167,-0.07197027817039138,0.12554400330423723,0.3076164337204197,0.13361098480912295,-0.13588700105686283,-0.14036114518343687,-0.1784023675566156,0.17662298897521073
,-0.021637382937479258,-0.10740209369548358,0.1711234144874882,0.6082658561706349,-0.06848516259305766,0.1047666043178592,0.09649807047920143,0.3344772241554466,0.17380363301846696,0.039416638906831246,-0.1539607400532988,0.1092259443697868,-0.0536120650748878,0.0714741175677232
,0.1413814047243575,-0.46116752214110157,0.07419779565056589,0.25410112146890046,0.018063770557060408,0.08621627211107474,0.14871337538708598,0.057171688647377074,-0.15056815105144844,-0.0533037277175781,-0.12973453310830607,0.027539294043274532,-0.00851837938496395,0.4538533831525721
,-0.049330775213101426,-0.3868963745803879,0.036147736709470746,0.009639912416358839,-0.35705049439197073,-0.24396093284393633,0.015602774427853973,-0.22207314534160422,-0.1143999549813291,-0.12376365867508447,0.05199036271470003,-0.04439938291469539,0.048478064172269894,0.17672909707029308
,-0.20183982200787265,-0.021548705275193734,0.07126519654782561,-0.07512544174890681,-0.27883505640986966,0.010867192871603764,-0.003039495935876106,-0.15262107708856448,-0.1452826828189467,-0.12120848578580352,0.19491840527080628,-0.12465936439202857,0.21937365472036188,0.01115055333184661
,0.032261995472855326,-0.15518922474015215,0.007775177714077469,-0.04922874987194854,0.10198115143915369,0.2878674711799787,0.16805175472145786,0.06846811708428223,0.12759405434873788,0.28140290038932664,0.13806377939273015,-0.01942704828942058,0.20182007641486394,-0.047568295787409454
,-0.015105466072477987,-0.20594573325247942,0.05621503302001567,-0.21277388262221467,0.08858713933801152,0.10537367401631288,0.1219855068687154,0.04047755758630456,0.2577575443755092,0.3189636137837246,0.02857534137912726,0.10215078964161867,-0.050182709694415094,-0.23941715942404393
,-0.03587071837328664,-0.2666548081251527,0.08788318103802766,-0.003775934557519999,0.12330670073588187,0.0025877831782908063,-0.05688261182310922,0.04078267866481544,0.11161032423506201,0.11964590604634771,0.06625067493216362,-0.02094976717507577,0.2244522377647764,0.030361982007889372
,-0.021821111824430754,-0.48080029327171336,-0.04210349997764768,0.1856380492090388,0.07729908925212056,-0.05017653624175704,0.05109366126868486,0.02556736366445259,0.03281106095006591,0.17001517010892683,-0.04849102317440116,-0.017238304091061547,0.20698347520278956,0.17057388339453058
,0.2788456045111222,-0.31035462868063796,0.033802798036983155,0.3465618792457385,0.11613898899577521,0.153393500126987,0.18936067261305264,-0.04377805860351825,-0.00690681850844347,0.2208871994880069,-0.009350344470804758,0.17769054185834762,-0.046369022926564994,-0.1725358990807973
,0.29579183917907803,0.16720837709500577,0.08356446632099998,0.2066112472659393,0.23355293704145313,0.019862819564481406,0.10115692651935268,-0.06193015154688132,0.20972612213389893,0.0767195525726688,-0.02402114761222044,0.10248367900448463,0.4248150682739923,-0.10428534994720465
,0.10376271023538369,0.39855367548799175,0.14863727139655555,0.21659359867467484,0.23321526255991112,-0.050111434901909696,0.07050328538058614,-0.005717055261658494,0.15443827961432285,0.20489226767814708,0.0627955733382333,0.12337259244026624,0.7057439307527548,0.04712684556823596
,-0.054438597415068464,0.08616135546784968,0.03439372239355864,0.14272246050335977,0.14317097261333372,0.2040765383106787,0.20701471394114182,0.03796020217732642,-0.059239803066683736,0.10371997676236151,0.3555838896652292,-0.011336657182400574,0.5368356268919405,-0.15598993307409345
,0.14701850289262686,0.12421623750749812,-0.03422200263872072,0.056114180131460877,-0.06957151792177706,0.1641710515111348,0.06477895889252594,-0.04330726977219472,-0.2258154649575754,-0.023419858839759465,0.045516467712785794,0.018339428408932875,0.29540736212149193,-0.01486174988738385
,0.23535453850082996,0.29660608776231745,-0.0030435514239355813,0.01629196858758688,-0.22428328208845247,0.0204186564032673,0.07484451705929271,0.09997219797386447,-0.2593940427438345,0.10728041711438578,-0.0693376686156429,0.07392516304801419,0.410752761589641,0.25685178813184933
,0.3234484921798834,-0.14003908521671163,0.13826866737541926,0.3970681941570392,0.02452860290393808,0.07564859788060638,0.3791935358573792,0.13270482873617248,-0.09917995899751003,0.291951632168807,0.1270935895068344,-0.08410340815408682,0.2577642514098775,0.16109601034696508
,0.305573469298801,-0.24779206698992307,0.1749820758084281,0.5091406267486865,0.15977434706531876,0.033080445113855224,0.06113545363312125,0.15356582733535706,0.1813911605202325,0.15684489528036064,0.0295625911784659,-0.18398375872812367,0.0989035021941873,0.03479989766176457
,0.1281805615524399,0.42552997929736086,0.026222270456264258,0.5919455812269625,0.28772603256270685,-0.14626920278645808,-0.017432787087161686,0.23582735792389387,0.12430230702701027,0.10833182821731023,0.1285167000936962,-0.00022274810523953002,0.10606697348045976,0.2454411276380267
,0.07311313068672019,0.4540195846996055,0.02397334939355893,0.18338359582250824,0.18601112274120596,-0.20061543896558515,0.23402710040930227,0.23557199319184785,-0.011304196147148109,0.0029752502487500267,0.11891559231289353,0.011566548479366737,0.44341420927512415,0.04071021781154078
,-0.04134344529555232,0.1532624594195,0.09235746066917447,0.039615887353191125,0.10486315534583127,0.3407540621880435,0.16504375619923903,0.2316700292620931,-0.14887962389195558,-0.07176562972319876,-0.16078023057143534,-0.004303345350002857,0.2663372998926548,0.4951038878744798
,0.03493905934348359,0.24631864601875125,0.16665884699287128,0.039231510697057805,0.10392417185591957,0.40821942238716313,-0.061656648652208206,0.10234042319044348,-0.04661693475883079,0.14226834631469137,0.004047684847949743,0.02564978255405307,-0.22230706518158563,0.0011334975638781157
,0.1591076637009965,0.006805317740178844,0.31094825823444455,-0.09726173267890956,-0.08728797313733819,0.13144871270216665,0.007991515350946651,-0.049679230192559015,-0.026191323590382398,0.03499128096775295,-0.10629172619480397,-0.004458724385279098,-0.03458071947272,-0.20412406234812433
,0.11590080470305106,-0.144582809322432,0.28272779620274746,-0.07825842243837537,-0.17449737325811313,0.015885117142360367,0.12372330031101804,-0.05692788748064658,-0.0731514357313329,0.030617765350959635,-0.39564245521383223,-0.10095930824690204,0.5410837863090926,-0.1717552300047495
,0.02729298151542662,-0.12102441961686396,0.26168379149377163,0.3205004710951333,-0.10678338588756324,0.01861400504698328,-0.11652741526549544,-0.11364077844258579,-0.10920812621199151,0.3446713379047579,-0.20308151424134255,-0.07594039173828339,0.6473888277628782,0.13038676896255766
,0.15536307932907947,0.18478287958125544,0.18081860874433348,0.37903336771157314,0.013971119539618665,0.2058347606684194,-0.06227528956328355,0.03039714609961482,0.09455939218833848,0.24423761544238579,0.18506402503968472,0.00988003820394953,0.7531141775721252,0.5451314907167961
,0.13138731236185433,0.34543487161105096,0.2512811970439249,0.3107207600119974,-0.03497911280635173,-0.04079711611253124,0.19537767391462973,-0.06405888391276142,0.05178827797554317,0.2558831198269071,0.011652890097218017,0.04600961291470196,0.27280636604862796,0.4179167158795438
,0.36051325865543676,0.36230484699524296,0.19180267307239363,0.5097450253446213,0.11481912027347581,0.035478934667756264,0.14118072263719886,-0.18377455001475088,-0.0877718815193338,0.06476801139893823,0.07113840560548637,-0.04608232677607234,0.2638974272843597,0.41444255136934055
,0.21214434522517037,0.3261116724581051,-0.0387654998262728,0.44061417471180875,0.2049339324222646,0.23125813337886267,-0.03707399100427105,-0.15791030143559612,0.042914116465253206,0.07578404400316155,0.20936027739618787,-0.1134310933354074,0.5568317623867042,0.4871577558708144
,0.18965812836516754,0.5607194726477155,-0.060819456193411066,0.4250864871709437,-0.03254062895476895,0.21007188206760025,-0.04964389994605359,0.019633007581167143,0.3158504206484097,0.33372738422699727,0.18910311823815343,-0.03210535584236346,0.39016151983005787,0.25700510831761103
,-0.02746886875350412,0.5304672872945618,-0.09955191919967799,0.3668539340136501,-0.128278829197701,0.12771522296072174,-0.05928431458212448,-0.12663006279445935,-0.09652125053483052,0.10886478110741807,0.3408085255327978,-0.022093630755655794,0.37050052946809625,0.22207367676273349
,0.10847780968881623,0.5529938532175778,-0.010698203478836476,0.37091329837867215,0.24897064658286316,0.3730587703999411,-0.11528382446089522,-0.007200270183220931,-0.05741743278048013,0.15823751162051194,0.4241960068869539,0.09664458781520704,0.6863419220496928,-0.05643936321399248
,0.3040935961148104,0.36742106624055576,0.1351597286388343,0.5499392726826052,0.1615790803201069,0.2802667930619136,0.006427021481712713,0.23515619879259816,0.14701255573454433,0.3151349968971102,0.44523134693915944,-0.04644236703879663,0.6072118022744187,-0.06291451090871725
,0.028131325118733123,-0.07087218353183962,0.03191726332320761,0.16123229243606083,-0.06630411967464687,0.043263382432812254,-0.05917484073090434,0.052674084110791566,0.23104768214922855,0.31889174249047675,-0.16782125881699989,0.08626774078619441,0.321626410555747,-0.13285304191288808
,-0.5218591317837801,-0.5209727015452231,0.010850125008642469,-0.29990810431172793,-0.28102997995799256,-0.3756987440298605,-0.2750695836776642,-0.2171474824349383,-0.09515085451727728,-0.08014234640445198,-0.5366947550007238,-0.08061584879927068,0.038386597889483655,-0.674746399463544
,-0.3266013399793399,-0.33009653215026685,-0.023132663217912523,-0.04816630491075116,-0.2744212625058248,-0.34308352454046365,-0.1868336169466379,-0.03777481442748498,-0.03987928446333014,-0.014670907541194766,-0.32226158473056093,-0.12342924376790067,-0.0318999306001769,-0.43661964052569047
,-0.04147815756461532,0.18931815208144184,-0.07252396733748118,0.026031893864990566,-0.030177679569116347,0.015169521512755892,-0.024309858435120006,0.1818481202080392,0.08927787599061807,0.07965293013764793,-0.09124947148208615,0.08195720310602354,-0.03983085712600001,0.23155806397375261
,-0.1920248957594629,-0.3189483824868485,0.093540592662005,-0.048774202341370664,0.19489603704425945,0.12383584506061229,0.25164837612288804,0.07645499148278323,-0.2963481242028725,0.011476297816664028,-0.09250078773061421,0.17053560021479058,0.23137969060393804,-0.14110155185165726
,-0.3591558685235706,-0.5514235757598207,0.04423834117824033,-0.11713839848235685,-0.10114823320936535,-0.19343277218343474,-0.17066850780774823,-0.08504296128271793,-0.6958672624863164,-0.09307173631872466,-0.25100674768750286,-0.017444225782659733,0.1782911848709252,-0.31695694796924173
,-0.32206338249861843,-0.5405226295645407,-0.04556291245878557,-0.3921459384731912,-0.09593982847403255,-0.36791637982182557,-0.451426141805366,-0.28542450618432585,-0.5755288670303302,-0.2651434986954367,-0.3171316344939675,-0.17282690325518252,0.07541465347792703,-0.3996520236785878
,-0.41801637909277317,-0.6996995340010626,-0.11138343171108689,-0.39585329721450513,0.03349316571866747,-0.24163642699706467,-0.374678972658158,-0.28353666279313255,-0.2187845032757019,-0.23102889349382053,-0.18022046108347675,-0.204955936457068,-0.1602282389462047,-0.4607249199827562
,-0.31617224098849916,-0.4895635892393002,-0.006502943373930479,-0.08709725235273708,-0.25480958377242197,-0.4303654032339953,-0.24156925139259036,-0.3919845929554674,-0.134777151979214,-0.026281178018419976,-0.11770984299450737,-0.1360216926177365,-0.1284145044900642,-0.4196438628254786
,-0.32307496905718663,-0.45649078916313013,0.062399673425384744,-0.11149082083482961,-0.1496653666193019,-0.27170799453514155,-0.08254317065903609,-0.2721910758582544,-0.02125899061295831,-0.022166266920687933,-0.22167669429416045,-0.31266091631570986,0.21132798950309395,-0.30142310929136323
,-0.2920469277349732,-0.3399988205161888,0.15835382417515426,-0.29659863382372414,0.17332729934215987,0.14826197223278229,-0.028544460774815924,0.01250701979905537,0.13119150078255223,-0.1095622270803542,-0.033379126455122386,-0.2674527619054785,-0.07571834500008741,-0.29371611590208546
,-0.20787488918677569,-0.1497497588718837,0.052304414796715486,-0.28747079925875263,0.17595296237710872,0.057805168538716284,-0.12045641471905785,-0.1863359082769263,-0.09418577191315955,0.018189262792652268,0.17434896594134436,-0.12255913490301107,-0.2407130813688195,-0.18644701381444692
IR,-0.39119272320288084,-0.7339452979279989,-0.13549244801139584,-0.4391246792313747,0.2057781551267971,-0.16669084638738926,-0.23980556932063665,-0.34772241952514027,-0.23588094299209644,-0.2562197175956171,0.06556250877063576,-0.1885278339293848,-0.41649318553122494,-0.5690874214465145
,-0.2500190840281366,-0.5278044950815232,-0.10240653277983783,-0.37423189634722553,0.31952637077551466,-0.1536582422766989,-0.25816122943719916,-0.19438142875793255,-0.15895342832528842,-0.5080100331004566,-0.14654507280111684,-0.1904879758495349,-0.30650744836979643,-0.2449090638557457
,-0.2973197444245757,-0.10247708699959726,-0.13105542276238794,-0.29868907121956484,0.35902736467195934,0.03248063011673644,-0.19992720155322236,-0.036940213433839325,-0.17112915318118835,-0.34253426542653725,-0.1986449549315929,-0.18896710667278127,-0.1824576152024373,-0.34214677216109823
,-0.35347993231551794,-0.5099627428401068,-0.17145998914727936,-0.20965892524483873,0.05257605838668678,0.17216280357854027,-0.1308025876274095,-0.06761204972992568,-0.26337442142858863,-0.290955870663928,-0.4620604779982709,-0.14930953469704256,0.017869459232339843,-0.27416127760748465
,-0.31624534284428124,-0.24493469126650722,-0.06800290055341428,-0.4595810995014659,0.11915913896780485,0.19872357403612206,-0.058071483833072035,-0.037297819704250376,-0.1304323388997796,-0.1663716343516883,-0.5519013093767221,-0.11188347399456255,-0.3084681477549654,-0.12641715433091788
,-0.004142764389861888,-0.23276710452256905,0.03176300692198968,-0.14956357487927868,0.2181848434537078,0.12083921017522888,-0.16583385677995366,0.04605383351812817,-0.012570739934573168,-0.013751514297259787,-0.2695906951210865,0.0019285114317981024,-0.3964242392556817,0.2986005532455088
,0.02576323681294246,-0.25640382204501216,0.009713463843370974,0.10368029439320346,-0.08581054423781047,0.0735059745849845,-0.23682695830324565,-0.08277095172584867,-0.20499677984753611,-0.03769094939768518,-0.047750025627714,-0.18806029599985166,0.08415574183476297,0.20331571620358235
,0.16588148857530013,-0.23285879722833183,-0.10394541131374471,-0.02212676836653173,0.08693869919438728,0.05559787802721826,-0.2380907387100489,-0.1832379867797762,-0.23776248398450306,-0.3006044742709236,0.015308770047255345,-0.17277880956095168,0.28617745978408465,0.12406911887510019
,0.09249793755760236,0.017291113193825827,0.003840100595538122,0.0850015110633587,0.2630899494205557,-0.01774758541492751,0.1271203788379058,-0.007734830828490463,-0.17683696674001348,-0.44774079733257244,0.06324501275996645,-0.0981983812190067,0.2671019306951882,-0.015265444844499912
,0.08332765816319465,0.028947853589785046,0.18164789491022856,0.16632949953800502,-0.13397780896328748,-0.011668600315427548,-0.07082087316049356,0.07903524141214191,-0.0626117561044183,-0.22765726306831133,0.008641636099660725,-0.1344049092094574,0.044706248471228185,-0.006228768747240812
,-0.36771960721870006,-0.864580956212478,-0.27581128398361254,-0.5417974109511304,-0.20480183405581637,-0.30256468275843273,-0.3778227481832268,-0.02438987294449969,-0.19891019824456957,-0.1830949420936551,-0.6658480731743699,-0.1842258882020445,-0.8924006155825863,-0.5664866895817704
,-0.5330952433873086,-0.9978545148656738,-0.30937646104764654,-0.6868611503318133,-0.03079873821752267,-0.2212833148176473,-0.15160756794558544,-0.19874854236503445,-0.24477984571530467,-0.45468127846349865,-0.78567831747335,-0.33929679775642163,-0.9684067606586922,-0.8056721200660052
,-0.4342518833623609,-0.5593979625319775,0.05389424895430657,-0.4135687174866822,0.026983184109379697,0.0968464334639413,0.24390400850003094,-0.100167890541075,-0.1465076251407924,-0.3411694451411223,-0.3223657154564957,-0.1431611616964393,-0.33383529003050244,-0.5617644951700191
,-0.4904612463305869,-0.7211722449642151,0.016577706273724496,-0.5005437804426699,0.05566887374327483,0.11215520023296245,0.17551773332292422,-0.05801745717928915,-0.16071018111647167,-0.1618388602538456,-0.20643900690531833,0.09837645039605052,-0.09717891888584142,-0.6117618371235284
,-0.19582625587999797,-0.5993360132851876,0.0344834559842357,-0.45282802346492657,-0.05446027789352885,0.011400871902796669,0.02352940843529039,-0.10194275611473332,0.03633632288551294,0.023907262445490907,-0.08951688536071478,0.12155102042594525,0.12159320280720681,-0.3437749418094943
,-0.3260895985354601,-0.23012241259801103,-0.022856414333291122,-0.25285794091838476,-0.03823791281577556,-0.09282293476250227,-0.06303024622734522,-0.23791057547721295,-0.258997975181041,-0.1945274719692411,-0.03688972326041404,0.10254445219241957,-0.005855130312809964,-0.38070547507416563
,-0.10659799656501187,0.2260437445074342,-0.1993471037299049,0.03285685610486196,0.023750142206019044,-0.26234688975661186,-0.27836251930287564,-0.2270882943213321,-0.2286398007746067,-0.16851422188883342,0.04579177884971461,-0.006183755381333352,-0.2881858100185162,-0.07453049300255167
,0.06476417542434723,0.45940408110488035,-0.11184383326111957,0.24038750360416664,0.015226430096252961,-0.21382637342170704,-0.03101358710177825,0.043968600101647506,0.008923064390130356,0.06659423505344386,0.16477675070844813,-0.1085354637176528,0.0026542478787477297,0.3454527489823558
,-0.03119930988944701,0.4098374271975796,0.20118723494202614,0.05653844489650224,-0.011353702069172392,0.19499196083154752,0.03786868056258033,0.3195511138598686,0.10950926981409699,0.1553201603207484,0.2654171522022945,-0.1026256760350706,0.3064101085453245,0.17937506783691867
,0.02427295072402583,0.4014966976379371,0.1613190666390894,0.0739496414995533,0.12946035238592934,0.11122416129582927,0.21998061184136256,0.1014346233030572,0.163380274748351,0.1662266066025606,0.062443976206645394,-0.06460804709306639,0.46814956775762906,-0.07281743072677206
,0.2318228208236559,0.5958660657101595,0.13240139705038337,0.3545172984588801,0.09044550453511628,0.08508334714478702,0.5686137181686799,0.1316348947132979,0.041753395732468876,0.11192925101541407,0.1431712035240542,0.035589297776716225,0.32671027366963473,0.2596569943149205
,0.06320146904163154,0.6670552297110146,0.12150053181734687,0.49244099088997734,-0.051250710586237314,-0.28423253319293484,0.0664180519690337,0.023987254031717465,-0.03189344803459287,0.07286191691425822,0.1309128649059879,0.09073502302136337,0.25009022083149973,0.7216069655320444
,0.05171300369697043,-0.5965267015305892,-0.0663391961806894,-0.0055393319706552036,-0.12775487382755377,-0.14179111193192095,-0.04879882577735206,-0.10931678606118847,-0.03667545283727844,-0.0826186057512996,-0.16797750688918364,0.07091605023437446,-0.2080075768585397,0.3833498750154012
,0.29864975134106225,-0.546521390478954,0.025494375039532908,-0.1906167303906191,-0.019888987143730132,0.1371158553048419,-0.07703795181883787,0.047061596215290304,-0.15567094871985548,-0.09963221669200967,-0.20517040630333533,0.05313573075274948,-0.16450628589718252,0.295999640528331
,0.32135211816773257,-0.12466295119537764,-0.039833554853985334,-0.2205626621154766,0.03015355810157568,0.10520908672972588,-0.12627310724057558,0.18909564901128112,-0.04984023232657666,-0.09922347862540523,-0.1081718637310918,-0.028826141564720457,-0.05787550336329635,-0.0059328585635330215
,0.195280708862074,-0.31539213762324064,-0.08867862852061502,0.044055310697577614,0.05368292711347275,0.11716489319488238,0.03380377718879753,0.09710073704722529,0.23706607505791952,-0.07269391518996571,0.06220225519030486,0.07028388897425376,-0.24723012483066129,-0.22175617831825634
,0.28122346011928406,0.1756645741367462,-0.05656013219947944,0.3087944262281445,0.07207899678926248,0.1521355160328333,-0.16304759074872793,-0.07742781757157578,0.1549513163864087,0.3250337257183723,0.25253294112399705,0.061883672013646245,0.23080744031071276,0.07430005428113483
,0.3248619303668072,0.6123627234428258,0.047529679148249564,0.4353375167942217,0.17115677000435237,0.040875217239399714,-0.42339614432716466,-0.0919814597838713,-0.005003500634078039,0.06365109076237428,0.3036639584059883,-0.027985715539757924,0.041566227033174655,0.4142787991216413
,0.11946063417330505,0.2533505875011734,0.27762693614818745,0.3027336588994904,0.021803534333299807,0.010888612653773907,-0.1665442353432745,0.07232828577769751,0.017017622299896045,0.04471970149922572,0.2291765435848309,-0.07001607981792256,0.08848314550269229,-0.07383597469264101
,-0.01083727639692629,0.09596537280725319,-0.05905533888107942,0.0577321684580791,-0.3072124414139378,0.03758571110116359,0.06436255511429813,0.04237824727335148,0.22389018919159187,0.3268530078839788,0.10216194738166347,0.04639508046543232,0.26434075158210973,-0.14424220831829937
,0.1517557876062032,0.7939398253162187,-0.11812396898926816,0.3240345205897701,-0.04945262945047834,0.0036262907548416236,0.09511323073051799,0.1340605780808779,0.3258914799742258,0.3178025357593539,0.15995805329597348,0.13982817234943248,0.2702762149373118,0.6227738672525176
R,0.35833680334715784,0.707023895664441,0.13877095617625834,0.33369003607600245,0.3745860850427525,-0.38166907468056616,-0.17712603289253642,0.03195538615573621,0.3567122507908101,0.3390670639545494,0.18080102758800232,0.06307008988870906,-0.00012318556847173507,0.3414155472757521
,0.057718487594168165,0.6739876054161054,0.1421661677714981,-0.11675328159933342,0.06836513863103108,-0.2067929385451053,0.022084072925403545,-0.07067476643928085,-0.05328206874244265,-0.081710201379416,-0.010281949849478743,-0.017460736165414357,-0.025073653164655867,0.396429732613472
,0.02563164693780102,-0.02970115913135679,0.045504013311778946,-0.09830650030222522,-0.10662886150049758,-0.07422204456134009,-0.007457491904089255,-0.2513821444348023,-0.2805277198744556,-0.31948763917943607,-0.05396656324462142,-0.2642807442447237,-0.08341109721194127,0.678075622260307
,-0.18016849841649235,-0.737135263583639,-0.16528675103237675,-0.14779577973722466,-0.30174873356791837,-0.05472787859763182,-0.19210099960931873,-0.31821159736001725,-0.20942339055712292,-0.16710360064668817,-0.06533984334390987,-0.35796514138527424,-0.16797513700145958,-0.058794942797840116
,-0.31183227523221985,-0.8526609874722816,-0.25289492450062084,-0.6456271707504381,-0.2414011445494538,-0.2267479264827549,-0.2724348807351797,-0.5215456705387573,-0.1856331356653058,-0.27675480791195844,-0.3900543298121771,-0.28355989155621314,-0.48476156268209775,-0.5502840300396665
,-0.42756606539016584,-1.0486687665903773,-0.364538984218062,-0.4958327652301117,-0.16023875516186317,-0.47175592803926925,-0.4725419437270443,-0.5099040817788021,-0.4286209747238719,-0.32504717931035343,-0.50944110696716,-0.4042790329013744,-0.9887201935982689,-0.5176586934352311
,-0.2411665311476958,-0.6504036446035223,-0.11211046778320687,-0.04521766672682668,-0.04718402728514757,-0.24575136897485386,-0.3042352839138078,-0.2956150358410027,-0.15514952268078516,-0.12191732054687657,-0.2857217153884552,-0.230268226211128,-0.7576212040774495,0.1134992800373021
,-0.00017937505183731673,0.25564167177144026,0.07211174433463312,0.2676253436699765,0.0063241255958017125,0.13488062678669596,-0.09243577812284622,0.00712443432404235,0.2659378557242134,-0.1254420751658701,-0.02692375078989559,-0.11947946212854167,-0.1991502603764098,0.21851448268053225
,-0.33338503628884336,-0.40103083857571314,-0.06385318125721906,0.13547976544025694,0.03905028664105385,-0.10828375195028514,-0.18187892474045128,0.16989621761822288,0.22033554724419074,-0.21305932797539015,-0.36182637791537287,-0.267677984147101,-0.568214835195065,0.13930083747008093
,-0.46798917657683176,-0.7513696394872103,-0.19630595218204247,-0.18891385539999522,-0.1897984722138643,-0.26902662947811384,-0.3116929170316262,-0.20791687514734827,-0.1624904337157057,-0.27500375654953135,-0.8005329483872242,-0.3410953588680223,-0.852490594913526,-0.16820473954250814
,-0.5982786883058429,-0.8405692511213959,-0.1434561673834912,-0.17185657166055893,-0.4191504535179198,-0.6273963116706388,-0.37370493002602784,-0.3338523502006125,-0.29329119911841195,-0.34988352017065305,-0.8428706346979405,-0.3981050864174295,-0.6073656682141113,-0.2306849173454894
,-0.6827165408286205,-1.1614808162128085,-0.04196033077550866,-0.3481698847833523,-0.31117608301840366,-0.6217070215897084,-0.36265451801606663,-0.29917421552855056,-0.34201079702225,-0.4162277151257677,-0.6388133357586672,-0.3626036676278064,-0.5337611841976128,-0.1738477208328918
,-0.5062676534072359,-1.1082088529109444,-0.03214763724469836,-0.359872597334107,-0.015147847702329529,-0.38800991111985544,-0.42982951272873976,-0.13692160767172798,-0.2260950211302697,-0.38357633288185905,-0.5059903578697185,-0.3587774417969386,-0.37734995264155846,-0.5038850602794436
,-0.28362755898289854,-0.7150694347304396,0.05072155893892948,-0.2664033678656919,-0.20007218570033908,-0.3198048155905849,-0.5127680788831073,0.001182246292303116,-0.1897320078226844,-0.5153248171493557,-0.477808076329901,-0.3865020577824543,-0.43644963600825937,-0.4687529008863064
,0.3115948335632522,-0.6577824007934058,0.09187583693678948,0.056960149188186725,-0.20998958402689596,-0.3594136217454723,-0.30782214478110015,-0.13910153841283118,-0.19187040741204356,-0.22101927202156676,-0.3619163603006218,-0.19018697385919717,-0.408171641899728,-0.2528472626687253
,-0.013232023461137436,-0.4173579645478928,-0.18635931133913916,0.12615594424121113,-0.06520310952521936,-0.38008683068096466,-0.5887159982877941,-0.23943478334422147,-0.1812574421892664,-0.09804562944771371,-0.39975613646339303,-0.028292781952131543,-0.5179969192298359,0.03682599789473341
,-0.09853499709270623,-0.15257374230700796,-0.26568900091705294,0.10050855266481595,0.181550066349688,-0.045103833835124965,-0.5493932460227469,-0.1177133614361656,-0.11433773493089466,-0.40523369660026975,-0.3334219094553956,-0.01404695487339516,-0.3584676648799382,0.16632622513916845
,-0.14876900670187188,-0.32575379487618,-0.2763058204191321,-0.15430275743439123,0.17111255990326601,-0.16770819168781448,-0.37365439098464015,0.07198488969438903,-0.12257095226690648,-0.398662692559529,-0.08981834817951086,-0.06463586275379068,-0.24374511191860632,0.1966756458523151
,-0.02267942593208765,-0.3838835182635776,-0.13721214237732912,-0.04957776485668181,-0.18195263160936612,-0.3263193641424784,-0.3249468741638556,0.22523236354323778,0.03630326666221386,-0.10375111744188291,-0.08552316673121324,0.04044220201156921,-0.3732970153359673,0.41252493530501966
,0.006050011132770222,-0.18632106671731988,-0.33226858664682535,-0.3381265292069239,-0.10232538289484992,-0.5144298737717388,-0.6039475373021822,0.021684361298951522,0.21589390223031024,0.035381056697957235,-0.3389690375469151,-0.2629329915400757,-0.2986087165710695,0.13182992320096729
,-0.14532234084478313,-0.138647556446504,-0.23697298996840144,-0.31704929752307615,-0.030285020695843493,-0.4277097466768261,-0.47837360772638704,-0.22628706304658552,0.12557589573390143,-0.021423776184092053,-0.23955695598020657,-0.20292441091804891,-0.393364744312588,-0.45038091826917154
,-0.4022684927238827,-0.3994105798108392,-0.09162432892194614,-0.09522249535923158,-0.24198502363229768,-0.20320289997492721,-0.213037654096733,-0.1638583323512806,0.07621182130818155,-0.2736131355037129,-0.391771577041664,-0.1446458249997229,-0.44496478618129787,-0.5656225714060412
,-0.26889424273757423,-0.566383848477335,0.015040084922766794,0.09339310609638488,-0.07529608189684153,-0.14660195633939693,-0.28174484945807676,-0.08122940409513812,-0.14219452744035696,-0.45064011793390657,-0.3793668290212351,-0.2535236790952446,-0.6101601003430591,-0.32364927841068974
,0.11371786808867208,-0.49378732449305673,0.08587204871102552,0.010317534308097885,-0.14764968745398235,-0.22277993666415408,-0.06460426498396288,-0.3389836254827266,-0.39651875687070137,-0.36060854225600836,-0.09193654132038181,-0.3910608143087781,-0.47502974368767764,-0.061055984441592756
,0.21841293859484884,-0.339655372972984,-0.04557582786175069,0.32098373043622785,-0.23908890710072486,-0.4695142993343578,-0.19762786761566478,-0.4511525584886491,-0.25037620089031987,-0.17363057551290992,0.007114022793702583,-0.2350294642192199,-0.40194901901879493,-0.18728301712996281
,0.23695753541418668,-0.0942583479047034,-0.028146299146079107,0.2919477771452367,0.08695489269445265,-0.39836379475218625,-0.1470162187867176,-0.5304470652250767,-0.14859000961496233,-0.004581107824543265,-0.11933076309123083,-0.23844977278287577,-0.27861532792803584,-0.04900192014159254
,0.05360856449036908,-0.0590240820445583,0.059979681438420446,-0.011472102286085922,-0.018428590809693286,-0.1840787642435394,0.0078030558920045325,-0.1406075928985264,-0.06964836590734144,0.024704578091343146,-0.3407438561700789,-0.2865575609854148,-0.42409830377126123,0.3394699683702936
,-0.08730922350644106,0.0962722937280995,-0.06260668230246214,-0.1605518491306974,-0.06232866524440851,-0.27651935000709527,0.033048517173191315,0.14708981369460855,-0.021030410865619967,0.015850318604779024,-0.3570051667995942,-0.07038743568334474,-0.4325498844031081,0.6394118440011252
,-0.2800386367132334,-0.5309333517836491,-0.16865772456562128,-0.22990373693337246,0.09781196149998657,-0.3057957883230882,-0.024243045757146586,-0.08398459704219803,-0.20333512325339237,-0.16963338826833543,-0.7310069676077086,-0.16073162489284945,-0.39693936874695074,0.0317684097745551
,-0.40589874487522426,-0.9152804412511402,-0.2621454075203178,-0.5236291179245834,-0.08378876144865041,-0.25910712417329324,-0.0336047686655696,-0.3184585965326391,-0.3159527881402004,-0.12924382932072798,-0.7813246765733243,-0.31330299818804147,-0.747964273451124,-0.5511584897146306
,-0.3630733344526866,-0.6322218923515498,-0.12348527701252839,-0.3412170655807788,-0.12653449119760996,-0.2015066652290129,-0.12817094105685709,-0.38048286513852214,-0.38197869827590825,-0.40791060197060974,-0.553429895632175,-0.2740283208983669,-0.7169700873093444,-0.500598184276033
,-0.02402192303337708,-0.2349047524461116,0.018967674673421343,-0.1628414707875778,-0.0727885660812577,-0.25145387881525166,-0.024338418032868292,-0.27052178869292753,-0.20101544936880553,-0.156399325808603,-0.2944112087308623,-0.11438722922257152,-0.20600396690469264,-0.3584735233797732
,-0.04725448235377012,-0.279518008366735,-0.031147056400292392,-0.33030612070871784,-0.08826335266300452,-0.25677170891563483,0.14551742898029718,0.04086966785266737,0.15462176595018395,0.13190381508872856,-0.21017743945206155,-0.07874403934873565,-0.24877567664107827,-0.2472082790571097
,-0.36076989101666096,-0.983008687738917,0.050408765009054224,-0.4439604113542785,0.09912044631477106,-0.2768499388940695,0.09494900843729766,-0.06263307679642593,0.15095654844379122,-0.10825304488560578,-0.37679805231003444,-0.07744547679925742,-0.4832277161175306,-0.5901575811410976
,-0.4130145142285283,-0.842557202031357,0.06749762758148796,-0.2992361127268068,-0.35721093316401686,-0.3617116887875292,-0.2520928467116557,-0.08689894107662838,0.04042952868135689,-0.2024289696441089,-0.6937698128384224,-0.130856117528726,-0.3389515655090027,-0.7420174811114778
,-0.24132558243784574,-0.7067371373573856,-0.08119996806985603,-0.3961844815730621,-0.3910394460266548,-0.1432970175191424,-0.3366141573023535,-0.1789774463656594,-0.0033392818780855478,-0.4322592747578401,-0.7976107590879526,-0.08321178893674114,-0.4936213018555459,-0.30243109658037665
,-0.15223669704768839,-0.8092987223186044,-0.19684536301896294,-0.616718736332961,-0.08781690183487777,-0.060187069074460565,-0.17886540045791635,-0.14095845470024418,-0.08228501734915374,-0.23006965512285274,-0.5716683961522656,-0.15772061402207224,-0.4584795846652613,-0.3021090225093032
,-0.17664188588622862,-0.1558772036825188,-0.14313422619283905,-0.2902805673129399,0.164628162740168,-0.021028833901703507,0.15676734236516104,-0.04075160659281273,-0.15749656306146984,0.021339207925497986,-0.2669852972238937,-0.16055222271557362,-0.48228520629604166,-0.2653191637439437
,-0.1792242556825707,-0.5461890996031886,-0.2124445667697074,-0.5417981671060804,0.04064291086652998,-0.5567287173338871,-0.11861402624727328,-0.15006544656366325,-0.12174666370766642,-0.08853210140014434,-0.5549169432836467,-0.2490946762042443,-0.3961656454252084,-0.018900620572242528
,-0.6270616163444424,-0.746364910329897,-0.18015382655354853,-0.38777948192689354,-0.08292866882153085,-0.5336350560644131,-0.2527785414626227,-0.03488228047770491,-0.08129486538567077,-0.4154297053135234,-0.9569262377063994,-0.48690246653885516,-0.8925623566098698,-0.6071742948295666
,-0.7853712654883587,-0.7125013761879051,-0.20908289291122845,-0.35152860948035725,-0.29094470336235023,-0.21933726538036485,-0.5784607776748892,-0.10439170669897979,-0.31731983028893085,-0.40949799303097767,-0.9222917311219125,-0.4712029115437791,-0.6874829814176776,-0.8446061232503531
,-0.4448424529526025,-0.6598041651035997,0.03881076696662225,-0.1477600674963258,0.03060399062732457,-0.1431556170319642,-0.9033204382453793,-0.16676678307807968,-0.2343577673240172,-0.10478523671443143,-0.5190353962876669,-0.1930291421490557,-0.5791151414181211,-0.5164568016477192
,-0.09663899466926801,-0.8536126739608485,0.11219989957965505,-0.17783563147868608,0.18844577947797395,-0.2659326978980662,-0.714427781362776,-0.27591594437457573,-0.07700102455023532,0.022396414546134877,-0.4324310972465605,0.05302711615160165,-0.484823222287559,-0.2911130764252178
,-0.2789823279919433,-0.9455857433499752,0.1344690654531024,-0.13207378427716898,0.053417276600608465,-0.3921217507943028,-0.578739711136243,-0.32288174860976937,-0.0728620291662507,-0.11567764800577028,-0.5625676334197707,0.009387054014729394,-0.47419855569773883,-0.4522831062112597
,-0.37001649953697835,-0.6788728446940194,0.04930984735170785,-0.10653767663181032,0.07842018668739881,-0.25524655705433025,-0.2606124278048059,-0.2862238251937676,-0.031180468765519623,-0.21702672128564737,-0.6992096778559618,-0.13348742544549028,-0.296787700468062,-0.4386502859871359
,-0.3735642261051467,-0.4405387769413916,0.07544301320887976,1.0367669989412168e-05,-0.37457555361901995,0.022405985200122935,-0.11037027440728375,-0.42700856615261484,-0.046288050643444156,-0.29822481942064577,-0.761056701837154,-0.23964274305087097,-0.2057122444183301,-0.3005675999524001
,-0.3734318958774471,-0.1315473022680528,0.10401719776235399,-0.22233666562467577,-0.32070976487182695,0.07305555527591312,-0.2769491302180847,-0.4575717281998014,-0.13121504867656292,-0.2623246987525553,-0.5737352637941691,-0.19868363591729352,-0.5145540184076605,-0.25617090562965916
,-0.2598455933192819,-0.3200645469845972,0.0030116266553934347,-0.3389477666173873,0.15067440152327424,-0.09808897408829144,-0.38559298487673493,-0.43398046130608264,-0.0141094000166441,-0.11317772425984578,-0.325445302273838,-0.23596769321253033,-0.2867607981013191,-0.19418899721523875
,0.0768596084116688,-0.04131750100637561,-0.06033641787256617,-0.35598855182671335,0.2899387430582356,-0.26932187847845573,-0.3001569390624311,-0.34148639526066166,0.11776916261148536,-0.010183990348869978,-0.3960052535231813,-0.17791549997013031,-0.07745095802727085,0.07794013885687269
,0.220728348567957,-0.11858478627201247,-0.11029493775855141,0.024633056149003116,-0.12694161751192376,-0.29813511416190086,-0.41590138243865177,-0.2287245343097097,0.07067079500540614,0.17271217597077795,-0.28245941097306926,-0.17256168134345298,0.03580702959996986,-0.10950607288605717
,-0.05052852986203465,-0.45262732825022933,-0.152624613031163,0.10570175928615348,-0.21603565007976988,-0.36446478865957044,-0.34961382216074277,-0.22414388691000803,0.08456795391563275,0.2774040107897952,-0.16464867392394686,-0.16612172699486552,-0.21171759174685115,-0.1823405594367103
,-0.2376356936763973,-0.5167735634062605,-0.13297596159832842,-0.05680320116633882,-0.24353845199956775,-0.261419922268078,0.0059867549135720274,-0.21251883098837396,0.0680431573932844,0.19358959523987998,-0.2917550181482018,-0.0075847973704917864,-0.0229574971123753,-0.23534346807089354
,-0.4436338672408457,-0.6475069385048987,-0.03491697631283344,0.30173239991257766,-0.15050095764094223,-0.11134991409349805,-0.11082568865235193,-0.29475902927259157,-0.2807738731980263,0.14636321031694377,-0.4883412742809044,0.07281875097877427,-0.03576620084709769,-0.3532113431027611
,-0.2040680009666289,-0.12873234364370734,0.0020633412043420713,0.3698501348362649,-0.20361456793901136,-0.2555090129898936,-0.31357382291990527,-0.29270860614017674,-0.14955028516762114,0.2025945165123377,-0.2841536425046467,0.0413302378031272,-0.11123632138986349,-0.15202366664184339
,0.15213164663120451,0.3212878232474407,0.14713092926462545,0.24543669858474237,-0.24011631502708244,-0.17099654752729712,-0.3627909497316281,-0.2293993427995365,0.01337434217689481,-0.02796835852417882,-0.2870498746770918,-0.13873829297538673,0.022127159307453532,-0.044797186138766584
,0.11238590022217443,-0.343733167119447,0.06264461378446351,0.12048456604058531,-0.16868832598568415,-0.0763140432874403,-0.3301509991750592,-0.32583326341299834,-0.031081018202632343,-0.0006943883942390794,-0.29129487930016745,-0.2599279173153613,-0.01217565221334126,0.011234754359495504
,0.006169718082361994,-0.3839115907776664,-0.044848840801880806,-0.07672402624820497,-0.03576531095318618,-0.13311642802581156,-0.3072854052147443,-0.38142849470894397,0.06867267702184213,0.1617433341396328,-0.4041792988614904,-0.20250713461407732,-0.08184046342821952,0.3369846336578021
,-0.14987899367626156,-0.16555913847418055,0.09800856050105089,-0.08228429485422759,0.045705241427071976,-0.1470857720913037,-0.2697365305705631,-0.3877709188947949,0.207402011262282,0.19345392623166258,-0.46573435622776227,0.005471943995985302,-0.25149875858033943,0.4064714125122074
,-0.033557901815232445,-0.326952257417981,0.13898865402156563,-0.20485360361029742,-0.02507920359464675,-0.13665880200912542,-0.3131342310476506,-0.35733143189906214,0.25258395559078733,0.119912120962975,-0.31567984043152686,-0.02436804852284169,-0.27739082092075135,-0.3329082833887303
,0.19848990319531826,-0.10315870979209343,0.016861676186460443,-0.19209790134309715,-0.24475356459287617,-0.33091226655326955,-0.3669284312856369,-0.1674572997577142,0.44893528525262416,-0.1453778798568795,-0.3564495487677473,0.01836579110126819,0.1382343318350135,-0.4321199908125797
,-0.022786929868099343,-0.04092090675709606,0.04237880982704744,0.07221255072250492,-0.11507098119702043,-0.3025122387027365,-0.36438243277556787,-0.011383320863260136,0.12015752143900847,-0.18572422220060225,-0.3376269304428528,-0.20423494484329036,0.2873442623619264,-0.21016888348583873
,-0.1574398674617248,-0.10563749398652243,0.04727963447752001,0.08319396076835867,0.08925126958998232,-0.28985604464644904,-0.22958600277653365,-0.022143319041948547,-0.1399575331130564,-0.14816419334123565,-0.2371320840514493,-0.2052054191319048,-0.06347232166548909,-0.11525922657601627
,-0.1735259905248111,0.21258943950505382,0.08198462753634259,0.32665934365947946,-0.1904332774166768,-0.18866632051130394,-0.28706670863251027,0.09761595303464381,-0.286927251233024,-0.12892530269977226,-0.16536893423885243,-0.09815478674128718,0.08568635767887807,0.2782746794040449
,-0.018546067192550073,0.7321306502260062,0.09053452860255949,0.27341608299831066,-0.12142974295879538,-0.012530211176498858,-0.6713520369508075,-0.004353729735636474,-0.1532759696424676,-0.11607487626526913,-0.23250638454676012,0.052751285855876746,0.28790344636326826,0.39995658702750864
,0.18425201656692267,0.673615129499279,0.1971297380122668,0.14603614967485035,0.04490114627637241,-0.12455030703157152,-0.5044903307089011,0.1175028481885231,0.1830745451248948,0.035768736882309395,-0.20357264696040567,0.008480943750050351,-0.06332429496277484,0.3416362780493074
,0.08506969449330404,0.47694834096562555,0.13323543492407858,0.31293997329012724,0.05879039496636714,-0.06435755398020138,-0.13304857462251052,0.2988060501397733,-0.0914419959005482,0.11978857473815455,0.17546311709517576,-0.06709134313917531,-0.33782419108393447,0.6183057027250939
,-0.2990713937726946,0.5732242926494316,0.14789992384202147,0.40485277882572046,0.12012715060592812,-0.12383960712690577,-0.2285063528323793,-0.27882040400016594,-0.09012370929835332,0.03663317656126337,-0.14785249795515212,-0.10018420314803299,-0.051146392546279125,0.42141124243356043
,-0.22710490882586837,0.5025659072125475,-0.020584548892824878,0.2815196830007825,0.1434211791217964,-0.3233775683596191,-0.36037964523983096,-0.5148262949840292,-0.09769556563644298,-0.22713085750793646,-0.49088426916620076,-0.24391042413841477,0.2570717605131357,0.2452377714098347
,0.1984728577469884,0.862406973036977,-0.0026211061107601326,0.465982392094414,0.1817271700086867,-0.3363121577412056,-0.33700091676136656,-0.4576261662348773,0.19034447472460655,-0.40346649381630745,-0.4038229978200823,-0.1751032439058619,0.11568289130500696,0.018353066656426623
,0.20126408828232895,0.905972014939023,0.007909690284292165,0.5402055349809077,-0.01870459361439061,-0.282344085074642,-0.4227034229906479,-0.33909085237182146,-0.012062582290280476,-0.2473849530181727,-0.41810703424362117,-0.1326801515209128,0.11899878746850065,0.30563219961405313
,0.23815829939192437,0.38225777514429776,-0.0017222109116093404,0.5213615629598484,-0.11336353244149598,-0.25663171617007485,-0.5985745211590283,-0.22022644291047874,-0.17562404041047436,0.04987509340028914,-0.32468970650592593,-0.0042367121379912895,0.09944577192615063,0.6410499648273763
,0.29059503757370875,0.4580813530245294,-0.08117739065616032,0.39871364498249506,0.05893133410591173,-0.2813201251711952,-0.2653940421331292,-0.23943141675147087,-0.11491764840594103,0.11476373602449923,-0.4283983896967396,0.023765615916484465,-0.33413104570380125,0.5988297149412605
,0.029643428361977694,0.5342745054264473,-0.16834713611433036,0.25760204807545595,-0.05620878422537797,-0.12545989263615134,-0.1988164595660122,-0.13535413609148755,0.14843138485030152,0.18643758476536984,-0.5166009910466098,0.09909863717807856,-0.373505888785691,0.7412220992542998
,0.035699942458513385,0.5736723703196672,-0.04336531361239991,0.30327088630609356,-0.12195961585034898,-0.027115348705534996,-0.2698181709050862,0.013931158796224762,0.24164152979730938,0.10697680876509734,-0.3484283137921454,0.13730771338094364,-0.4260110492315646,0.48943889794408607
,0.20129079386547805,0.4122594108325006,-0.048900362585419056,0.1951478581521024,-0.2011957944307172,0.13481780158525428,-0.19236600162432504,-0.025475382708021445,0.24242354920448564,0.13795278904621616,-0.12274492537335971,0.04417171571116848,-0.4813353755181975,0.2082441430004508
,-0.06548914545278188,0.6028464790139637,-0.12372666276269538,0.35782135946056143,-0.13942547370759747,0.0729368191787297,-0.5449855470370071,0.13160901956927173,-0.2306700624265364,0.14184725737498655,0.06218137993453759,0.20425525835417302,-0.15861246441270221,0.31705950495781476
,-0.01862193386478848,0.6778745705736964,-0.14013551111384615,0.3247907322727278,-0.012357610562660734,0.04334170250945011,-0.6892063056606124,-0.0083201319871324,-0.47191000455615345,-0.014438692644503032,-0.2915289283535572,0.14805832588754556,-0.0831078069190233,0.22995449221244574
,0.028980471106898453,0.38586704074927597,0.06198208333524964,0.16225875038069304,0.037925936858218906,-0.02448512786848294,-0.2795610464652346,-0.27180378311942605,-0.11529464582897897,0.05691730314564569,-0.2149007179047868,-0.01798205845579923,-0.3485091405957838,0.3717639642752745
,-0.20612048101755265,0.5637667056344459,0.1786974581111376,-0.0625798816435246,0.2364859094298827,-0.010443709777650228,-0.3313931491076102,-0.03388515407491914,0.07752234816773675,0.02076160091256738,0.018854233252340574,-6.625443496226646e-05,-0.08143913679804682,0.7394689275906104
,-0.054450650029127294,0.413547851854087,0.11780938374811277,0.15233464267363386,0.14690047633667647,0.10126372294858711,-0.5538882019655241,0.06521640126731222,0.14670691511651832,0.08438411793582827,-0.11415907416251539,-0.030112786219046412,0.20014532844352534,0.8557448515642101
,0.06183008672376907,0.3885792802648659,-0.009932882199235816,0.41620158554257947,0.03132966679665954,0.15946244461626127,-0.3340062521814991,-0.026259192873642954,-0.0641221416695617,0.3898811577490235,-0.16273972939126127,-0.13827266321417436,-0.03043675965104514,0.614419444655987
,-0.06563441772412933,0.6140981851219293,-0.03253748702023221,0.15218187678731715,-0.1742620799720926,-0.11201929666284749,-0.119625366587986,-0.13078299049171835,0.12903517185971256,0.2302524254244531,-0.07610814774584285,-0.12418289701449488,0.2794036435629445,0.45625591604211463
,0.03949347093940414,0.6125742033187588,0.32193034874485427,0.12068010421936201,-0.13805596853968216,-0.17470137362714838,-0.4468203006005744,-0.2053432495507024,0.1680752064692584,0.13913370870427483,-0.2182448464098557,-0.1412777710231626,0.3386538736546775,0.40679282382700827
,0.33224843609147897,0.7237150652109045,0.10233632751289044,0.24159987300581104,0.10149100352825656,0.09071898628872531,-0.6357062006716759,-0.1674989998261775,0.008634200015493887,0.25444196195121377,-0.17856399497841166,-0.005103248830769843,0.15839592175396044,0.135201304141193
,-0.18191714253391975,0.5719738964009643,-0.022333719344612923,0.10845433139455515,-0.1411488003545845,-0.09509413110831413,-0.3044566832944766,-0.1726636391357467,0.13827197360185428,0.17358995205615704,-0.26173647950849127,0.03226927859761864,0.11347652618589721,0.07208806962816107
,-0.14660127943385576,0.4401943212673303,-0.017805738175878074,0.1097776469880583,-0.1310364610005824,-0.09953226707290352,0.1239938189086859,-0.10899971750205688,0.46508090957004855,0.17560643208946145,-0.2606320222549037,0.076170138825027,0.5770359629767601,0.33222231388390383
,-0.10200378704232384,0.02406110284126176,-0.0006182221288118291,0.25061925040985705,0.10034149647991317,0.09646741631375155,-0.11448185305746986,-0.06503741062775512,0.24226881454377022,0.24544347980867073,-0.1699544031980277,-0.04939859693775328,0.30356634065874216,0.39851038269517003
,-0.07293104022505541,-0.07479534118408938,0.04093869941422587,0.5970344073146816,0.10307207721438702,0.01536422881601809,-0.21299269961657805,-0.20157993735271387,0.2721700620441184,0.23101415656480648,-0.25469064110364875,-0.07625334235760232,0.18888357316994245,-0.1982248517190775
,-0.17983696983809705,0.3323612207402238,0.058865291804041875,0.6847598144517407,0.09587282406065406,-0.056585597841625965,-0.35354972850375616,-0.11744224572203646,0.1478200003978122,0.3210097002309982,-0.2690257687600215,-0.013569864069702287,0.13693570700996494,-0.14007314238341514
,-0.1540565209976092,0.1861846422741559,-0.124266999851818,0.5291852169379591,0.12068901651720725,-0.21118516815046887,-0.35850154450978877,-0.11372958771077142,0.034888636271926926,0.0031335065431411114,-0.06861509985241666,0.03218486957570552,0.5569411724364658,0.1457739065358048
,-0.03095446508386002,-0.05276982786214637,-0.1328016102436935,0.2785543265299812,-0.005437472661095392,-0.08977160341551722,-0.03238854003544784,-0.17146995373609045,-0.07749288965890726,-0.11517716662901509,0.008718553021856515,-0.12490952460468378,0.3069971710247872,0.10995455117532897
,-0.01116237168482151,0.07196077691772484,0.0029600895514888654,0.18278592491003284,0.03563425782306187,0.010791452091991527,0.11281203271199049,-0.02315235221243692,0.05367971091006314,0.14828926990437005,0.03160757720850562,-0.09125505694845536,0.18107945289619545,-0.01929339096638382
,-0.0022386480510391566,-0.2921907874412771,0.026341897596801153,0.07750204784359122,0.23500327468887636,-0.16363361274949054,0.1603816372700039,-0.2506465179152742,-0.21173594484665384,0.06409355813338793,-0.018407752208405032,-0.12445377937800285,0.3924785808812481,0.2511561727036184
,-0.10926951172957368,-0.1096325289330157,0.04390901616506478,0.5064080474766308,0.46932003382227205,-0.11952339602955621,0.06091702430834925,-0.13871177235844293,-0.18241271868583617,0.011403612455555321,-0.1860971226965898,-0.16019234755767325,0.3790984687347639,-0.02938910265829371
,0.014889777080247087,0.6676432546958355,0.09815091565383235,0.23139048953637406,0.35066903264501265,-0.01928372388470012,0.09930748584337369,0.011109179713715108,0.03168819653778353,0.22247877993383997,-0.10412041451366147,0.012708779660175105,0.31394268463385433,-0.08892567578535479
,0.037055231089233406,0.443169832348017,0.17624316924719088,0.202000594708762,0.1489680926353112,-0.0754982746762871,0.14916260193499598,-0.023233730032784446,0.07211351563558169,0.22372752082483635,0.0684426324253804,0.17705178631716476,-0.0036095734294327906,0.18269125384878793
,0.2790712249612968,0.23189354954041266,0.22164965041715126,0.27671181257277383,0.034563556062786306,0.03516956743083779,-0.10805432961675658,0.021290488089736145,0.24745710077190922,0.2274542576173495,0.16634847024659027,0.1829963990777856,-0.13638995512555505,0.21494373344225048
,0.2828315964493816,0.09299036826534286,0.01232156292938119,0.2763564484411756,-0.04057647317420577,0.03472976024206453,-0.042674659905367535,0.024513337728615133,0.1103264517890616,0.24883984075925783,-0.013789468630708035,0.002947199646412504,0.07026274781439615,0.29895663460518174
,0.0532798636073809,0.09145781137636697,0.038541413552052345,0.4613477634608902,0.026164127628269623,0.06698344481413684,0.14404403690010434,-0.22218388425025268,0.041693802335747626,-0.007991585839230805,-0.21325009903383185,-0.12153632465600946,0.3864622601594661,0.2841913647301106
,-0.31876413937180165,0.10871049878435407,0.038598932359267694,0.11157821632352612,0.07889194578852612,0.17996536197155624,-0.009344286111992952,-0.1521281886937434,0.2702353377851538,-0.2465494741878848,-0.20743390511167148,-0.08777897333855836,0.045341639700290724,-0.38264969019825007
,-0.5018166153838671,-0.3049068590318376,-0.15441790492207974,-0.09958423615917514,-0.09747676631024554,-0.2609330488529374,-0.4583746577309786,-0.16589413614983062,0.0354142848932535,-0.3196557288165425,-0.5568085458655201,-0.34632416384700615,-0.4302422440062267,-0.8237035998226921
,-0.6229309772855472,-1.104141028366842,-0.36838850341149354,-0.19222891615667217,-0.3087945367156052,-0.3797739702441788,-0.6366005918233998,-0.22631446816909823,-0.0641986776698046,-0.2350625044696829,-0.9588679241839585,-0.4175701631540827,-0.9764968282157689,-0.8688429500184972
,-0.2576982686946533,-0.9143055116410429,-0.19063838414141202,-0.06236030312789262,-0.17165933666309122,-0.09652408223599442,-0.3592425158509015,-0.1241287829927218,0.007679633859296586,-0.24281303532137163,-0.7018557771549601,-0.17947923626869253,-0.9140428772147967,-0.20917973843904708
,0.0437487302033219,-0.5933051673197052,-0.02971384612937173,-0.10196667935909227,-0.047757789682716247,0.07185012701546892,-0.19959013112298843,0.03546720292885698,0.11238353360469075,-0.26402068375305876,-0.20063283562224524,-0.13144789041343433,-0.14330626368398616,-0.29690931479669014
,-0.07019476891335506,-0.8412405739360517,0.013090448759811881,-0.2458693929106304,-0.15127477141957385,-0.35616528051988006,-0.39950244666184365,-0.10643657699873811,0.00560135336605175,-0.3332874146789446,-0.39579428293761554,-0.016453971392758036,-0.29033184658409616,-0.35662371687081384
,-0.2340977754033475,-0.8022105121748282,-0.037331699976008256,-0.2608809585865249,-0.03772599181409524,-0.27722053254938994,-0.24194055806266582,-0.1267069222084997,-0.05208336314699717,-0.24505406736632082,-0.5599508142228878,0.17336881092376066,-0.3795350521514807,0.057774840041263285
,-0.3143975891633881,-0.29484110439495814,0.018165815924574835,-0.39094057530851223,-0.0888480185515193,-0.23972273720886417,0.03771712722453631,0.02323254687015901,0.021031805831797572,-0.2885866535814167,-0.49503677114111505,0.05775857022766494,-0.2441668841122879,0.0027126986706009636
,-0.07188445237930179,-0.40503200114029553,0.060506363120863146,-0.4314913992616461,-0.22385405263490743,-0.11823912219776887,-0.3494721965827041,-0.10021240352061002,0.11297183878616081,-0.14325940764167927,-0.5450423320696044,-0.06908394640706392,-0.13680501739402917,-0.027804746935155562
,0.10519349710683203,-0.5048399025886643,-0.04159103923164996,-0.27285224005581765,-0.08400083087199496,-0.25638773309337354,-0.6837863700786361,-0.18546967153981053,-0.1658803280639015,-0.102106393225847,-0.400854140738323,-0.14245040617544025,-0.2964796645220571,-0.2536861212413373
,-0.20639450732228987,-0.3929567219574214,0.06608545004981088,-0.05469967628406572,0.07394282107230087,-0.43127576458249917,-0.5144996941685126,-0.32161367271763386,-0.16249256572686593,-0.12683391173323783,-0.4036959105889645,-0.2484372127491352,-0.44602477000206897,-0.02858799033317569
,-0.24935252858027854,-0.42139357771148556,-0.055061747206188935,-0.2514065443531795,-0.26960201539537604,-0.3365544088122208,-0.32519633680469806,-0.3542398259302942,-0.15953229855113504,0.03764816062798592,-0.49182486427144056,-0.3251789580731101,-0.4044680584318092,-0.03886695946065841
,-0.15690397722706012,-0.18928487607039754,-0.11117099520902386,-0.212421908272403,-0.07934585146600368,-0.07365403291833302,-0.28488799146146326,-0.21056882629350948,-0.016809529225994286,0.21440315926439915,-0.5768831211919228,-0.41567200351733097,-0.2674563443244642,-0.1614798000821858
,-0.032580521823686405,-0.21750584200898443,-0.013672280763679809,-0.034948257627995936,-0.0375093299841794,-0.34922103845077396,-0.4154877138774229,-0.11484090337801658,-0.03021893341038476,0.1862739850179705,-0.47170770900769793,-0.21480901817041714,-0.2444579747829536,0.046748691074065894
,0.05014242941483901,-0.3199974489002147,-0.09075869055438404,0.05133546989162088,-0.19177614335045953,-0.3120339402012025,-0.22038108396704603,0.012938034463806624,-0.03501976926014242,0.1043100417291687,-0.19318321522214413,-0.031471220070395066,-0.2040250044081649,0.11910212988987592
,0.01954916287901073,-0.40856578635515794,0.025808425160869657,0.009759631478129341,-0.3069101346601308,-0.06539924808458909,-0.5314893852102658,0.19823724068486398,-0.09026235987476078,0.017320693638217127,-0.17940728532010541,-0.15416161563571548,0.10344508591914282,0.16388471562440496
,-0.13148159227731165,-0.1705556342414983,0.09479018858093395,-0.2215341660714751,-0.15184903424248164,0.14460845586544577,-0.39773346920786873,-0.0534899783787737,-0.3584723356642658,-0.20913324826184437,-0.20274823619259386,-0.24587308375786918,-0.04311219239731699,-0.07307957513178226
,-0.19068556574721066,0.13311745176645975,-0.06065954980611658,-0.32612894017437744,-0.11547209290708974,-0.08685421614858009,-0.15350141080583124,-0.11955014574117503,-0.2065599486745076,-0.11226757126464083,-0.15422208333936926,-0.00995519108508821,-0.23669701573255292,-0.23002702954619816
,-0.3011845236068674,-0.14886883875642817,-0.13432207537925878,-0.46700658750852186,-0.1542431346506833,-0.4789616790432573,-0.2255134891868063,-0.26057713043350156,0.04519092679997533,-0.13583353559341113,-0.4617023057078319,-0.07945758391150495,-0.2764040589300292,-0.6232365562483504
,-0.061217357643344045,-0.28069482797900214,-0.02064041375165634,-0.26022923064876524,-0.03199145550639895,-0.23647012434745968,-0.13199595109911183,-0.1409059730880434,-0.11428709502494275,0.026900759414792343,-0.40126623402911815,-0.08320663459007284,0.05011013820670907,-0.4245472586351926
,-0.07803345533204972,-0.7345391532147846,-0.14854876388298227,0.27135986039004545,-0.11096134430272218,0.15175180752599177,-0.31933164574874007,-0.015060656665377611,-0.22893766955558573,-0.1464463748644218,-0.48533649040665444,-0.21640312440207357,0.215632304468538,-0.10623297064503227
,-0.319887640112041,-0.6658050340469789,-0.21326748011294125,0.09642517834565147,-0.36167241762671354,0.1959072810815617,-0.4176533025135795,-0.15427243297602597,-0.40562003200452146,-0.12986507880136053,-0.6678808783251368,-0.20614132009587804,0.1098936602487896,-0.11523849404809096
,-0.46439767288424455,-0.5139449629890546,-0.24911718494782747,-0.21918364554963343,-0.08399009574720868,0.10386809093391955,-0.5034346737950053,-0.19400485092842656,-0.4408859230234417,-0.16432085631806906,-0.45937772244730524,-0.10376552130849112,-0.0712292831208125,-0.21414843690238644
,-0.3166607906581197,-0.2328165377041873,-0.12146045609849083,0.04769772542428228,-0.2342447187170412,-0.14944356251623928,-0.21053760658346957,-0.07423416232322762,-0.2058929886275173,-0.013242500516474206,-0.5567141666092981,-0.18145221832967087,0.12855009097689699,-0.2993529946419717
,-0.5163234455999421,-0.3753961203615786,0.0072209075315936904,0.02295591905858,-0.3921168795870867,-0.43840736070382014,-0.15016243994096976,-0.13171003896893055,-0.19828964881361227,-0.014751000934512625,-0.69963675084577,-0.17863204161534044,0.32292581171170576,-0.981468794146937
,-0.27284485361484245,-0.6875040469314545,0.02148418408036629,-0.5960790091381715,-0.16541497210207085,-0.432301778403795,-0.03553599202554474,-0.312679986719947,-0.19714688466428493,-0.15634145841617264,-0.41290950869311815,-0.10759853478805483,-0.009344856249389681,-0.6464348168116018
,-0.21232796735115272,-0.6589938761165017,0.0012401170642719714,-0.8115779406831225,0.06259892676295598,-0.032595403126441956,-0.0891797711140077,-0.4130734178311181,-0.10637209418483241,-0.43731807489071445,-0.4305348775507076,-0.20507350502866897,-0.2885413730399887,-0.49051539169262276
,-0.15670337470924509,-0.3711681656842105,0.009926993673963136,-0.4409915065972512,0.08136916858961764,-0.06019397290251364,-0.16463729141734984,-0.13328658431486676,-0.010928963065596332,-0.20456013323165756,-0.44448669063534896,-0.14607409002345928,-0.22978731568943983,-0.2553173879367673
,-0.08243789835194439,-0.4436098230931035,-0.05952618429325383,-0.41763309930892,0.007927641110578854,0.0353610193818116,-0.22976483761990557,-0.3555937686046122,-0.26854581449175235,0.0037447081992396884,-0.33714913106899447,-0.2762128140704805,-0.1948514094818797,-0.37768636557479346
,0.04070676902969376,-0.1901542442718422,-0.15301397047301776,-0.12146635753598985,0.02887500576075247,-0.07029501615293417,-0.13463468102702453,-0.1857846086317689,-0.2585652991485233,0.17355792718980642,-0.3104908969310002,-0.15658012974629798,-0.17626637775819884,-0.30295206281123466
,0.28955531607831303,-0.0864453353514863,-0.09427697524239266,0.005044165722918286,0.05653127952654183,-0.1966532415528728,-0.06972207356161358,-0.023546638477489907,-0.12527124372613085,0.2898361839352441,-0.5067504506032898,0.04591886372820657,-0.0789748531077225,-0.19477147752584723
,0.06650307468826694,-0.148151540061161,-0.1069506502377238,-0.015573209683764664,0.19277530134426918,-0.09194045990316595,-0.3018940181456319,0.028381491107165244,-0.009875358883100815,0.2537923573727698,-0.5380777072380035,0.01939222318971548,0.29833082728921095,0.31211690417721777
,-0.2208820167420852,-0.28881490170723806,-0.009134603869814111,-0.42190801314884435,0.04843438021614757,0.03501482578044261,-0.24399497534005032,0.03975596966151845,-0.17288040401737229,0.1163672381534383,-0.3068813419037291,0.021577137910444466,0.2972447168085659,-0.06477701796660015
,-0.1818279252998672,-0.1432336448128232,0.008359910190466205,-0.46887993651032245,0.01942854618385289,0.18239760913285993,0.024666830602426554,-0.22321327780296152,-0.3261042574127106,-0.05308009571370551,-0.3188385139483862,-0.1687596637913716,0.42187499123744526,-0.3350218176491853
,0.1991390498010444,-0.587122460800938,0.00958710083725204,-0.03695986812621808,0.0033026839446671026,-0.023152855187328063,-0.04373449317732101,-0.25923497435014037,-0.22061916179165247,-0.04903812741856954,-0.2895841310607118,-0.10788531356248171,0.10388761217757761,-0.25834240918129464
,-0.173114214629059,-0.6785447502126712,-0.02792353741369004,-0.04072932541809255,-0.1305914768509556,0.005678440902358633,-0.2576125956102405,-0.12075376289067857,-0.08489527824663107,0.026724366444251423,-0.20223923590893783,-0.03147417655485978,-0.26348587880226104,-0.7119511088035163
,-0.15798115207731608,-0.28920774324269183,0.06307841418773914,0.034234637134312206,-0.1271293029804817,0.12450173577446969,-0.018066912675902186,0.16343746932765824,-0.025526705335074323,0.18310660489242694,-0.2851324718266704,-0.03136569997488627,-0.055601325090885806,-0.5453553755172655
,0.008363469752129671,-0.19392211838524973,0.015048094007999325,-0.2631776137195246,-0.016381628971936797,0.05564253789890269,-0.042354717562579074,0.041751593009490814,0.18024540078040718,0.25026299160590726,-0.40813746344657204,-0.1550695231635723,-0.11653534788087895,0.26889073656326196
,0.03709015446765953,-0.0895844602934609,-0.09005056812512939,-0.6895093549698794,-0.16898103396848801,0.09509228689758571,0.024824242967265812,-0.04635616586085523,0.3409765471408492,-0.14719390743029487,-0.4317658063403708,-0.09939880774585355,-0.25018279199005755,-0.10783184789689212
,0.03416974471078978,-0.14724289119776618,-0.12354940365753674,-0.5191920019920964,0.0852653705731679,0.09292739523731797,0.21131670993265994,-0.026633812020176468,0.05338996367150778,-0.1487041418455351,-0.15610154296672277,-0.017648139055974798,-0.08471223408652398,-0.2634716476994272
,-0.15729411522883302,-0.4668167441404029,-0.016173306988861005,-0.3732576984791921,0.35668552695461575,-0.09982798070263767,0.21396776873853837,-0.07549634619866932,-0.07535953101674327,0.15380099729938973,-0.1472898052562286,0.04330047423935261,0.32164272578593045,0.0576582853717648
,-0.13951476688351747,-0.7458312760895698,-0.027022529419310694,-0.22209623962381156,0.14983189753759918,0.011183301728760288,-0.12663454134165775,-0.06700438317790425,0.14616907438979698,0.10338803214987183,-0.23458673293896484,-0.08658286528085309,0.47253013175726377,-0.0922657574733167
,0.02614003622300097,-0.5193468034678077,0.10383614127994796,0.13810391570660127,-0.062098869742078316,0.11117207709413397,-0.14005072600007507,-0.12596877388857702,0.08855358550562949,0.03711862157407457,-0.24673836223355797,-0.07986263637567488,0.107486059149622,-0.05856343859883047
,-0.31820643708859175,-0.5991438825693697,0.12241875412611587,-0.05082922419247838,-0.0245122992159489,0.007483404646816808,-0.011491916543482571,0.08610412578568573,-0.010427954987971806,0.15141979549108525,-0.3391012067421432,-0.09193296386908376,-0.07347516580681192,-0.395153489469253
,-0.4187733051255731,-0.573791453359562,0.08814802480692681,-0.09447558225342818,-0.03132893077762323,-0.21142090715045062,0.06756597277990048,0.13864147496873852,0.04169557846622751,0.07457944130765393,-0.19071066468983167,0.10884087609632517,0.14182405157295766,-0.18756109008961444
,-0.11924320716228856,-0.10880774706799996,0.1284821395634309,-0.09964754656700947,-0.03115348030266817,-0.2475698569705617,-0.1986952242884206,0.0006330009116501052,0.10222733095544269,0.08398750086990023,0.17007002796444648,0.09202818811205814,0.0036357651698827663,-0.07014433500655558
,-0.03377889355366069,0.12774443125160087,0.05950914719702747,-0.2522675322025377,-0.07820597693447227,-0.20654911104040313,-0.05900635825889105,0.10310816003865098,0.1104025622607303,-0.22655078948787014,0.04297409370853999,-0.033125078569321814,-0.1318711464222958,-0.3579038166484853
,-0.11204394930869929,0.04875180195558907,-0.023308821231557527,-0.1763058475634247,0.0557532387459328,-0.054168142709674204,0.042416706438584785,0.06201388761658392,0.04062517845499171,-0.1413016980662174,-0.23124872989467538,-0.08692069783580579,-0.04775934362502146,-0.318708975329039
,-0.2745967121034034,0.10724555080787039,-0.09981125698600055,-0.11803404488972409,0.0868972209457844,-0.2699153184391815,-0.15016893069429407,0.05732057126155505,0.2326504460195804,0.026373435147012306,-0.16656878201863257,-0.042218434703458894,-0.09125344032709458,-0.08066184948092314
,-0.17660116436109707,0.2653064199354103,-0.13099091454031095,-0.050758662180985174,0.26822371273000567,-0.24827716037317996,-0.11314734113985378,-0.15250534813318162,0.05445243325942949,0.031789067360421495,-0.09671364798138253,-0.0143507511469643,0.28714825669076427,0.24170189706618891
,-0.13078052431164017,0.18403789458514958,-0.11185174274410753,-0.17810201688372454,-0.060160351365113524,-0.003554901068053102,0.005462372041836277,-0.14537632639034312,-0.03171438166873941,0.24357831606312702,-0.1050572419933673,0.0578096121516328,0.1832472463606308,0.5510816615012586
,-0.16755928004687637,-0.31565941133689124,-0.06078585649639772,-0.036679584693509786,-0.15413157241921904,0.12380659610841306,0.09978963054919202,-0.19667296350930769,0.0009828637528677573,0.2717954690741696,-0.19628349166238546,0.16296400407906314,0.19902653914773885,0.13791219337075133
,-0.22979615385735405,-0.18461176295054585,-0.1503255268410888,-0.09009134959229725,-0.26291749832820704,-0.08555009437155572,0.025118146857209197,-0.14510290212515473,0.07020217478717619,0.15895452895933973,-0.0051799042202347306,0.09807858625837396,0.283149899603241,-0.10346899872609881
,-0.2583909283062623,0.2243632944903116,-0.026057135655347494,-0.12325512020183306,-0.22091220067273012,-0.18493401149098762,0.03092753585242526,-0.14044700770499113,0.044071549062738025,0.027430462681091235,0.09302218011597772,0.03660902153489706,0.30167477717450875,-0.2814304816021594
,0.04018977962262411,-0.10980223136874213,-0.15782040497369648,-0.09588879397453764,-0.07951734924642893,-0.10743636233396742,0.20774716574143545,-0.2754458904337099,0.049338556377676486,-0.01781004165744275,0.10683073541777569,-0.09479026912145241,0.5149098734105162,0.02490695001883161
,0.09604331510561073,-0.1564540527605949,-0.1944239818975189,-0.03685786554194454,0.10229781540339157,-0.07854261835586594,0.22594547520401348,-0.1931598048972118,-0.1369043551574438,0.040935621317009466,-0.12914989566512888,7.711946765714544e-06,0.281817454985443,0.04656318895495307
,0.1483248651221681,0.0871331850427002,0.1055292266694195,-0.03992758199175487,-0.011093619512683938,0.20242956993732897,-0.036236637896899015,-0.10775934882600068,-0.16050587233360664,0.10651816460640202,-0.2048203583329578,0.04450072008947691,0.5526132688078175,-0.006658982955128267
,0.12759741225461238,-0.16501616209743228,-0.04095186054631955,-0.05894981904330959,-0.010083057862878692,0.09729997512310236,-0.10680346771354306,-0.10285668809714464,0.005872976739405429,0.19070488080945014,-0.10996123783778824,-0.01837741948757191,0.17778712150361814,0.10225965202873195
,-0.09219534381166024,-0.2433831801402834,0.17612911810421453,-0.11760917792776666,0.13301462869973377,-0.0006200061461549606,-0.038496434234058685,-0.21069841539277542,0.16270474437551496,0.5631828940551191,-0.05202572498359072,0.04574808450107025,-0.0525513787429324,0.0147266525498631
,-0.19778985126636037,0.08039021292669243,0.20291193700890492,-0.03955063702343647,0.32393598465396845,-0.06714366962968434,-0.055126636731382475,-0.1430646006577453,0.02494633141006725,0.483562775584293,-0.04440776835786503,0.1835290742598109,0.20433713788730795,0.09476361621916565
,-0.055603652447443135,0.24747048531494312,0.035462370988078,0.07320665236238524,0.2012772767211958,-0.08655842560836301,-0.09670121482776312,0.02557445398972802,0.04770888165538532,0.15907981689102185,-0.07443082149311309,0.057950213567731584,0.23948310385064048,0.23262840982352012
,-0.11684427022883646,0.0451016074082341,0.06548655122712942,0.29205056156914205,0.097156272088303,0.10025885998446978,0.10066096722502933,0.08856144683950488,0.12205443673457918,0.20688482728281407,0.11663617720761153,-0.0016790474863387515,0.21303259140381567,0.07076804851957215
,-0.03724894586190684,-0.19004250102306833,0.021714783745656187,-0.02183310800603947,0.08271787331915018,0.06519616763447687,0.1448511275368035,-0.050118104634325894,0.004939880777093219,0.31409936015575446,0.09630596480072688,0.0664692051208586,0.21147905797821492,-0.1618282434320011
,0.13082283088982932,-0.4758045986808966,0.15225903038526603,-0.12588200932717183,0.0724193967359088,0.05125307156328889,-0.11104926389804114,-0.19260339762623713,-0.16708050537549848,0.36766933324503553,0.032957665019846996,-0.08423150835351535,0.19634794692998941,-0.35632520763599956
,-0.054618144914538924,-0.27534895298108725,0.10013206323488003,0.2736835727615203,-0.008480288192382304,0.19662455621014902,0.05554271315918188,-0.11085895251468465,-0.07074684103002137,0.352597847299714,0.2684257817407799,-0.13426339762568718,0.3379629344570735,-0.16686264236167997
,0.07784457838289575,-0.06558550126924069,0.0841675871018283,0.10298164489623142,0.030681015240280555,0.1897037137209181,0.1561491606856588,0.10954010157402283,0.0281135029291452,0.1963255747860901,0.10293278021025108,0.05841628836934457,0.5948438365926226,-0.16847163787544386
,0.06866717655544428,0.0164221513263204,0.017655704190441993,0.11384521045508358,0.07660998832619197,0.16333554757753713,-0.039602353244907434,0.10757861344551137,0.2425576414945244,0.16733202686901746,0.1154624059707428,0.25000733607522146,0.7883542020641766,0.26430321100641485
,0.2518270214561592,0.22090976881480084,-0.1299054687956454,0.279339776228241,-0.13418302520946188,0.14855328799082548,-0.16901470278383424,0.16485003259660466,0.15318798944759138,0.1208097971981687,0.14265729192851964,0.13611202256714747,0.5606933153965854,0.6708549462286854
,0.3141218549559781,0.36587387987723585,-0.08682267601460103,0.30916735328771544,-0.21996024941277514,0.15619771413114983,-0.11123898234307097,0.029246147919654852,0.08141786662109252,0.0517302695408379,0.07054523552148927,-0.1638427055904635,0.8394426645778194,0.30723309648694963
,0.039907086381406075,0.2954177886666367,0.029335901595455943,0.6815284481318619,-0.14856554477658374,-0.061627918578266196,0.20109605237160008,0.04311598835854062,0.27536469105196887,0.37468811288024917,-0.04999963218036515,-0.07807565809341607,0.5910399170013833,0.30584501805647785
,0.09647873951663738,0.0934046927110436,0.06354270844421882,0.6340676615592316,-0.10430126773253058,0.14894783720296007,0.2584969234938019,0.16982666906082314,0.15106050470115978,0.06835905486807017,-0.17140228413476305,0.04747954625241211,0.3409096833277157,0.20089675400681614
,0.15952730962248993,-0.0031169300683571025,0.09575053624643495,0.3218701519169285,-0.00995436717129283,0.20118968982269383,0.09730065875782612,0.05452246341077637,0.020500006625656195,0.13787485377438674,-0.18082439887578405,0.17062693868136994,0.29270402555573416,0.027661146787354526
,0.07216972543718765,-0.018786803485970675,-0.015580286836661452,0.07034919154888428,-0.23871103562932017,0.05286645963759292,-0.13894437055108405,-0.024676500281629057,0.004394077572734946,0.09786176015637124,-0.24490199070551127,0.0348432847415902,0.3424362727585643,0.13627184370113096
,-0.4298611262039745,-0.8851191170806317,-0.24118208077827916,-0.32433873794174856,-0.22698730623903446,0.03852402410468988,-0.28342945760452115,0.029968573745883527,-0.09202976260377374,-0.29256877406619736,-0.8227751215064936,-0.07144020129288547,-0.28677447117150673,-0.2578469393998023
,-0.6931551983342678,-1.0128471867815567,-0.3021107415477408,-0.49118307748691276,0.18147908775799576,-0.013642844727128255,-0.19186442721751104,-0.14009304217237736,-0.0583340908765143,-0.3652101266739319,-0.9990482135695964,-0.13155450716800654,-0.5818775291102621,-0.5482290723763512
,-0.3891611894583151,-0.668156039433902,-0.18054386398232566,-0.4254695719161715,0.34156572695695375,0.03827476738828704,0.09829831979298491,-0.11584331063707833,0.137629037190978,-0.1340344388862408,-0.6394036143541763,-0.043509558870039634,-0.18882206651446487,-0.3547517193700701
,-0.2048210390617782,-0.31561494189524364,0.011249559613240936,-0.40586536944012125,0.17580596380040941,0.11827206798898601,0.0006313184828996114,-0.17382500469892304,0.11312912944701921,-0.17945543222154567,-0.3459392954436037,0.09434191860465631,0.3090746020015602,-0.27224025831243814
,-0.13175119281490968,-0.2885047331189126,0.1093793847124573,-0.2163182936551994,-0.009368431849555665,-0.10697390239516909,-0.24440103701779134,0.008467853414078004,0.1167014592006549,-0.026067546271780186,-0.2758552960866933,0.12117869698036228,0.09205694324827529,-0.02534200747429884
,-0.023618226575821123,0.023442252279815175,0.1750144588399298,-0.11407770365525788,-0.023228639815316414,-0.05864023377595881,-0.16219647153507052,0.0560657262416537,0.3265528178620797,0.3997232934784074,-0.22586316199842563,-0.0028348436406632907,-0.11602273145181283,0.12938945897922477
,-0.03337521146194344,-0.3840899530167046,0.2729617272941079,0.011220459712305642,0.1718684347438989,0.04206306257786202,-0.033809216560050946,0.0036995946545371285,0.07726894651100168,0.19798252802664348,-0.1907860291028736,0.03710934924288779,-0.16586917211377378,-0.06585266348758553
,0.0008578994411435563,-0.5109982705573962,0.13679744681022057,0.08125356714824286,0.06620607787633392,0.011177369450603937,0.06422489654946995,0.01874245797022343,0.06192301176658973,0.12218175764766835,-0.041951468917298444,-0.08373495039632532,-0.046757458085038756,-0.3163878156109335
,0.025273268247495,-0.7556621674005191,-0.13758350029492947,0.27481273527351574,-0.24285029028204422,-0.08700039955574716,-0.004602204542743031,0.21248967134815705,0.19563883853283123,-0.07557935348984399,0.014174164518754327,-0.10432944076265979,-0.0021283667250361514,-0.46872697411684244
,0.06768358660151248,-0.3756373706199556,-0.08036534992484864,-0.017097786538615895,-0.14375711387473486,-0.039603553421666694,-0.021365894932467915,0.06321615914930918,0.10739286950654556,0.058813779492907906,-0.0035671478368740294,-0.08010447887543193,-0.04490448545313827,-0.3107854078049385
,0.1500315698331395,0.1739747088353566,-0.0002730771823900813,-0.08547496548388721,-0.10183569908884695,-0.05686357332729553,0.02311816651292313,0.15139970724795127,0.06052288334076915,0.38343923027775717,0.08426641541110134,-0.1877923834217067,0.14590126903580972,-0.08134831560526182
,-0.0007622570126001821,0.24392039950586045,0.061016802737370174,-0.12102666379091642,-0.22301093351655069,-0.21051391121304708,-0.08186785669483143,0.03779653358496947,0.03579226501742652,0.2030731456297999,0.04206238292778696,-0.094371162108477,0.386801598327293,-0.392257969179151
,-0.014298606185586841,0.20443958633269116,0.04504339700215358,-0.07374888247372183,-0.0582036041616212,-0.11039779902999697,0.050302990109419826,0.10676259617508731,-0.06123751133166556,-0.01584035078842754,-0.03483721088749612,-0.16060531175389714,0.6152152932086246,-0.021458717127349484
,0.029622168779351744,0.5911033163700143,0.051195783620845085,0.08997331136275802,0.05887414232161725,-0.05272272408419501,0.16836702890261337,0.20955015054543508,-0.03020253785109909,0.18520391594779592,0.11583709036174175,-0.11254323696753032,0.6569404224915093,0.018570405028744786
,-0.23382108791534242,0.7576246691394691,-0.03584504426356919,0.03340329013551906,-0.007757410751121027,-0.11666475849313984,0.01487668515747233,0.26593434283098555,-0.08341906267174533,0.1148400958214255,-0.0902145840874051,-0.13533286101699368,0.5587610445998037,0.032517349348208636
,-0.24251458415501748,-0.028719460162470824,-0.027045824473478076,0.053889271422851416,-0.15587284997608583,-0.19359365676655793,-0.08347604031041633,0.19907735025232712,-0.16752537221349198,-0.019099745846200545,-0.10594202349257624,-0.1405379647952195,0.638957798588339,-0.16193098900753283
,0.025335817246239404,-0.1756318987143314,0.06064746756171126,0.20149964266816187,0.030264220715034696,0.09010322347075196,0.10595486868524313,0.16732436007659332,-0.02369197260017252,0.16447459077754828,-0.016233551767230986,-0.03912185593267791,0.4330960804026173,-0.4439930831110848
,-0.04041406425618461,-0.15984238352394628,0.030666283790622615,-0.022527242872369697,0.12406316403306772,0.10027458891297211,0.06945232222012905,0.10719195983165249,0.14354641347258384,0.2942625761653464,-0.06601677576919907,-0.0017342418068557654,0.2047127495794946,-0.21624692292136216
,-0.1591680111831058,-0.615165559861936,-0.07170637589244291,-0.1310593076422546,0.060427400186440265,0.16311464941669215,0.1186838811605217,-0.022297299234800727,0.04850508787163928,0.44988140311600594,0.06650086227079614,-0.01846843065181453,0.4084657088034117,-0.2347236039270212
,0.02418120486631098,-0.17856572450885855,-0.0795577108874497,-0.13747667022392648,0.001028130175733665,0.12688277453818386,0.23834368555562802,-0.1034360479463952,0.10811862078133265,0.38174614948909347,0.1460406165853921,0.01876822238824279,0.5479005733843234,-0.045308103188435256
,-0.093721070499339,-0.031080630386312667,-0.14532837081737957,0.07805249131463157,0.010762347689466776,0.029347724747833023,0.3171888684858187,-0.16939403466400996,-0.060190850776604264,0.15469438526601703,-0.08074457474611559,-0.12407420656414153,0.26102961048381723,-0.38848873006782453
,-0.3734040872661029,-1.582553333794034,-0.2768779662161625,-0.8209183257913386,-0.2775027315425157,-0.1876365712066147,0.13318406892985934,-0.15128074863492555,-0.2500522438919392,-0.37682052669345867,-0.7082408752034803,-0.28018542538830465,-0.7857447328332702,-0.6472949750121857
,-0.5261839569103334,-1.7210231488624037,-0.19273352928802337,-1.0538709431178348,-0.6229228616523876,-0.3676401324296441,-0.26437979967093833,-0.3293603871310865,-0.51237241451876,-0.6429399452029216,-0.9485456076522453,-0.23623214808067758,-1.138651574058859,-0.7769815666126387
D1,-0.6361256493610378,-0.503297037876531,-0.1296473590238575,-0.7578964561769328,-0.4683297174483825,-0.40934506135389137,-0.246925128808051,-0.36638674975297847,-0.48142856479072543,-0.5721720648668764,-0.6935186857154744,-0.24114205561109325,-1.1584084686893887,-0.5907449534660293
,-0.44943362650029783,-0.06828622574740921,-0.01804263960082827,-0.2847958695480826,-0.008938991793380192,-0.420855903309273,-0.12779337686418513,-0.16836965928233544,-0.2789696585935194,-0.3440259022953783,-0.5768208501140917,-0.29948897196991836,-0.9418450434667934,-0.40660508195892836
,-0.2447369430445837,-0.2254978758746186,0.004845005669639161,-0.10925318560169305,-0.030053095811404296,-0.16222532831736736,0.11931896827889171,-0.08998266759226484,-0.026143805412554053,-0.1038625772605776,-0.347274581905502,-0.233456800960562,-0.2906620530833913,-0.2863325325168887
,-0.09555479129419342,-0.2980233224387334,-0.02151732941618465,0.05884451263362464,-0.1637564099926367,-0.13302881040798706,0.3835526257420899,-0.10088640792604242,-0.062049969314504905,0.028606014285731562,-0.10870639690863283,-0.2607239434196483,0.22612176982396845,-0.08391888427405043
,-0.08576940828043429,-0.39637439020784043,-0.035338826279814606,-0.09773793230184101,-0.2922467526498175,0.04079014646745679,0.20022223994161867,-0.3364578597426679,-0.16181806250919156,-0.14490530203525567,-0.1362188191552709,-0.0298206708266488,0.30513105392692985,-0.5730875076940853
,-0.3082967703166327,-0.689973693043865,-0.06466546612518938,-0.2120697114115334,-0.04461796610961598,-0.01030501281345037,0.03360617743216936,-0.2819422613194463,0.06500237592830312,-0.09713819723465784,-0.22639993840753078,0.014193721021157334,0.14466517741098495,-0.7906583933889781
,-0.0836185843192858,-0.11407729912958209,0.058201357295916696,-0.10852180755685391,0.22525070088360302,0.03885559533067966,0.14408391911171328,-0.1581574369374401,0.17071008917691133,-0.02573627270009683,-0.013263523701041195,-0.11788102296718517,0.11721172465370149,-0.18385494398799285
,0.06794162713705164,0.2594372391173455,-0.05153134592093995,-0.12551186827332292,0.30711248019669407,0.11100959405914311,0.05949049983823803,-0.15120676079600404,-0.04456007890969946,-0.0963581011594459,-0.09994112806553615,-0.03416876894267485,-0.12195599067883958,-0.06863942608895242
,-0.21723395058986625,-0.12804203757419028,-0.2062649912267061,-0.1865531411359423,0.13437800668882668,0.0811793867274837,0.010131046617209412,-0.0779483835667847,0.020203205895644876,-0.3230797536267866,-0.32093868512228446,-0.0898525324185654,-0.2205216609247354,-0.35171853088643495
,-0.2875954839843689,-0.2829808652077626,-0.12461118211785832,-0.2655637857566354,0.015322977427306301,-0.00865581092474353,0.04402587649005509,-0.09677263600667858,0.04845464813592276,-0.13658751442285405,-0.3334952637416336,-0.29384671097775306,-0.3144643779112358,-0.5380942540891278
,-0.4164485908418113,-0.37772240193032486,-0.10482593719193618,-0.11596143251591794,-0.002748213156982568,-0.2008281936386887,-0.02438358517819131,-0.03153140592728258,-0.03342851745313281,-0.06957809744928044,-0.35635528147443146,-0.24319778177973747,-0.15774807889189546,-0.3339348771143285
,-0.5221630404324369,-0.5396025746937897,-0.14409158826285212,-0.35408257924185327,0.03579747516944553,-0.23294767130071697,-0.28299473934982955,-0.03765776232480256,-0.10885319294349893,-0.03256182169745877,-0.5039088233418414,-0.26880103155373397,-0.1597223710942162,-0.0732516068656742
,-0.31001238498693046,-0.8903305245689639,0.05512240117648238,-0.5571214337866227,-0.14974250141808676,-0.21660181420673544,-0.316865514843778,-0.150924262278108,-0.08624857991540293,0.06094909324157631,-0.4060689803708595,-0.1767066461215746,-0.16286198995301682,-0.4040501645973728
,-0.22509679215925746,-0.6881837798915457,0.17087150485526326,-0.2127130717998701,-0.1277133511400696,-0.19119490840173642,-0.34404809658299323,-0.05236290081431602,-0.24738658707530356,-0.030219821072732803,-0.45232748053467675,-0.12226911929048016,-0.09884251592529034,-0.5026765864648322
,-0.08671163868249002,0.24202135511178943,0.08610387131293862,-0.06693697038626815,0.06927112326759736,0.05868901512363769,-0.1831963479907458,-0.15729083074501918,-0.32375142514271904,-0.15624423006653604,-0.31637563271393,-0.10718294656288894,0.026599067995212982,-0.026473809050034124
,0.10484025527708583,0.2286990937022308,0.059764419832511635,0.21078719859640158,-0.11134828094848988,-0.0020780435162125084,-0.17256078363314253,-0.23134839459343748,-0.08098249969448101,-0.016168865179678305,-0.32013890086757274,-0.07917050632719587,0.2803237878968538,0.06885575332653356
,0.061603457351573805,-0.3742267172101721,-0.05570006408215399,0.00014378195139907077,-0.25250741431737944,-0.15213928628214074,-0.2598781451790184,-0.20698709261934475,-0.03147759039942632,0.29689022989610947,-0.21216076851945134,-0.044197916116515426,-0.28946469815871484,-0.04135734545388782
,-0.016410999377585334,-0.5641719407389695,-0.17950507953804112,-0.3061409730808844,-0.19927907208297838,-0.25877575105735257,-0.22480047076986004,-0.22700977976886472,-0.3181959041673894,0.03594131102447142,-0.33473351409042273,-0.026072044958768633,-0.6157520613393554,-0.05282891402868168
,-0.07847453821667737,-0.23344972956355903,-0.05544180687737407,-0.18015878055357518,0.136153826873768,-0.27485526998031345,-0.14303126166351515,-0.279453238939597,-0.18737081966527033,0.17629796729227734,-0.5129706761299446,-0.14185711847176205,-0.240175876883963,0.04662164402329258
,-0.2148090149696887,-0.0998445132262599,-0.09837031017178208,0.10204090507435362,0.2161700035556374,0.07781930725491466,-0.21530243977495797,-0.2495460129541407,-0.175088156247042,0.1118458318681891,-0.27987411580617505,-0.14989790530633587,-0.31117664044144755,-0.23439341651258697
,-0.149764583993985,-0.2566184840548451,-0.10381563175241068,0.36272157960239165,0.19801916744265485,0.20579928806236988,-0.17155542468432183,0.1362746835178942,0.0442104024310542,-0.15630933142784212,-0.5567927398516029,0.05973568868714163,-0.028946052733061438,-0.209736463078017
,-0.05083694017171652,-0.16771621593195948,-0.018569888984497043,0.16365921151342433,-0.1944287137139831,0.17187218775024748,-0.23223624125962175,-0.10172099294533829,0.06075794051432283,-0.07413403396335376,-0.6101313396308187,-0.18626137477586702,0.02579216594492886,0.19209834780317878
,-0.05847676878679235,0.017268332266244545,-0.0036916406889578634,-0.1462406100192778,-0.4082107643078006,0.006820161563233093,-0.26108831546924127,-0.1359170618242408,0.22836524510620898,0.34697701335601444,-0.32704489424634015,-0.28618260654607525,0.005213707918350122,-0.08202224046504746
,-0.1384329006179825,0.027835976597730055,-0.11198523738864578,-0.3858532809429557,-0.2777385685443028,-0.171485999735674,-0.0009228035456043009,-0.14801515534251855,0.1270866580899862,0.2845131857310285,-0.24861237372797318,-0.06368139458080593,0.03682429977363039,-0.10608973857806277
,-0.34339408138897193,-0.15796974662552946,-0.19774062523725675,-0.3879915248629233,-0.2342182097393443,-0.08185178949571825,-0.13867597536074638,-0.22645489029036425,0.09583515512606239,0.09976204895794322,-0.24679619399125927,-0.13457775933838165,-0.14802989822498244,-0.11311288647632345
,-0.2152900145642095,-0.2654403367594601,-0.16707826582279967,-0.027474037856360087,-0.12009942642616302,-0.14727102176765883,-0.2519716611911048,-0.2504138377202971,-0.17225742986288148,0.16641898128276034,-0.5775355426640355,-0.30072049053331623,-0.22931758793280924,-0.17101589218896293
,-0.3399649190780645,-0.1029637129585812,-0.09201280899141548,0.28923836900954963,-0.10493624262586904,-0.04653536639902368,-0.17349139158434715,-0.20673985143454804,-0.22472151155708106,0.18463145736829964,-0.7792868311577626,-0.20483732466354257,0.2930866048891273,0.019633825727447703
,-0.513095258807825,-0.280637202108479,0.1072208413138291,-0.09246483033036997,0.061207067559957695,-0.07867299426589275,-0.2828418117692827,-0.27442034846745594,-0.26897525971315894,-0.08445597358917173,-0.5452044615051049,-0.10752303262855271,0.18482443499873,-0.22576604290008748
,-0.34336114275172885,-0.5136292229734238,-0.06172215609586455,-0.25995328836725695,0.027916887540338862,0.0402107144942767,-0.36789417703488586,-0.2787628964888244,-0.20677039144317252,-0.052906041636031444,-0.15053241724321134,-0.07628464136845299,0.03029323108543149,-0.03418190652496454
,-0.18105871056958708,-0.2948611578644957,-0.005119392810313246,-0.2795533683407108,0.09503165388878693,0.09157479851324876,-0.10307003898121402,-0.057683292541564186,-0.06615914352222402,0.26777182680625733,-0.2890714873265993,-0.0659527075993856,-0.11979389438908554,0.3535278010168797
,-0.15620147168096557,-0.07028847704373126,-0.06581699749315503,-0.37753637187803785,0.06535285192365523,0.186471986033095,0.13748759759014254,-0.1847020067099925,-0.14690242101255785,0.08482329551727247,-0.20442954432276744,-0.06139575886976876,0.17628318510062696,0.19702428080414994
,0.08749057478824834,-0.27905723512546726,-0.0779530963583282,-0.09658125128659545,-0.11646816023378359,0.10927436505223607,0.11844003853493226,0.02104109362248359,0.0015391731542927028,-0.27965591635217407,-0.30866650041318433,-0.01711238494566305,0.05975383186268607,-0.16344491817264614
,-0.05329451985997688,-0.6046402701515539,-0.039248385530581215,-0.20776654849120985,-0.27806240651268344,0.1568522376371851,-0.04997946651841512,-0.07323257971429233,0.1580345396853481,-0.1636032074183908,-0.2994530125989207,-0.12944980379520407,0.08632360989935575,-0.3048951204294906
,-0.35918858359179345,-0.46159524566879384,0.029240286733126824,-0.27366544238321727,-0.21035515566829258,0.12566394358725153,-0.2194944863536648,0.022442886726531906,0.3471467722602805,0.10052860150308872,-0.006993951452363382,-0.08828567568456541,-0.006550915281521348,-0.13823540390877398
,-0.09992206971629845,-0.4088284284128235,0.06592694521047396,-0.13112969576093775,-0.02049906918261414,-0.11927395545917466,-0.12504038614969804,-0.04145280784047843,0.15111437573136355,0.3223784074465128,-0.29295341660516866,-0.07701323491217209,-0.12375083145825236,0.3802847552655087
,0.01879504600494928,-0.002619533396826103,0.060713747569118154,-0.16654778908262646,0.17338308006365113,-0.09190690117737374,0.11428694020636496,-0.06676842091300274,-0.04876052400649348,0.2461594168967105,-0.3814046800730995,0.030814276670566798,-0.09176971902418649,0.100330847399188
,0.14451998966103458,-0.15553025158094216,0.035926422721278065,0.1338613100766346,-0.07867815425028116,-0.019103168187369488,0.18195918534884278,-0.0763326800356748,-0.27102817992007916,0.15522605832104477,-0.20763756436241634,-0.13372620222381332,0.28642601870133944,-0.17158706559069054
,0.010535286755518973,0.07871751774571596,0.05957513016075472,-0.06735975390822536,-0.09972520374898405,-0.20718264483414583,0.19471275327780505,-0.022285925772661006,-0.05358212288754933,0.10072656694315313,-0.23789649160674975,-0.05435250209893751,0.32623101235432655,-0.1002659396436965
,-0.17011776656031571,0.09785385285068228,0.058418702054458864,-0.2455911465229356,-0.012975135554100237,-0.21497157528735306,0.21612533259229486,0.06852010912494477,0.22853061137305253,0.2489148259679215,-0.1836872747985394,0.035932843363563366,0.40408270039033056,-0.2301805353038638
,-0.007342080362702321,-0.2859179721972949,-0.08639598781699954,-0.15846658810495826,0.24234300478190163,0.03556607582841233,0.2193949757007097,-0.04447820905777468,0.0813727375995658,0.12276683470336916,-0.09005082402730424,-0.06320511912094486,0.2586438531474526,-0.28365142107928787
,-0.06401003682341497,-0.24431594211958196,0.08000186315546311,-0.14679123290761487,0.19656633781542748,-0.08251559694538405,0.04783972082865151,-0.1365888381694991,-0.07787072321056372,0.0019877019466448083,-0.06566299228395571,-0.16078655456678237,0.38199444390005716,-0.1430614551523061
,0.18936484974611584,-0.10233924457514298,0.1209056719660205,-0.1924044382681541,-0.017907598254856227,-0.021427700986026924,0.01792369419631431,0.09004247513764685,0.12070298652682575,-0.011253280729079999,-0.28577878479424074,-0.12149180434948362,0.21290501531779948,0.12450644032524372
,0.47702592093062274,-0.21363623862898182,0.06306690603269202,-0.011580728914891657,0.15109119277158362,0.02698770203190522,0.16179879030056796,0.3421374763084199,0.19834827572617758,0.07261690172814582,-0.16791815027343146,-0.03391406929565066,0.13005439992041745,0.05993064879551658
