event,eeg.af3,eeg.f7,eeg.f3,eeg.fc5,eeg.t7,eeg.p7,eeg.o1,eeg.o2,eeg.p8,eeg.t8,eeg.fc6,eeg.f4,eeg.f8,eeg.af4
,1.0063060287289747,0.13809354498361653,0.4050249757382596,-0.6063564916688956,1.0173826914664672,0.6051916075896171,1.0166817867683438,-0.7848257561260843,-0.3592334852310276,-0.6066993716967031,-0.3057956551410204,-0.13328200973213458,19.93496787135787,10.045547314899318
,1.1459902232795596,-0.42053161039537545,0.29967811880181056,0.3502562747072758,0.7416176110557328,0.1685214009266353,0.8158677659297418,0.08834613125885322,-0.13497671118166815,0.07841887949818707,-0.6711592569468589,-0.15878547072577154,9.933669776269074,26.436906935934022
,-0.3214619232873384,1.8310924093869245,0.228573607263175,0.15300332910896122,0.3031084225384507,-0.3911963544069958,0.29797238289271055,-0.05763224610552496,-0.10739736398275236,-0.19086862412696215,-1.1911943317264655,-0.509774154875013,-12.91269279824714,-4.960360290655231
,-0.203448233146164,2.4513475091336185,0.48189406827877745,0.014099865165420474,0.6043992462533399,-0.34409277198938193,0.24596494926850393,-0.723135882547731,-0.6188852364859333,-1.1000438311466583,-1.4772076754752645,-0.298253044953921,-22.4833167953765,-3.2134614061191034
,1.0864628081154692,1.048652837519855,-0.08104526284586151,1.0494143369959077,0.0899391266976325,-0.350198211154041,0.2973119945546409,-0.1304239502293893,-0.019951611968710665,-0.662867859804314,-0.975050300551745,-0.14312836653045985,-16.097863563906433,29.27671334860139
,1.599461384062854,-1.6906480699068251,0.09698172039625923,0.349983261465352,0.22735001394940108,-0.322352532905076,0.770705912580393,0.4324337767546445,1.0644450393028462,0.9893928297275495,0.46781016140263776,0.15101709107841316,1.9647195970164084,37.94505669628056
,0.892309393450178,-1.1131530179376732,0.26769151474437697,-0.1789451054286015,-0.05115186691911849,-0.7179692823022489,-0.04684947733045875,0.3480966917199886,0.34750496940672876,0.40835287736104653,0.26578914118114655,-0.24299305349400563,15.197432458354935,33.23090769673327
,1.3358200270730574,-2.786910797734764,0.024644528515172532,0.17824499188602855,0.2889532078956036,-0.2811360766518019,-0.1330666514078998,0.025760464112124678,0.7256650350468905,1.0166625563108456,0.4814201037428533,-0.34650025037465176,1.2734019439111546,24.694696429194032
,0.816838282515576,-3.463673346879024,0.017574180536234645,0.6302552334806537,0.9323893173464064,-0.43502753691988827,-0.1264273979285089,-0.23320306593419324,0.3188166558956251,1.0912838128334374,0.43118880978393725,-0.009030540760136945,-1.2169895966006512,26.811816364602148
,0.3207435328505086,-3.12967528859358,0.24842605763677558,0.1811070477751987,0.4736318611102102,-0.5876103166880626,0.08518683269440365,-0.09204166160413486,0.260604973099464,0.30185763987001385,-0.43834758380387784,0.392732045971297,6.0602447740097825,0.5800668344105447
,0.07799275095861402,-4.876557164220229,0.2980760613184257,0.5264055890073441,0.5722182787571592,-0.3920952026332708,-0.158917923607369,-0.15086047296184352,0.8108590623161311,0.4843793220986806,-0.6368011406708525,0.06243785244265679,-0.86508143268454,-1.044770922602011
,0.8976532748398331,-2.467594112739268,0.18028331554739782,1.1914101564244077,0.9153117106176868,-0.05142845443956065,0.2620187154338941,-0.21665541047150064,1.0595697005605618,1.0028120417136157,-0.3496921083516806,0.08489876668221805,10.82600057255439,32.42105012935965
,2.006658161555688,-1.2942693488355645,-0.03295282482556954,0.1683259616066259,-0.0015887230441684755,-0.4747211167169236,-0.7104917636669078,0.08411790280831838,0.9012944126803897,0.8952811241054436,-0.386886768883073,-0.5089612690406224,13.308243147533881,37.7797073071498
,1.9823514619972158,-3.9460313056819745,0.20339905624582505,0.882240111276897,0.3778248926355274,-0.4760800586833256,-0.5738096214394188,-0.0754896551512269,0.8353670680148569,0.7423461166445197,-0.42937798675257777,-0.5205866295030834,17.747249116482383,30.591636133784093
,1.9862770280152908,-2.6755822093577497,0.30612090471439285,1.1508787953351156,1.3589235333986764,-0.13758885745279062,-0.41647507509620063,-0.39548983326280407,0.4202847974551238,0.44318094928541124,-0.44580450419589046,-0.12421887715357365,18.87285377432065,16.853988420636707
,0.6588240492278559,-2.3423360283983583,0.381300022038031,0.5828399729667758,1.8680833607665124,0.448797445267476,-0.34874177376648513,-0.2497979105932543,0.48617339192245174,0.7682480282054056,-0.07994784287388701,0.388621711026366,15.416637790837395,24.491125056375225
,0.4394404896539827,-3.5620239575871118,0.5882455624505354,0.5798494004905396,1.9638958692385435,0.8855171092856886,0.284981578973475,-0.139024355195972,-0.049438165294598685,0.7284142891868751,0.5891925023415376,0.31533183636322243,10.982670418581973,56.70833952720467
,0.9878196725908185,-2.3731985753562324,0.2658619887049055,0.9445635730407933,1.5695336378093507,0.8507151247320676,-0.16196401930872034,-0.20962111390571952,0.1036204307391241,0.44251896368558896,0.20276129325763367,-0.04445956728858264,-0.8159854171811917,45.1246355632937
,0.9722139959020395,-2.650228799913681,0.13933313979685558,-0.24538123446248075,1.2331966707257664,0.6348439561522352,-0.591704951576772,-0.4601707457030101,-0.3507075167783318,0.6976295271973405,-0.10901642046824157,0.05733153545052908,13.985511598161922,51.78683657018879
,0.47895395887580333,-4.047047302306764,-0.16513089084691865,-0.5332592275338697,1.6714063034786595,0.5400570858830989,-0.09387879309667374,-0.12069996619935675,-0.014758434045515996,0.3010374312467915,0.1632581290854495,0.3576820542881586,24.40638784431217,27.70711629598531
,0.026783009513975577,-0.5521871635617246,0.03096890681039229,-0.14125086746561763,1.3246970321972393,0.21385565568598155,0.3276200129325703,0.5438593283134564,0.2491474496146813,-0.5648126840612947,-0.3893539997708963,-0.29231273961518517,21.470991203740475,-11.448372807971946
,0.29315002442862564,-0.9982799015268453,0.22192551048477777,0.24062210555298755,1.2277198858952862,-0.07768937685478981,0.2774438447657362,0.07839088227621044,0.9926274585089423,0.2498458342187575,-0.19380286149687787,-0.15712014505560776,16.365751035293474,2.3553883929249912
,0.8406683009725793,-2.549139223529761,-0.11497304437793796,0.033952255984888616,1.6097247127507628,1.0939466531185575,1.105003274831241,-0.0512372626984997,0.6457299019558115,0.5510161349699177,0.18243560739229547,0.2676275477521508,-0.6564213602094665,28.32244835906131
,0.07738335697625892,-2.8629635556401563,-0.10445298977728605,-0.1684945356445577,2.339806768533037,1.3960278797568555,1.46797344551582,0.015607864677207702,0.5747798917855517,-0.1535899111601314,0.13230595573337253,0.21287515273558846,6.867682712324268,35.19468104177942
,0.5127922446651851,-1.9620447081659311,0.40525493772211746,0.564603196087322,0.8888825812010334,1.0612136597065926,1.2268821629202644,0.009795777320428642,1.0319933563180466,0.5171980729207392,0.3552711235127473,0.6814509183812884,15.960480587074203,34.63914133400337
,1.438818290109833,-1.3788656348218766,0.5729667577390946,-0.29368124410923974,0.9251123917039399,0.6722009338452889,1.3978488676462963,-0.09754361015202806,0.125308766903849,-0.2528682805998043,0.05891333991124526,0.779120807571057,7.081798445327762,27.014354940362058
,1.3265554476799644,-0.9151777909869586,0.43321106842830603,0.2207305797671446,1.2890848307017386,0.4557102417728634,0.10301169204411934,0.10504963544329012,0.5463922906826614,0.019274821106838667,0.2571144024274252,0.7792529065447952,19.059335987620603,38.376221279922746
,0.590076983959143,-0.39211972947995194,0.31074655196058054,0.6429586904691009,1.5683563403463672,0.7091460296046735,-0.256092362661251,0.06813533358104115,0.1852576925504954,0.6628424819163451,-0.09284039580126276,0.22613041835476766,15.468287539250522,20.893760640408455
,0.3134433828610873,0.07921038985568545,0.39948471363182364,0.6017478447360063,0.34166714355374944,1.559001710942781,0.39059665691483114,0.7120550210508617,0.014026339518794803,-0.04632558605422654,-0.782146717317785,0.24187075925346357,3.8754882405574613,4.113291997209808
,0.6617959347632937,-0.8472544884850498,-0.32688684798409556,-0.3197567542006271,-0.0011451520803519531,0.7789239977553087,1.0144134169211236,-0.17491049801160458,-0.39248415349350946,-1.269442259164463,-1.4938163268358495,0.12315718816434446,-25.451837527029397,12.409763989821759
,0.17798408649825975,0.8067499492563902,-0.4599610532551716,-0.5140942229281411,-0.3390372587050991,0.08925020414136431,0.4538155752766601,-0.5383723185235869,-0.3938571823037496,-0.9627673744512041,-1.3519315467862256,-0.21304751044483974,-19.93970321598068,6.726759782208496
,-0.759128778791917,0.7427334403377551,0.4284099008797656,0.7790501414727148,-0.6584332229344698,-0.18253925011734093,-0.014991613497393525,-0.47277445039713467,0.23718959012066632,0.07260609640249437,-0.8958446812192846,-0.14781459556922533,14.584573979557925,-10.062714781518551
,-0.16219249769952993,-0.22363627308770018,0.1814672415654299,0.6351370660845806,0.4177076113104382,-0.43170570474346004,-0.8805098814238171,-0.6867356556430911,-0.21274997103238047,0.16080165204800936,-1.3028690487907169,0.0086267786486992,6.707121094829999,2.3986358864889747
,0.7676688716444554,-2.8087218362195348,0.1414530336590383,0.32180509524174405,0.24693604659281443,-0.08638424076608135,-0.9415200509076835,-0.4756555824760185,0.0204158118904813,0.3707586157017701,-0.9217526905893196,0.07902049469651885,13.776378081971147,3.6512725390759146
,0.8971951485949229,-3.403628627720797,-0.4217782515617232,1.0633631228574003,0.9797457582059179,0.7243340528284529,0.5991675038756,-0.38069013547677544,-0.11296932666907077,0.5568974201847985,0.09175526759368129,-0.2758495910155843,33.414680853918945,14.298738767000227
,1.224334891985146,-0.08102293394311202,-0.39858025147036963,0.8767603083873047,0.07973465504810466,0.15861262422509717,-0.12567001479324938,-0.4928980175669582,0.729259944899869,0.2948730160252835,0.11569041607442189,-0.3693574973016143,1.7868956771878712,30.336573566795252
,1.1392156416816182,-0.4124523766008396,0.17748760940433878,1.1438713128561615,0.22546477350735705,-0.1578766796471861,0.4525129974276399,-0.2047846196683978,0.8948752553905986,0.9362777975419886,0.24469451419318095,0.21067703978449617,3.2921772467064576,58.04739899668969
,1.5807830301241717,-1.9285405106490925,-0.029016752464046926,0.1839268245125151,0.16055510407893048,-0.1673182511080023,1.5710286315958524,0.6458486588629168,1.3444201048893034,1.6562024638378068,0.06230973210217725,0.09131161616028131,8.875987286088211,41.739306699664695
,1.241902399624664,-1.1470070654085174,-0.08195904489402996,0.2370555446551658,-0.08050172419444242,0.13070579057506587,1.3447008384711663,0.007729627321988658,0.9925078541672171,0.07849395842028833,-0.5742101590443285,-0.21179801916415714,-4.117323877157791,39.47270799212404
,0.5768794045333864,1.3256402367119196,-0.03791876007660379,-0.48354606884638335,1.1398931146264768,0.31370702982232296,0.9080768685391439,-0.18608228162621337,0.629863863620371,-1.044227072132066,-1.0541392219807157,-0.2958671920406755,6.864816991133449,38.235884651975354
,0.7368750866314571,0.022387062345492596,0.5512400413044092,-0.03162997744294406,1.1867983449876052,0.638954123036933,0.8548771443507596,-0.026114563423814664,0.21338430353997198,-0.5713591481313066,-0.5043232521663145,0.21896122272087015,8.320565603559684,64.8945428779597
,0.7758797982797362,-3.988771197793919,0.5860973474856802,0.6100087794480834,1.3053260065249352,0.250523285542354,0.4489836443470859,-0.2616848012114903,-0.3409517478288748,-0.16105942202640425,0.4252380530951551,0.3759606905930782,18.36684926152461,34.91081154235284
,0.48450900158240423,1.8496971911761306,0.25229520835438535,-0.4567995536843919,1.0202975299918702,0.17469803928963978,0.34529452761342777,-0.42927596731532536,-0.49150323295831183,-0.7922580129952399,-1.0607572882426888,0.6323275438028996,3.3216035344935286,-32.225049403573955
,-1.154498802071625,4.701702289900047,-0.22573230033525585,-1.2943216658957652,0.1163455377224123,-0.7202879763926594,-0.2573778632267207,-0.5561309491953941,-0.04896556693008573,-0.9406780524307778,-1.518552950041869,0.012360430744354663,-17.382428816609007,-62.932678105128
,-0.7961107086629684,2.617552927334706,-0.3282816372621456,-0.645208084451191,-0.0870606417669116,-1.0711151010450595,-1.4795629129754437,0.18161620805936413,0.36337728155938603,-0.6529384121408496,-0.9037354430972437,0.14247993439155293,-2.2161745152312275,-38.03492083874234
,0.24792514799004925,1.2259181072819179,-0.4332822474577785,-0.9086313376460743,-0.5881105928919668,-0.3951758643653801,-0.9914518440774694,0.04313185282431862,-0.17695061454300076,-0.5321561477703748,-0.46299752442127096,0.30374485825987707,4.122582933008525,-5.723828043221074
,-0.03201046309657607,2.0903752289959208,-0.3330711780047995,-0.6857288505276378,-0.3080948084425925,-0.266114049744759,-0.5489799600155227,-0.2826395393855583,-0.5480804027198292,-0.4014849118732597,-0.11261685529473782,0.12837335987898316,12.281080498505487,-0.40081474766152003
,-0.440633060755082,0.8007524203190408,-0.011101058845322415,0.5206251806338114,-0.007112523217051974,0.18399851744677984,0.5518321647577102,-0.33846824647806023,-0.21067292076985536,0.5575586794393235,-0.30737614193790463,0.06881148319056417,-5.756386522037507,8.226068222913513
,-0.3999050733977089,2.5928855917560503,-0.12403015293358535,0.4874818832392655,-0.32203738588668407,0.7716976664841915,0.3624274937174326,-0.04963466519180498,0.43324607091128703,-0.1576509785468119,-0.8324866200593398,-0.27391630043436144,-5.157439636812244,-2.7320516854334507
,0.2593119018684656,0.8736531255366579,-0.4635426382735799,-0.1777753627740969,-0.0030764024288277058,-0.28611223496563937,-0.2836660791275792,-0.3908049348886279,-0.3291313233376835,-0.49256028680675606,-0.502194446144811,-0.2915619311766656,9.970266775369941,21.200248301945134
,0.5595169525473672,1.7790858796020972,0.04276435961168008,-0.19468793744473992,0.5687053835996951,-0.39376427815796855,-0.12133736229890758,-0.037513451240790946,-0.48647512583246494,-0.825803849433167,-0.5736324036901925,-0.3255088131371785,3.462678609065974,-6.77827584354651
,0.20356082426145994,1.5645125697008788,0.4184528001822824,-0.7901450143898779,1.1141957799619602,-0.38456143077391175,-0.37639749756931346,-0.019205480039060956,-0.1488857656814304,-0.37198168711901247,-0.5331487261927942,-0.1587717852553168,0.8008541192131081,-23.994004014146427
,-0.17358839729042091,-1.4622996378425346,0.19306549776120133,-0.4182676536639491,1.0362899728375237,-0.2707396361452032,-0.39425737499192975,-0.6040197101974121,0.014855356607957202,-0.1170327451700682,-1.4420957644402665,-0.3870580573941379,-24.12869558963502,-21.62070866079784
,-0.09316655988086664,-0.4035659911127396,0.07130713911394214,-0.6308679960995224,1.2391782680714138,-0.2887996892998117,-0.1671257826648071,-0.16082477766303527,0.6552194484202906,-0.36032561194624346,-1.3954306717466824,-0.19358925336229948,-23.343848569827166,-15.814084245274826
,0.09186282737266606,2.4880487838835386,-0.20137491837108742,-1.52031730367795,-0.42104153037555975,-0.1744194057188076,0.47249461726900643,-0.2974634818344885,0.4184310665047698,-0.221789626209276,-0.9055597156969994,0.3310437180150795,-6.912982073013568,-1.4521438680161747
,0.573142525157776,2.4878913425996787,-0.33004810505823223,-1.6936091878370418,-1.2538741111223242,-0.019432732493054692,1.1572730374093694,-0.7355382282468317,-0.21301736011478112,0.6536645655400164,-1.0799153540163515,-0.07549355900532491,-7.9409442261206475,-10.652789380337543
,-0.09678704791977225,3.08783507229825,-0.18111871079670624,-0.8429019874880159,-0.07152299367303823,0.416766931426056,0.02828328340318822,0.016277540864833056,0.2432040312673054,0.3531961001837519,-0.8940538586090686,-0.28195499713860156,-6.597545344940165,-7.643244066023847
,-0.7226887768710832,2.3664758333159557,-0.20048382731414552,-0.8642929108141774,0.5252924180248941,0.6172177970196103,0.11948060186476357,-0.37605219006133617,-0.01572523911059862,-0.7747966270027091,-0.8559917085325999,-0.08909297903753874,5.416825834502811,-13.288921511224416
,-0.5372166664785375,3.6296566905150174,-0.1266838604909769,-1.2289863820246976,-0.16318976108556896,0.18298826023714257,0.2600426524109341,-0.6567979698850862,-0.5830089035761866,-0.7638876215777074,-1.3635819142851613,-0.12776312466786507,5.709965584598633,-24.407327798964847
,-1.0445121009378882,6.259478939074157,-0.326239389703792,-1.237139226052888,-0.17119992927737135,-0.09542537185720545,-0.6213797308335288,-0.1946662594703688,-0.6268747108199272,-0.5258326086099157,-1.9457701693717242,-0.36199557352212436,-32.07426947836386,-46.80355358311785
,-1.7228963541978968,3.7793390722058953,-0.7727747215043437,-1.086909488338568,-1.0701598804507624,-0.21190615929822848,-0.6636206686385202,-0.09974916909814599,-0.4538888707646087,-1.3085038439748249,-2.1047139998363438,-0.7240280559999337,-41.181944750017315,-42.21082950893591
,-0.9352265943450226,0.43825449886268003,-0.1322619819589771,0.024077324594752654,-0.9377070149086136,0.44079577186566876,0.3022772183678131,-0.11529047254879453,0.5022728693016962,-0.03742305026055585,-1.537670228502922,-0.4226299332106801,-8.202518753770157,-7.09766110512109
,-0.9609830280437401,2.330254837200782,-0.06375740234857406,-0.8807362005105058,0.09132760273305605,0.3350252111816245,0.15072295992985693,0.1830314116657551,0.46189768599737846,-0.3813110580235021,-0.6664079746462868,-0.10386567115455006,4.507848869081059,-7.555334772892404
,-1.2897880247686193,4.801167817263071,-0.35397379590312533,-1.6499184925556547,0.07022670500532967,-0.14907659115480024,-0.3395233011410369,-0.27561128164791054,-0.39308887776201296,-1.010258975228352,-0.33565688032668184,-0.1882610164047912,-11.503988784256132,-32.195560264884975
,-1.1871002369666706,4.095146406442442,-0.3957678834420189,-1.3117136408696064,0.11432841801684755,-0.469237979867417,-0.6651303905431797,-0.3321591315817516,-0.20492084382229442,-0.7606039097648485,-1.0771974539717155,-0.037785982094696746,-20.417105085167588,-26.884506864564237
,-1.1383397658681726,3.8939087009697877,-0.5135088770121049,-2.0992384168335647,-0.5080319592880451,-0.4373436517563285,-0.4906155911698423,-0.2724579054883844,-0.8448722933586275,-1.5411620197797304,-1.666043166853005,-0.2686222432466331,-36.45928988402425,-23.085712064591103
,-0.7732359607887958,3.592746036265624,-0.382802108757508,-2.2823992714961405,-0.46695555203160233,0.10147137168147209,0.3676035030613507,-0.1503969734167854,-0.5092336567350325,-0.8035583471173434,-1.4671016551692715,-0.4792873814492333,-35.93680583033583,-33.26360743313095
,-0.5771271978571968,3.5049432974445636,-0.5750439328621617,-2.259258605607842,-0.14659732450341367,0.0793000978429294,0.40983273288572897,-0.7461727719012117,0.4744670093943602,-0.2394754883983612,-1.2787524415517242,-0.2748993931745976,-29.43308302895981,-26.242216771258114
,-0.6719246620249347,2.484697325101892,-0.48893411961173533,-1.8177451678043146,-0.10536758983756704,-0.07971636505113396,0.009823641050008432,-0.4339265150836672,1.4809849500713563,-0.031835818839260274,-0.6282795742881282,-0.19496073994029636,-6.181629237321122,-29.48945160202915
,-0.5654220182204314,4.484614587462747,-0.15211021364004285,-2.2171670559387544,0.1948709417966498,-0.05064259566107501,0.040566502558610086,0.20649777193994848,1.917812723954202,0.16973608623666725,-0.4094177466718161,0.09972556505568143,2.9262073917033473,-42.21479496098504
,-0.456013899212338,2.9785881444099327,-0.07829826459820012,-2.2745541502830586,-1.4520834089162054,0.5598021558759362,0.18517550416712042,-0.1645791719699861,0.9642665119720928,-0.1860244594551077,-0.6933203785169024,0.003211245107644521,-4.053268013327683,-33.88878276197237
,0.11635158877254834,1.5973273050439365,-0.25664657316443534,-1.6719672351650212,-1.9085032984989165,0.2341846639381032,-1.0241289079234175,-0.7734887519167365,-0.6038778399526675,-0.2543307671234234,-0.6613222442213466,-0.16294791060831523,-7.72867426669379,-9.43024741328725
,-0.15830778195565912,4.229159392703003,-0.16565701758215995,-1.4942238046784786,-0.4287225460642415,0.09340704928565645,-0.8762025856696106,-0.8660503463877574,-0.8223218456976794,-0.4917294499735626,-1.0369655075649564,0.014853999992621858,-12.617001711825676,-11.226928245751953
,-0.7949338853203964,5.219065516832165,0.07723674131054341,-1.8448058883769711,-0.3778803258767566,0.025938773634191212,0.060775864944826445,-0.26954237642292816,0.049599362114779486,-0.324650443554923,-1.0874176046042816,0.7198281584672307,-12.556895992116209,-14.31599899303223
,-0.5965912734393862,4.584001624589133,-0.28186904992951384,-2.225382574230231,-0.7999490174508959,-0.6178231570112015,-0.10197817984182483,-0.09868749490199855,-0.07081421436793532,-0.4226030559120316,-1.4986266777152453,0.2207004875303369,-23.56379867784472,-10.489412578889874
,-0.5828184813552252,4.2278272779172,-0.2929184621793595,-1.129496442936838,-0.29963263221030517,-0.252880067711581,-0.2599398960801325,-0.2063410616429906,-0.4793213362959309,-0.28744595690850255,-1.4028523372728212,-0.04626224321371073,-24.984579191011463,-29.23303780689231
,-0.5955027527255803,4.968501377450569,-0.15093656290353222,-2.2701841418235573,-0.6585882606347246,-0.3114706051661144,-0.055286859254187755,-0.2435429965661909,-0.3082661800360386,-0.5022161187480572,-1.0290776256245942,0.4050078842486993,-13.878453905653776,-37.23995360482225
,0.16486710425359216,4.2141781187214775,-0.0842717571276792,-2.258027649529482,-0.4184135507662363,0.09945582439820336,0.17751477818250827,-0.3125883461121107,0.28762908800422454,-0.3563569339283775,-1.5971337219132242,0.2927089129029262,-22.220451660473895,-24.671783844196273
,-0.8040652549123414,3.6690717719502945,-0.091288287553765,-1.4877046567561667,-1.0293128518767591,0.22927684163836415,-0.19526129831583286,-0.55569976504985,0.03786598792648642,-0.31207316941202345,-1.4274421035450537,-0.09665149625559355,-26.323118432936067,-34.60579283139886
,-1.0879120401763855,2.042816686883434,-0.20543120053071498,-1.1396017810398558,-0.3521755098078575,-0.8208530351368832,-0.7334871384448713,-0.4584400751683757,0.14446616126362558,-0.5064336057413085,-1.054466316253075,-0.04708721566587464,-28.542513193357593,-38.24022810132979
,-0.6190621994382508,4.313623159312195,-0.14532534400485897,-1.9590634527907438,1.245353287419364,-0.7780628885009688,0.13212195050789818,0.8372361963065352,0.8516427194780694,-0.4647357109325809,-1.2360153255533564,-0.10037769601471142,-17.184027594219422,-45.428564202809035
,-0.2864959495121639,3.440397044214908,0.1604172045768972,-1.4920583889697678,0.425108894588274,-0.04395302347500812,0.1652114076145349,0.6854835787064016,0.7663459869582824,-0.5660893406072175,-0.6829952968901102,0.23158516154818792,-8.77738287418103,-38.59819954936261
,0.001533999805523569,2.254969135808121,0.2248630528956245,-0.08174496128858978,0.44385904234848317,0.3614719798344747,0.418412717513014,-0.4461721106960211,-0.10424978350113329,0.10764624020675358,-0.17332444604199207,0.650301928768505,-5.852425383066784,13.890714340586548
,-0.5724771309095464,1.3495836062197717,0.02847761720431247,-0.6241411549510257,0.21576238949879442,0.8012640942540727,0.4498257501686822,-0.457358421860284,-1.2737641140751983,-0.4510953413268786,-0.5455997719460053,0.06216867110140172,11.306355848240692,-3.032192068673818
,-0.638824219869327,0.46212573563063697,0.10495115933328111,0.17398798471325352,1.4712736702363334,0.5438669035764672,0.803589233869742,0.43623399109833855,-1.871551519506942,-0.6741182253124087,-0.43153088582472166,0.12350077893592548,9.430648889648495,-10.589604040487487
,-0.247628316403282,-0.5367562800349822,-0.09017850979891576,-0.14717581408341662,1.6772464578172148,-0.22787278083328022,0.4470911536178107,0.39648286267681404,-0.7241592887708277,-0.19504276807264587,-0.844930046565943,0.10002646639612708,-6.537775743589301,-15.500085162077642
,-0.6708452845780035,1.9702465757260028,-0.04046267501452851,-0.8308547116926166,0.5006185485055431,-0.04687321373728974,0.19033011070621092,-0.03353559300752311,0.09578552065611959,-0.48494653762135054,-0.9444206336335178,-0.2135755132284413,-6.068720710042025,-21.280181382894245
,-0.8122230995891986,1.6927176185367463,-0.011398890864132037,-0.4172423719507209,-0.3038180856838108,-0.2807972063590367,-0.21578732442442222,-0.36837973054382955,0.11560031667767537,0.17475866595144854,-0.5090981516911939,-0.3280562047321156,-5.953329982385885,-28.195336981388152
,-0.6452116976298258,0.3439706265363873,-0.3005241101460218,-0.5659728945270804,-0.20674084208521704,-0.325834442552166,0.08535363521838348,-0.4392338955913678,0.1175345989883002,0.7975996038256673,-0.41896089973653994,-0.14808139502136444,6.135884533739713,-9.163910900479229
,-0.7018232615804019,0.4182441292935497,0.028731524285043733,-0.7203575943229972,-0.09881210960730527,-0.024302381539526005,0.35903459670896026,-0.6046346955358849,-0.641606850035213,-0.16432260567371187,0.002819416238511046,-0.24920370604544617,13.444868993631893,12.96375553030694
,-0.5181254165192206,0.9962509996943915,0.4603567346896776,-0.5356383651444288,0.3946813698478233,0.1475622862545421,-0.5774086514969855,-0.4178757982091247,-0.7755255411230627,0.12459153706820432,-0.486199816792647,-0.19308350445376576,2.2939927554677424,10.038441218147678
,-0.5671528778167306,0.9362733287812737,0.12455700189507309,-0.3144161132019983,2.5319147904315136,0.13611912546756094,-0.6213754979535779,0.10427034092242107,-0.1411448497512323,0.25635889854935634,-0.47433478191189454,0.2694401671060475,11.362249449831609,-1.6096512777965013
,-1.1370611090046863,3.0329055676919023,-0.33811013856367944,-1.6286999673749056,1.16195109368508,-0.11858738058804452,-0.5167086723952912,-0.33951084866504144,0.04708400135051675,-0.7582637466462944,-0.5951804989731356,-0.17334578773021111,-5.2446993108584605,-28.100486657484797
,-0.6259102272469687,3.441519435224049,-0.2681199752492168,-1.6353356433653063,-0.12353993937456383,-0.5229496412017947,-0.4691724209049033,-0.38953209989406407,0.03728341287476866,-0.6331393616495199,-0.7524625327010355,-0.326659531433777,-11.968428459200116,-26.701095060487216
,-0.30307661902461164,1.5504289829359459,-0.2595030933808618,-0.8519052076043432,-0.19940547021117172,-0.29385576831273064,-0.4573993431146654,-0.3491266171848422,0.17328699010459647,-0.38248164561219605,-0.561387200313531,0.18104572026230722,2.6475877138988246,-21.61536719641047
,-0.04159037625513151,0.11549344536340247,-0.04006042066579318,-1.0705315047651205,-0.586572624167808,0.37626814380829554,-0.006785542953262874,0.2972976594262009,0.21657792288027025,-0.3718568919823689,-0.36435928181882365,0.7542204383607094,-2.5979874367201,-41.01792349557454
,0.44014199851224367,1.1989321689658585,-0.07369152379517982,-0.8871402482838842,-0.5941569204511252,0.3353119242930483,-0.42993601632728035,0.2846025770100662,0.038051041767752224,0.28207874737429667,-0.6210103328989411,0.7221473357963477,-3.7734779028842924,-28.985497295153024
,0.031041847418711625,2.709366515155313,0.2377121786212739,-0.7606390719950146,0.35350100301481363,0.22368697246647812,-0.4182100834525073,0.2803322268725219,0.8979489814314634,0.5187185096739142,-1.02714720853448,0.5855267631756288,7.5780134284426355,-13.117440403411283
,-0.27264851990227407,2.023966169274868,0.2657748859991559,-0.7814100219550776,0.22888626064773568,-0.12908587009555442,-0.5413124724278212,0.14303686751250708,0.6488178648773462,-0.5232383492608472,-1.0552023245904725,-0.030812098015820424,-5.123597217880705,-25.917318202720203
,0.13117530413894615,2.556276347342335,0.29796937486401454,-0.6486413179518543,0.6347466322932827,0.31373862052515883,0.12275568480925794,-0.12749786453455317,0.5633079053899117,-0.6848876231367392,-1.1945108729201739,-0.2144228192409017,-11.134736635721437,-14.987688135542152
,0.5424360636511726,1.666456781293742,0.09720365014319388,-0.6321359353880885,0.40376616197951687,0.6198117715770103,1.31108623049388,-0.5244075090787004,-0.05485567766929516,0.23616270683275542,-0.705729138970895,0.45788510299342766,-0.9909973421205838,8.240493796110552
,-0.12044731267661593,2.7907914100463644,0.2560726380278427,-1.4552110753997232,-0.7477329124548717,0.3231401075532249,1.033555162802992,-0.10686090472534898,0.15183259325376744,0.346540863107972,-1.0882705980263314,0.055491709612673176,-10.551379654116412,-7.849155787119346
,-0.5927678651978898,2.538705234085183,0.16728340708178252,-0.988415885765825,-0.8519492946133381,-0.48861737125390753,-0.8851722746962287,-0.3290555581635201,0.2128723942120024,-0.651279802899543,-1.222507049426631,-0.11152789039085854,-17.09085471819023,-17.522555915164887
,-0.6095521389692615,3.131181909389206,0.09537867729947315,-0.8610459665929666,-0.475547987144704,-0.2440945712478844,-1.0979622510059714,-0.5371310848145404,0.1966355580191017,-1.1714475783453295,-0.7238237197782856,0.2631128303145591,0.9757209187041388,-16.372204699256898
,0.2702848813841293,2.9977761712870694,-0.16637065449517977,0.12195512756391352,-0.006900163737064293,0.3810715644157987,-0.19604294362641048,-0.22377411368607053,0.32662932917687665,-0.402846794489257,-0.0846846862032311,0.18656621112449073,13.929885979876483,-3.9152245362564946
,-0.4841851365068988,2.042611480998942,-0.12654726474870032,-0.7628321177500281,0.3672057131116258,0.1158763329211228,-0.6765505061509024,-0.09829050327312232,-0.4841365983414093,-0.4145473025294742,-0.11744851611858335,-0.17551049439729718,0.6251276836594636,3.8977766720640403
,-0.26993567058681733,1.7191102111035497,-0.18208718073354668,-0.5265436603702703,-0.15057791664412176,0.25568542198506566,-0.8960942593992854,-0.2964868085922772,-0.24237898867431776,-0.23243212765017027,-0.212501807615192,-0.3212252003660742,3.920005048908032,8.043261101523814
,0.20343925125060075,0.02406174772695664,0.04323884740005589,-0.05312240244279796,-0.4330897173630059,0.5414178816241654,1.0708994348868361,-0.5031188163016581,-0.8512099447096877,-0.5012516093862639,-0.14958210995057053,0.20382741402774548,-5.004832956462111,6.089641236409011
,-0.27374350747829707,-1.175575663976121,0.013032585916391783,-1.0115026827053182,-0.3279077530217419,0.15981197643838016,0.6962956292096797,-0.7285166010119807,-1.2695136160500327,-0.6357651782879655,0.19146402712828325,0.42961053490150686,1.7166292520405553,-9.773560485738873
,-0.19974391769352337,-0.10729689223072479,0.2643547575101283,-0.844993441151197,0.35597989773225974,-0.015390280962547579,0.18465007685342016,-0.1228013576102267,-0.6197395595961934,-0.43464198379764424,0.24396677693092278,1.0503498234325221,10.341193009246425,-10.954105951894867
,0.6928835007910038,1.1996348567233992,0.36220564773313774,-0.5836557608344503,0.3593194007054858,-0.05220541850754228,0.7044166336680069,0.34098832423876896,-0.3683899005186264,-0.3776699516110557,-0.12715553291027373,0.7636067918736782,2.8193520890943535,25.624262757896673
,1.4934709715117547,0.3551254031541988,0.30300144806041107,-0.4011797114514994,0.8634116067679439,-0.04178985118773197,1.3312936417616155,0.15164831145414556,-0.8045323054356543,-0.2872049518028114,-0.45403745724191436,0.41767614723919894,9.670088714758503,65.26929284006336
,0.9930770376826414,-1.3370553444746656,-0.07472986507039142,0.3043517352212318,0.7572427738733005,-0.2955650461923594,0.47128256729387147,-0.011713425102674743,-0.538715223444153,0.09381195321687744,-0.10919760692079854,0.2933446301791349,18.294480075761776,42.0400957629208
,0.3927206757207401,-0.7496914203758961,-0.12034069284615831,0.8609448219526994,0.36947345315286384,-0.7640246133032332,-0.28566396671526817,-0.030191427012166684,-0.23657575841956616,-0.0768129893582656,-0.27863578765838704,-0.027045319076815184,14.218463672537437,6.351269741741993
,-0.20562380662720972,0.7737320646635342,0.3853407427972026,0.35717337246839836,-0.7069374942211037,-0.8777725272681023,-0.3654097453741885,-0.026278930851589326,0.23649284328050987,0.09189428764299731,-0.24804124892559923,0.828090642757908,14.218860066824115,-18.070240785210572
,0.09998863752351961,1.24983632023322,-0.06649953535253181,0.26788389650271577,-1.420418894254337,-0.7811870147001224,-0.23290967872423968,0.017179756545445353,0.1368200806422247,0.167304513024394,-0.47235465637139423,0.14394158268890822,7.359653343745238,-0.2126233400117207
,0.1476988013022559,0.9793892760227861,-0.27752260889958136,1.1292057110435725,-0.9447610266020952,-0.5424223038204508,-0.41136819258839125,0.10487618377036098,0.21765535117323903,0.4857145113265153,-0.024373577656885918,-0.0987413512509365,19.601768298352486,29.320807897331726
,0.00805256358672748,-0.16397809488077664,0.3980119915277444,0.8813813713452261,-0.34134156561154977,-0.33319920607575265,-0.07819984432149653,0.2196330923075681,0.21334168208511436,0.7469448271621606,0.5264617054394627,0.5162532645975472,12.330498759592377,21.821588379066245
,-0.4019443290612652,-0.3489873126380986,0.49683261625827013,0.020133303035974368,-0.5277923176016699,-0.4169375379384202,0.07183771216185142,0.8634576261552134,0.1473654986199329,0.628329598133575,0.2752953066955123,1.7215285933145155,-2.672080180262558,2.8486582508535165
,0.2350813519932295,-1.045837652523357,0.1703700426765151,0.4457587436982024,-0.22656654205765922,-0.2855008906676296,0.2687692037604163,0.7963966751657982,-1.665341311140611,0.8800595088737849,-0.023118480709336177,1.120977130058537,6.168599040782205,5.790407732826812
,0.4084135969572252,-1.1899405122622302,-0.3609290489686322,0.6052682228441371,0.4405970220112968,0.16607911143688095,0.688276842853011,0.14631472803911844,-1.7518142486220312,0.8220950916859918,0.20220452213208534,0.13865922941303271,23.29646329920812,12.18250131809427
,0.8281742482242921,0.11755259025486804,-0.1982437575685924,0.7574955050126754,0.8537590342936588,0.230727539613917,0.7130617952438523,0.07217593699051436,-0.08779887411339009,0.5782948674591993,0.16330566307635644,-0.01441654402422272,28.433638111912487,1.030262416349657
,0.7471218525232477,-0.6383471844689194,0.14052467735655308,0.5043404811927225,0.7034817820668725,-0.16086802322811022,0.5012806046144022,-0.13387306553948017,-0.05652903607956017,-0.626649932295676,-0.13956235287477545,-0.14618161604544616,9.068699739750297,-8.878587939785877
,0.28621080362203666,0.6178846736275039,0.3254953971242566,-0.21675397185799483,0.26211097809702205,-0.4745435704213453,0.21223646237928293,-0.42260154096131436,-1.0904336576895193,-0.9970333024932011,-0.6224026951360816,-0.04553307289848901,-2.7780683395645642,-17.258171906830434
,-0.1940768141424174,1.3786174616782563,-0.15460710727679078,-0.6716251888111462,0.4372078576185559,0.1782454218291927,-0.0009606967979259414,0.22753200250464212,-0.7862701304009155,-0.3807091857285355,-0.5987622530316361,0.2767539816901636,0.07222740480421248,-14.233159349875676
,0.6222941775534176,-0.5665178822830326,-0.1692877166569122,0.5543043319333719,0.14225900768901784,1.4783073039452321,0.5565892604426922,-0.043563155294138865,-0.06061097825362559,-0.2749657009684477,-0.32661488121246757,0.03301654294322068,6.637711916540816,15.133857763838806
,0.37148591376758594,0.5962482449631482,0.12041888556623019,1.0427934616790147,0.4709097654582974,0.4505999299530458,0.29296219080442637,-0.5594419968134338,-0.15513754672515426,-0.035904744807178514,-0.2123714157149627,0.21510511531580503,14.411987298297033,9.216370489513887
,-0.5855835279360111,0.5232827397498057,0.5093867815101585,1.286411088181955,0.10366815418853363,-0.933893130960752,-0.7233104832906613,-0.6969551653737647,0.3577371171842158,0.7556029703915218,-0.5517578097112014,0.32625457086139303,-0.1955530190395731,-17.36480098681233
,-0.15542246925240577,0.1634250098478185,0.3151956118045781,0.4182888958589717,-0.34792217451300195,-0.9595776250608682,-0.5279867625121688,-0.4935415210609462,1.1319133856368113,1.2771771795716642,-0.29594538444118607,0.06224637290489331,5.268061651299024,5.5288179095682475
,0.3299860266866125,-0.6554715718788147,0.2245195841859607,0.3683248613818254,0.7258491251945418,-0.19333166420150227,0.3420699945775538,0.01795660866483243,0.8403549092670537,0.6461040004103836,-0.3208425622677001,0.17193422439746892,14.64995531635574,-0.7449442745223381
,0.3989057204749725,0.46357067138363683,0.02902548858041347,0.564979378824017,0.1623333209975628,-0.2833358144024376,-0.16190954348749836,-0.46365292632331623,0.42420484520716956,0.2360072839462922,-0.3973139952210553,-0.00667175150342242,14.869557226783332,-21.553800273725646
,-0.33377637577490704,-0.8775986287044227,0.029070110983033234,2.0447564780780954,0.22665771110771726,-0.06468597847192341,0.4854331721206222,-0.33593159801839173,0.23521653675796786,-0.20104983293315667,0.029587933391595073,0.21059282601652024,28.879661023382155,-18.150364008695483
,0.00996102101081248,-2.248893245492012,0.41090197823465446,2.294694052345106,0.6501312040832681,-0.3757941495162704,0.5544981955525096,0.1465132464784976,0.1040349035990713,-0.4090190455238996,0.29300228398416966,0.43971762875222387,28.7147181301625,-1.9065371965513205
,-0.001673230437874909,-3.378928412200733,-0.6100696593502921,0.8528392216627488,0.577397330531255,-0.4781585965649064,-0.4598077285606758,-0.05677160455326487,-0.15960650252037353,-0.27131364416782666,-0.09223427689141275,-0.4064912984903938,22.021813410954426,15.460049330882002
,-0.13547862150014833,-4.2273137783431505,-0.42699451011617906,0.6370321515731843,0.9823604594619794,-0.4609272707056207,-0.8251007390543934,0.21993960102473392,0.20294680723752337,-0.4882918701046715,-0.4264097812485044,-0.23886983957685984,7.974704802567774,-10.127133828481176
,-0.14724379004011715,-4.099929107193254,0.17365854826170404,1.156620106353368,1.4795633311652205,0.26418294535685954,-0.4056034299468956,0.3527465453553894,0.4516842573327619,-0.4176409024248763,-0.3182548496660611,0.10122793774529766,9.081890314907534,-4.840773172523291
,0.6316306434640314,-2.1592120270727175,0.6943905694165937,1.915176144578315,0.7882980197938216,0.33645908565491606,-0.42378424088277405,0.23017872826349556,1.1603336923996153,0.9006929428046363,-0.09385386546461492,0.48446618077886744,16.88042740929654,12.979257118352514
,-0.4338523555374325,0.41708979969496235,0.08368462399071588,-0.23884947540839127,2.007566945863175,0.6549943432280156,-0.01374676117565765,-0.5921328327047574,0.0309517802065628,-0.5860833026155977,-0.9903691110549111,0.4234217540530814,-5.059530847528797,-11.37693629654991
,-1.3190984923546003,3.1933617954616187,-0.23236111708913038,-1.662824100067111,2.4021916082493413,0.7679613837452861,-0.20257157701209771,-0.9429518355162596,-0.2410773039104067,-1.1970910079789054,-1.740736146887756,0.02718622846614723,-30.0490664631376,-36.42583684450266
,-1.0791255229944083,1.7068876631195693,-0.24298611297875108,-0.9225213623998473,0.23671385327364888,-0.20118766210196518,-0.3323238068243344,-0.519617631830637,0.3585781903570888,-0.1540045851405024,-1.0669314589364876,-0.043088171211009295,-17.62749203933586,-44.24054461909883
,-1.0133884017334156,-1.2359866619193747,-0.06959080927362439,-0.009855452526181658,-0.3940112853632054,-0.4411195302106394,-0.45877748208081415,-0.28047113687423564,0.13987323876104255,0.45932464610924206,-0.6328122194738997,0.15066375999469916,-0.16879619653297712,-50.66810937157488
,-0.8019636119048592,1.576598807684254,-0.13266327736220468,0.2465168660143428,1.5639322536244424,-0.20005708622109944,0.026296030517679255,-0.26317355700867257,-0.4710643174657676,-0.36415815018223124,-1.4256272257370886,-0.23034863712936393,-5.061584094888479,-27.205482317496962
,-0.6037551747469103,1.7215333123686996,-0.13230954821931318,-0.20937094560198186,1.0082474202097413,-0.24751424182927617,-0.24027198496758262,-0.10423453465233593,-1.5434644712113639,-0.3762773467804197,-1.2662020441747759,-0.23572552128665325,5.068387963910538,-32.899339635416396
,-0.6626333646035154,0.7936086909746242,0.026279208241509675,-0.7284506857575326,0.14722354690612147,-0.5880045091143734,-0.8498772679914615,-0.7248069657747284,-1.4310619887412075,0.2903434835794231,-0.7656992640015728,-0.08862472541721764,5.436756734696978,-14.898844259109067
,-0.9472463050381338,1.6012500480995633,-0.19385426352660867,-0.6716507838011868,-0.5899791099602533,-0.6236858128555202,-0.6750679566752278,-0.5371975340448515,-0.6095958173406564,-0.11241489688515018,-0.5607946300477992,-0.10791718247569161,19.735584668102813,-24.971038163310574
,-1.2416227024242705,1.261887179674172,-0.3882104195761206,-0.8474347003289853,-0.7736719646136917,0.020330951630876795,0.4202423272231731,-0.9601424533873804,-1.0816327311981817,-0.7519400094061434,-0.5064730213420355,0.13476197871476153,18.61342735656218,-26.663336950562602
,-0.8295705722328088,0.7394174792701913,-0.1818442307986786,-0.6888742046780975,-0.542009792274274,-0.04760139958135929,0.47335799045496424,-0.5181382040758753,-0.42170338309904776,-0.7705844553024147,-0.6695223810449191,0.05088990412229249,3.6366624894160533,-33.007323068787166
,-0.46376180069706807,-1.9846088631535101,0.2814310807243995,-0.5953649381796211,-0.6301780595080715,-0.21440299766100668,0.12560226749191444,-0.4462339612959438,0.2550829167943137,-0.658249676771657,-0.27590678513545636,0.15054170527517577,-0.1238640684806602,-26.145027741058158
,0.06638826100493538,-5.703253791897465,0.1127509819034355,-0.5738538337549017,-0.18961845980956035,-0.05501135361932698,0.03498850275466471,-0.397510824025937,0.008890705016115469,0.22408430637545304,0.23832230342706448,0.13123193996473997,4.556903036757649,7.420679766828354
IR,-0.8577033292211718,0.014525369286274174,-0.3260548279866895,-1.2053457489005672,-0.7621262297593556,-0.6622998131633522,-0.6300850086016933,-0.5603038441294655,-1.0424402677816658,-0.053944398224195174,-0.33210206788709506,-0.4985412272002383,0.33090487322274437,0.28881620072748676
,-1.4121884195418417,2.313793769934542,-0.5344298651347463,-0.9623707800279473,-0.8545065370911837,-0.7374781339944656,-0.8759482248277878,-0.7460182714099487,-0.914741920658258,0.2336454386418532,-0.9685224463650807,-0.5475157619060192,-4.282117493747595,-38.771458801667535
,-1.2818780436507484,2.792576359030763,-0.605436046810979,-0.9234540532752963,0.10064683622091802,-0.7213970241907686,-0.8454727078998491,-0.6937732029247593,-0.039188804559602365,0.5305775282719248,-1.0943868775873389,-0.49677137952279654,-4.230623683844577,-39.62521458388191
,-0.7949262001726561,5.357339522851583,-0.5815841170344431,-2.338011218364675,0.6483016463171831,-0.9346238001703029,-1.541945592939962,-0.6983301737334426,-0.542695652276285,0.04574635727958479,-1.370887075514678,-0.9901480054169869,0.49122611798380406,-30.420906662001013
,-0.6148683187309146,3.670128625127776,0.13437602767873263,-1.88906721927768,-0.4967980565528516,-0.5878650320284025,-1.4851426955860814,0.014689851699587126,0.04537580432882289,-0.7296947782359295,-0.8097925206554448,-0.7124585573137429,-3.2664375963300714,-41.97206085257331
,-0.4909162923619607,0.9685230748162397,0.18038332231775733,-0.9348991604729698,-0.1231922665412571,-0.19477785059546077,-0.4588224591712548,0.2107331364649613,-0.16044495293059177,-0.5352016549448048,-0.32021106421032014,0.31094052745736406,10.753405848572445,-28.640945347185937
,-0.20844489663649843,-0.030588527562277094,-0.07047148815894072,-0.9699538987735874,-0.7496092743896896,-0.10823584632813157,0.8922842829291244,-0.3135839213365079,-0.3686369481829313,-0.31362393607533673,0.23689594457892918,0.2516271348480357,5.876690759183141,-6.989449961874714
,0.30140271110515576,-0.9954606221734215,-0.21223387013668876,-0.8476383696079833,-0.9832484504423981,-0.11957329203903169,-0.13549117203567784,-0.31056658644754637,0.0029506765626938123,-0.5973365602064595,-0.2565743720351387,-0.07059501082571794,0.5030197046441485,-13.715028426212292
,0.1549742275938666,0.15270284602008918,-0.007774711209290258,-0.5747340308778612,-0.31571548502847313,-0.13840756104597,0.40812082537071104,0.10001064951361117,0.26237200948191214,-0.04800487950320115,-0.5672974529468,0.5218472957159294,-4.178200746581082,-2.8290208158629118
,-0.17424118951865686,-1.3247330793025989,0.14008560596459585,-0.4828349307314034,0.38471911176793977,0.04222195922555381,-0.06852027869212114,0.5448427627558021,-0.48257434793550225,0.0959771626695832,-0.005597976946376762,0.3316051410452383,12.513357633171644,-11.427036693109551
,-0.7575826462548112,2.1686022905602096,-0.28971258887290086,-0.49846076957345475,-0.5202222120608785,-0.004458084380630746,-0.3303775272873647,-0.2757857377587751,-0.6910453083582694,-0.024573297891421514,-0.7380361840516757,-0.44810373692472755,-3.0911702389481865,-26.767104847771314
,-0.8004103633511164,4.03577507486836,-0.5261224747720646,-1.248686910598566,-1.4300206057618692,0.2239767949974541,0.15550757198605925,-0.25554704848372617,-0.8692212807089299,-0.24939841711738203,-1.1177144549516784,-0.8336953491172532,-19.67699514230029,-13.881458369677125
,-0.17925751549598976,2.4957557714054293,-0.1466663726223518,-0.6829110222745558,-0.10452661859022613,-0.27169133900925607,-0.07407962392812302,0.5920526564157507,-0.16972602602272296,-0.19645448593231565,-0.7208207709346445,-0.12058634188713381,-13.841504282450042,-13.222194069134273
,-0.6636985268803239,1.9016531206119547,0.1356646354650777,-0.5952382586058526,1.4738605722483114,-0.5896915674715413,-0.49301172603919735,0.5579674935188554,-0.027181031477051042,-0.1436266218426535,-0.15460157019408732,0.3330767271885243,-9.82126232160688,-27.875933478312547
,-1.128068227554393,1.737991738494949,-0.3184976561201147,-1.1166078559671557,1.4896621769471912,-0.4708995043036701,-0.48666634495646316,0.6022526743830636,-0.4110678054732993,-0.15737812900508705,0.3200250307630053,-0.31918856983942334,-15.526614506957067,-14.871746136755057
,-0.8107212132612812,2.3538152638509,-0.21611052029284053,-0.45476671252549544,0.5438005999758734,-0.27096471973382164,-0.5757608947612987,-0.01020908262173095,-0.575864807057983,-0.42634331244072093,0.11955377226102651,-0.1890843558978097,-12.582712738214719,-14.124079866920392
,0.9243376880388252,1.5864108259826388,0.25059772797179,0.09432100399966431,-0.09696031014661803,-0.20083109045369654,-0.9050985143305496,-0.3805800890693342,-0.23577017157952293,-0.4675155452747652,0.2735346978668157,0.04664194842044874,3.0428155403401536,-10.537000954639135
,0.2854755164794131,-0.6932563713749722,0.44311714928848733,0.13679130119131205,-1.0740159103147633,-0.15965854499321994,-0.7882741715315985,-0.10188080378798653,0.12278807986690453,0.26326207649888334,0.32082680453985474,0.46585564201049695,19.325464384471683,-13.826562746151307
,-0.21115972136845074,-0.2070916435183232,0.4190316804273558,1.0876541335718917,-0.710063884036066,0.0013182605063652274,0.181913100282345,-0.09620999870399488,-0.0548407994880676,0.08704753074290625,0.0679751690417887,0.2782091667903489,31.109404845352334,3.9250762611076775
,0.39753279822221876,-0.5179414058772788,0.6823515492227108,0.5103075143062019,-0.5260758090053538,0.07162918918880366,0.5576443664511156,-0.08372361809413764,-0.2621126589771216,-0.26346326790777175,-0.07451949061821717,0.2774731101768409,18.395634553608918,25.958085800019298
,0.9593175251079346,-0.9398807503454977,0.5782999898212737,0.7165453887675755,0.07104073091447341,0.8117549355783996,0.7389268493043609,0.015056217406292828,-0.01699231086844407,-0.058768522890595955,0.4296538544939496,-0.16044011112940068,-0.9793154489967995,22.564413727598517
,0.4311746680590674,-1.6737817156074477,0.14696141724809514,0.31218839643573604,0.6148411537143956,0.8172847270110746,0.5305957318392169,-0.13525441246665845,0.42302133332031483,0.5520451772767853,0.505635268613533,0.035813494277768865,9.069345599680828,20.487930867883893
,-0.961518203787913,0.5963716952335064,-0.4930664771157242,-1.2060700105526396,-0.4466636190584526,0.17337258296558847,-0.07968898145705063,-0.6556995155941916,-0.6161286983595926,0.1788233483487156,0.09264802057712396,0.13528748932671975,12.60882721685155,-1.4631639760419326
,-0.6536503768791231,-0.7894042041144191,-0.13699009006454255,-0.8566470822120529,-0.36918318523542915,-0.18459935728884072,0.05133793012146868,-0.6696303529845031,-0.5564602842673898,0.18103375994868737,0.2917269663661791,0.03207927317802221,11.281209506456307,-8.783942604590163
,0.6541703761909385,-2.6482212147550954,-0.35952045409950395,0.37288688835989336,-0.441352985878933,-0.4346791504548944,0.08086791854172339,-0.4569833403714166,0.09595553674456528,0.1521969773499653,-0.5200728954280341,-0.14315060529435472,-3.6291946193997515,-2.9506441367812273
,0.3757203444626161,-0.48258562790300724,-0.4905645278861225,0.584681789312341,-0.05530542678500169,-0.1435838895883748,0.20693877881565276,-0.18454453140993277,0.4784938043485212,0.26517183305941905,-0.4843342928688814,0.04607166277233056,-13.146399095567684,5.18906963532086
,0.1768283157673327,-0.6524160216032105,-0.18248840536273303,0.3676449873219411,-0.6618409297466528,0.08594013760921021,0.4332690529624441,0.1965405271172814,0.8178333931081572,-0.24683790722924853,0.6593193159041854,-0.17579963751604244,-1.336873182743064,16.179024076512725
,0.5985339041774909,-2.7159280389225366,-0.1328144209428435,0.6956577645653418,-1.235433757751602,0.5509550951844633,-0.36591444811211776,0.3230067665938889,0.42988581664332304,-0.4595530752621523,0.8348769344446307,-0.5280761982673581,6.302274400882672,19.664361786075155
,0.3624024138712608,-0.5795112968733549,-0.022702421336912637,0.6445188439188357,0.1469820107353401,0.4503859981087961,-0.1965721343611842,0.10103352722619104,0.5656992506974605,0.0563430467804203,-0.019551368409174805,-0.05812305441460955,-6.814903118207717,0.973034915615359
,-0.18342928224243954,0.2819095158809423,0.0954485419214177,0.5694246388186986,1.123353769586491,0.15005213088177652,0.37358048578653014,0.25938582077633865,1.0646069586342557,0.7211241916522492,-0.45146919791653617,0.2938587541599264,-10.705674846264749,-12.976435809087167
,0.42641988044393075,-3.0896647154335395,0.27407112924955135,0.06830520216688014,1.6879020281888908,-0.6100706887346138,0.6544850533866635,0.3829671101499513,-0.20291829908337458,0.21229134324466062,-0.3726917935508396,0.5837769550619567,-3.0735267449356822,19.572165077956843
R,0.4127663167668798,-4.04147798343244,0.31929230026620065,0.9709541817521773,0.7909382297968003,-1.7089909794305969,1.2523712224779726,-0.25596401092751386,-0.8624771008036856,0.04134902844643756,0.33903561790363895,-0.23191517197149028,17.17637908415217,39.555388718412225
,0.14027145674476862,-3.5658523601243286,-0.2572189362434258,1.0895789266579925,0.7621345920063037,-1.0273192433177771,0.14353382245355864,-0.457398250494332,-1.4654923340329098,-0.6534104305973752,-0.05667819708063261,-0.36478855148909667,-7.183627030377966,54.20786746615639
,-0.2971691501014065,-3.459708612752152,-0.2900111286949989,-0.46852002458693054,-0.20699535390427773,-0.5921911966675016,-0.45215434016321465,-0.798917597402513,-1.4667446211496564,-0.9495238487828209,-0.06703174290444873,-0.3546024372409107,-16.78304961395559,11.523274233995902
,-1.490340905205296,1.8419369493329258,-0.24150400667921434,-1.4409701264926646,-1.4232177471516623,-1.184547664144196,-1.217258839406887,-1.3471472744578676,-1.5402681035190233,-1.5076952533524874,-0.33975528011639233,-0.7947617992491158,-0.43438776381454175,-40.18147272537346
,-1.3048610612528557,2.40972268044263,0.09515413041670917,-0.6067538534259336,-1.0864152126037625,-1.0262482055112714,-1.108401533381175,-1.101394114410411,-0.6942816542708315,-1.020912284250655,-0.6161968400594674,-0.816532236176209,-7.225460636504759,-39.047207542600376
,-0.5273698563178244,-0.4326974313211829,-0.08229910398900356,-0.8257918004042369,-0.5288885276666694,-0.6138705231892231,-0.6753358083733105,-0.306907542488701,0.21420347519403174,-1.1331938459135495,-0.7719159977322151,-0.4361319353464871,-18.152757119763663,-18.374116157026908
,-0.5330348509441818,-1.7845933699226602,-0.14763352091072082,-1.336650428777432,-0.6742340740284267,-0.48620002377489285,0.5132020659460571,-0.7553426031259232,-0.30118483079002156,-0.818790624645681,-0.7156425221719643,-0.38405810828555637,-6.97409009951293,3.357302625281777
,-0.2800996556551858,0.07572131667412227,-0.07372064964952373,-0.8527856444315411,-0.40032476705039244,-0.863072065710314,0.015024780533406846,-0.9332412470278579,-0.03269585724598158,-1.0215754391484364,-0.5092293389200139,-0.408815156230138,-5.349715687994028,2.39897128946513
,-0.744645019099446,2.1082323368193268,-0.008537023775701803,-0.09149727447739427,0.9978963281284987,-0.4783670768637168,-0.4996104182896797,-0.3993346843101997,0.4284121022682923,-1.0312800986334452,-1.23540930101893,-0.2126535858427197,-10.75570668011557,-0.943611184517274
,-0.7867558255547398,5.3897460700423245,0.4730946070674879,-0.9215400655944443,0.24463217728290487,-1.112644562730615,-1.0549354858837818,-0.44068548165626903,-0.8446897325832491,-0.6721025472722901,-2.1418488479212714,0.052241131598317565,-25.390250514274936,-28.578811204047504
,-1.1081797647941647,5.632991646404774,0.6271045401270104,-1.3398745308144953,-0.38853229332653666,-1.8784905962582803,-1.6058271113617175,-1.3872401673883477,-2.3323026979595807,-1.2930774260997357,-2.0669533392446398,-0.3838976563002288,-31.11246970213272,-51.04950998855219
,-0.8805601520494797,5.047758788711417,0.6144318547788553,-1.1385314469684118,-0.22475207821332713,-1.599634184509615,-1.1968948009377502,-1.0584377359112953,-1.9810363986400719,-1.169313730427488,-1.7443600402523194,-0.3657572426020279,-24.522886238264064,-40.439426530851904
,-0.5856307891208014,4.003164356776135,0.5465059676370112,-0.2227930514204843,-0.14579582120254378,-1.151607484339164,-0.29243857462547135,0.1960555386501414,-0.1623136059965603,-0.9739073571780767,-1.6332380195366796,-0.12871927010312406,-15.56128599271051,7.535034998993304
,-0.1774425029344248,1.9877886810289724,0.0360131199142915,-0.27969922754798726,0.27194939234338233,-0.10673172172526633,-0.3410825930080388,0.02707982241405531,-1.1704029625868624,-1.033807091329135,-1.0625486213241213,-0.4351621461482952,-9.083438854242868,25.3863989817216
,-0.7850993157132186,0.39614925104436166,-0.2376244299605572,-1.3346936493720527,-0.20676753670361575,-0.6416777583932338,-0.5987566835314168,-0.772130096676293,-1.39604924252405,-1.3708807269810506,-0.7270890756844629,-0.09624958458025931,-23.197424995770206,27.960846301185505
,-1.1143297222794817,0.6353279533664041,-0.40009851304689065,-1.2023398422482858,-0.6890741600657508,-1.14714865952491,-2.4459581198998324,-1.1745191844025706,-1.2222822392725294,-1.2531523875893102,-1.0122644192482881,-0.42984740191768644,-28.93752373496795,14.6859808885956
,-0.3667458422335686,0.15888281904218488,-0.048673563638562116,-1.028326242283138,-1.4825404837829015,-0.945508483191109,-2.153395685585188,-0.7028919117456117,-1.3603149500655813,-0.5109868383565968,-0.7964452165812835,-0.0723900932496867,-19.36857727732698,-1.5074763751265234
,-0.42918931758908085,-1.2916446058922804,-0.07364998680358935,-0.6358962218411957,-1.2632251465531295,-0.5279272521814802,-1.3026531404258335,-0.07888613219467147,-1.0403231845154517,-0.507311385994416,-0.710607729639676,0.46091927084264783,-10.757286721584505,0.9909521301259678
,-0.279955413188597,-1.2923517702192415,-0.10382099080350927,-0.35378751679195614,-0.4598345323491316,-0.828815514067204,0.3155819803075675,-0.13276465577943503,-0.13493501404236963,0.2764215744428535,-0.7334108641991437,0.4254763474282228,-23.48397177100866,34.368440401569735
,0.6260409857249297,-0.3124972104511064,0.13114349245695853,-0.10950674807381675,-0.05397005244902533,-1.7460057047946875,-1.6339264940787952,-0.2378173883285337,-0.22109162160587506,0.008240496792425476,-0.5789651286813061,0.3957966220818872,-16.018406193698564,33.432118657463604
,0.16745735865331438,-0.7336293649012344,0.37280256629398983,-0.17916191922802518,-0.0423023025430713,-1.8130854642445842,-2.371600159909462,-0.3027644851183759,-0.437535693108021,-1.086601282784538,-0.32122750453880383,0.6099675746134902,-11.468666323830304,12.816567236994858
,-0.5473922006191836,2.581856100903764,0.10920874693885523,0.05714238427481321,-0.03402123429647657,-1.6241078129041533,-2.5986234619787525,-0.5249245530327266,-0.9792448027649636,-2.3902946951126762,-1.3681230917512441,-0.015115186876968164,-32.33481331135175,-9.351150142999366
,-1.1211401377537535,2.0097532568848235,0.14046316197849806,-0.28251756477442536,-1.3868949512787871,-1.7255410503051196,-2.4071315675844467,-1.0925821811038359,-1.4200374274685854,-2.5334647917307853,-1.7934665665613923,-0.04170725858592445,-39.323877471187814,-33.813925199245425
,-0.6829081903127232,0.7502316163644467,0.010593922384777457,-0.43970059979417264,-0.8988038100351338,-0.9736584249185192,-1.123540419681503,-1.4034882708119196,-1.7653628286962801,-1.1060210391574972,-1.1299927165525072,-0.4599085543404276,-13.63375135544987,-35.074099941112344
,-0.6676624718111417,3.8637552100829162,-0.2779991353877612,-0.8144176746885173,-0.45009913248967304,-0.8441190276548106,-0.780046807127976,-1.7634764539288335,-0.9361282186597528,-0.959504015764718,-0.8073193474954062,-0.5831207266587135,-26.082232584690892,-42.22623485392363
,-0.3838817265976791,2.7318174893777245,-0.2128143690459745,0.028054491025928704,0.5199162046461664,-1.2126811491234508,-1.077086472974252,-1.6485780374770407,-0.7001815059796974,-0.5217816087804839,-0.9437807837133463,-0.1681313090894234,-26.113386478737716,-31.162194921347034
,-0.5882230053941131,-0.7673922372300188,-0.35023466899778727,-0.5182122154324865,0.5823265203607807,-0.5366631841831643,-1.0670971235192306,-1.3423828788605447,-0.7493224733568582,-0.5769634367808814,-0.6969311322595142,-0.041761667678677374,-14.2327771270048,-3.4708229689533923
,0.225588938825568,0.6931994691242979,-0.44959829165730725,-1.6379924949225177,-0.17342217687509776,0.20794071994846663,-0.9247111885733875,-1.5292750463372269,-1.1262944208047738,0.11543726023402161,-1.1286675998443616,-0.12723338628895803,-12.42002831544244,-4.4005520115292915
,-1.6428755806483633,2.993526820078476,-0.5146770794696794,-1.8996856703588214,0.3559310807814052,-0.20416963017651338,-0.41192412349690205,-1.0110386142719694,-1.2065773244913136,-0.9623070031679379,-1.633443939910087,-0.5503886624821873,-25.027983218326806,-46.97806817389605
,-2.1440791383887476,4.798572210550374,-0.464248122324791,-2.019638478762999,-0.2714002608255063,-0.7697303409389763,-0.8608621198641342,-1.1356818364175902,-1.1754734377273355,-1.6858172046779119,-1.9060015113793045,-0.8370796721693885,-41.497311321606176,-58.66882783566352
,-1.6453118528373196,3.293792319245535,0.02597555232151197,-1.2740598931643663,-1.8447744759776872,-1.1036697878455792,-0.8663081420895367,-1.1616078697923775,-0.21413554060216872,-1.2233607359068936,-1.0291282350115414,-0.6160978446716642,-39.99091635029896,-42.70166943204396
,-0.41421116072857683,3.612406949351298,0.37705760716531433,-0.9318610996071812,-1.7597349933173936,-0.5042602478059541,0.11973543484074654,-0.3619742746535003,0.2409857304681995,-0.6546914555161061,-0.6273041917536155,-0.0058749268152407,-21.807969543863724,-19.072449632100295
,-0.15724812363789983,2.7884001504422926,-0.07967353314853358,-0.3853779859073969,-1.1882555545352538,-1.1192292459378288,-0.40047276907541707,-0.25511509703623486,-0.1456943524496034,-0.4368718068509768,-0.2797639084863708,-0.40619886816582035,-18.563838300766562,1.9786690061317116
,-0.4846916671233716,4.273880964985302,-0.37170207770633895,-1.3964684282819306,-1.1685737350413312,-1.6309080010184962,-0.9810638469339221,-0.7138430744290873,-0.32418382292405407,-0.571796030243387,-0.6145122609476146,-0.06404976376516178,-24.501806266952897,-49.17456826274858
,-1.1685052096626038,2.3648360691227266,-0.30610421725825127,-0.8774560386184668,-1.7276896974647356,-1.5101286290351885,-1.2503445240944009,-1.2662816029080737,-0.9030129196821122,-1.1692359110764794,-0.7106633817373408,-0.678092104832941,-29.24931128842041,-65.87564211485467
,-1.1157991662816897,2.9043153850279553,-0.6054076124718678,-2.2450856186684915,-1.4876700061978327,-0.9798472162462614,-0.28599158968780725,-0.9550868858924719,-1.1287854617156934,-0.8931298192985369,-0.559483024072101,-0.7727784367077799,-22.81271380846738,-42.6637191586679
,-0.3004658361409334,1.9538328007228405,-0.5811519929072301,-3.0266657363829803,-1.26067959241844,-0.20344933731585368,-0.8976241240528534,-0.5350699633208613,-1.0228100657926718,-0.9967624166733903,-1.2174628865398645,-0.23986299182766607,-22.24978734254054,-13.045987039875838
,-0.4726867724795639,2.8819407334014575,0.029706319315160844,-2.388158499329776,-1.1092277435751774,-0.39735137633420187,-1.1808412174847702,-1.2095454559718057,-1.490420835942338,-1.1876398820202319,-1.6898625147358213,-0.08815674539550374,-31.857757578223957,-25.35217273728814
,-0.6896526327357672,1.5445422728754339,-0.259348930467169,-2.187144299665018,-0.36523788448022554,-1.3891859772506576,-1.0822575933699352,-0.9717932805148627,-1.2676575004250596,-1.0358825397572784,-1.3440229574988996,-0.6270926983380031,-35.508111182174964,-50.01299023206673
,-0.8252205810903744,2.8781303344104736,-0.8474399875894392,-2.4545750181026684,0.07051245736085178,-1.596070820010918,-1.5006559936751658,-1.466257349235553,-1.1576217715840775,-1.6955301166092929,-2.219916859744952,-0.7577684044676914,-24.367020723637992,-66.00217401437453
,-0.4973694063638454,3.9264968596873016,-1.0865548695750082,-2.224469852759669,-0.974418687784296,-1.5713947958871437,-1.709455860112855,-1.142691182601939,-1.9087735398678147,-1.4672640771489815,-2.713533158980818,-1.1737912750543533,-40.02436164187853,-54.24958775154648
,-0.3514177113182496,2.36557293045649,-0.6156819148729722,-1.8805243026975549,-1.1199760303288002,-1.6990997582787266,-2.4285801247642778,-1.2317761402341112,-1.9418509881730506,-1.1567233082891926,-1.9980280374071262,-0.6602080300627432,-33.47600257928921,-57.92926453123369
,-1.0371919513833494,2.1745227775697957,-0.3912886611111664,-1.3082403367763762,0.14526747652727895,-1.4452531739248888,-2.0291758455579747,-0.9256373121962923,-1.6555920839053693,-1.4003530205401795,-1.3051970299771003,-0.24630637334154598,-20.319728718712785,-34.962249051357595
,-1.0151409758588843,1.4709822245628639,-0.43346268744445116,-1.5349132799042122,-0.7963422754623729,-0.5363732244928329,-2.085092443123664,-0.842719670584402,-1.612806270155069,-0.90078589942649,-1.2070965534103237,-0.16868864766176644,-23.974429827200453,-42.47267296486045
,-1.0646121385064888,1.19665650578334,-0.3984143004134349,-1.5168476670754483,-1.2850992029667614,-1.015713545075541,-1.0549238514889565,-0.9160282042975407,-0.7545667559463733,-1.0609017336095703,-1.4777177010906244,-0.3578302462800994,-22.591406438369923,-39.66407349278519
,-0.6249982181132233,3.0234503317457584,-0.432755635238179,-0.9458730380221616,-2.2282205528614525,-0.9625338510525503,-0.5277575853074022,-1.2160053789094276,-0.3244471913463246,-1.060685678858978,-1.6315568170157155,-0.5538890080691067,-17.16409100429695,-19.52764652614448
,-0.135267959757728,1.9485740730015657,-0.6754789505372135,-0.13513135341010654,-2.080788850238332,-1.0137358875323124,-0.48949692256234967,-0.8709161580243868,0.20044272991598233,-0.8864514029279421,-1.203134386552375,-0.5982007050319431,-21.789090616285996,18.963009588978903
,-0.08178126950116338,-0.8963214252379681,-0.7242348451102704,-0.3827889627496313,-1.4815427439684117,-1.0176576808720124,0.04001789139770869,-0.612880746130169,-0.528758648606002,-0.6190614349075936,-0.7997707045335285,-0.2657059389067944,-7.464952018352967,11.166248959710424
,-0.551903142473863,-0.5599051604873027,-0.46778751950120284,-0.9490892557469054,-1.1256944627208985,-0.9670537048273171,-0.15065215335473717,-0.6796836746386745,-0.016425883894417515,-0.4586510001649565,-1.0902299261371047,0.21638873586318286,-9.793433579547463,-0.5373859529394213
,-0.5153391299439614,-0.2548892211615428,0.3467389089063976,-1.4791355279410792,-0.9770499271110685,-1.1842819065669883,-1.0191956079082338,-0.7703950586522601,-0.5884560662035974,-0.37848597730987055,-1.3981360332930817,-0.1405814838065314,-2.459990043373032,-4.002701991963647
,-0.8887472196546091,-0.5120224462013253,0.07663506630953708,-0.6121734644288748,-0.8394729689742146,-1.1113829466986984,-1.3314087145402553,-0.992013802990344,-1.3823091687846756,-0.9067989302215204,-1.0997254960423246,-0.36653489217844215,12.10310918490673,-9.141112811806568
,-0.472256027199683,-1.2517946200542105,0.4039704857624634,0.16126596741868637,-0.17334509491947414,-0.519136090853553,-0.9778360597797782,-0.7224902605231,-0.8593633199132688,-1.2042530856519973,-0.7698464317129257,0.08756594611146842,2.0073857082072477,-25.617597302629914
,0.38580287214982656,-0.6262213691369191,0.4230971012296033,-0.7925753790615373,-0.17412025664471037,0.6430880742658829,-0.08862096132815848,-0.9184341366991775,0.3893798647587491,0.09435611919042351,-1.1680022071454108,0.11464419501193657,-6.0481727212917,-19.39260796527143
,-0.2734881522015868,1.0471408117045593,-0.1981670263795225,-0.6039665559775117,-0.13449616179859558,0.14039624700064945,-0.3225006688349587,-0.45711892436715224,0.10947660266236971,-0.6374083135973263,-1.419079452493395,0.05137199089812954,1.6018457465683886,-40.397848920248116
,-0.09089054746685833,3.1239292622382266,-0.44681535227158453,-1.1611116622118838,-0.7130030226193028,-1.0051738464478335,-0.9725660565837949,-0.49573980039413884,-0.9303771737619563,-0.36028918324927034,-1.4765405750417044,-0.1603379307268385,-4.735858552533649,-46.11879693369208
,0.4981229307471061,2.2892599386576094,-0.25633781602705275,-1.5641263943973127,-0.48250393009223225,-1.0286207480194836,-0.43830330504923787,-0.28854849977778213,-1.2264311510283419,-0.9153251589747362,-1.2084953634322781,-0.3683941783088655,-6.753099469818718,6.876196974152893
,-0.007668403018865111,-1.9497676702758522,-0.08738993418643533,-0.6028467035676008,-0.9177549536648313,-1.2566183814556184,-0.6421851011363051,-1.6129427623131052,-0.8598307898884209,-0.7254880650222864,-0.9478361886010792,-0.2854263578388566,-13.451674258639837,9.58344380354666
,-0.5228300438381964,-0.5464389873836543,-0.04757136567033283,0.3583579320915486,-0.6178364220629057,-0.4210352284453024,-0.9704267614268433,-1.5978499715161456,-0.2061413414623431,-0.5762837722383896,-0.945077069521175,-0.16453255009516654,-5.278230649689897,-3.787104200364039
,-0.7003805868906143,1.17676477057685,0.0701159672791447,-0.3679932452460846,-1.0094450828475994,-0.9816128810126811,-0.639137358904745,-1.1858123481823886,-1.097231570039928,-0.6618998061565221,-1.3807970558336689,0.09351047541376453,18.75846078695913,6.422875502173926
,-0.679533670402582,0.4801087962361998,0.19687936821506208,-0.36689641258946254,-0.5587421238746348,-1.116093635354877,-1.557456470503316,-1.4264006361517185,-1.3305189028647444,-0.1076520536240833,-0.7512310630122991,0.06556270749191946,-0.8889465787309931,10.123208951793007
,-0.4820153636683171,-2.1750464031979106,0.4292460538202583,-0.5299766798448307,-1.3672249877048237,-0.7260348653760677,-1.8768509536516016,-0.85833657321889,-0.26516482620591364,-0.1987803557645045,-0.6962056817186683,0.19407006918263559,-18.86834851310212,-14.001085511214653
,-0.8283542366984624,-0.9295841050119598,0.24623715019827241,-0.33786778712307847,-1.0784452491209822,-0.7444128567712296,-1.5526338284453436,-1.048437341466956,-0.08270446580884086,-0.2014433901931093,-0.7341931192892659,0.49669669993483484,-21.841092204228485,-29.007272655364233
,-0.6053692525260811,-0.17732088628843007,-0.2018812673367254,-0.5451154865006322,-1.8576669520806837,-0.5450662732372584,-1.628328862168736,-0.9318991139438384,-0.41930650220675425,-0.3815137202815468,-0.9453098460762216,-0.051606510662923245,-12.80437997602082,-24.375581088343928
,-0.6270122850220391,-0.4111575181129124,0.06598574354714556,-0.4034753183590003,-1.735378559457584,-0.8455267496589901,-1.1065969385009997,-0.3140510328025929,-0.7164809652575282,-0.3278142841024487,-1.1115386965173955,-0.09716367774962105,-5.61467625840602,-23.56830601684631
,-0.7187463149169424,-1.878130632974958,0.08938261895503549,-0.22535547024476482,0.15073806977147355,-0.743608901068808,-1.088685498976371,-0.2950902569969866,-0.30727592658790853,-0.41623916183443715,-0.7498297244946546,-0.1758435332724801,-9.598438490192143,-14.075199756486304
,-1.0882631221038108,-4.719409524331244,-0.29508702959836003,0.29003318903395875,-0.3120632914845017,-0.9966979515205363,-0.6948940099072094,-0.1325311114168245,0.2122228627168257,-0.7510551625907765,-1.12864336591835,-0.054109989106942306,7.815451271729505,-16.077496311671855
,-1.3696092834519795,-3.161694049126157,-0.5469927340332739,-0.5809956978657136,-0.1971318411532601,-0.8237197547897211,-0.714914461897247,-1.267777855022505,-0.30859936787896025,-0.4393285363318904,-0.9571354514325034,-0.3134990380936845,11.2825405769645,6.237946166388577
,-0.9023394326757666,-3.3992913384712073,-0.39051528967801813,-1.2816640181821168,-0.644112130647639,0.31531439229488256,-0.5754038344984764,-1.9915499958950824,-0.08024286084137351,0.24102654117720562,-1.126549768487651,-0.7924915120901225,5.202865134471552,-6.292033678958316
,-0.8228257675052623,-2.3948584246443403,-0.21696801415908587,-0.3684384340627586,-1.0244159852931891,-0.8308630413877363,-1.3405217437361696,-1.8410319419287882,-0.10157019359516511,-0.7041018500602638,-1.0516098515201107,-0.7152511791649981,5.221816624178147,-17.296851765766107
,-0.45657045714327177,-1.9504736512340024,-0.07181838395608303,-0.5969825250416885,-1.2138908066828118,-0.8969572193218717,-1.6899718204547018,-1.1547999071738828,-0.6229062423135312,-1.055684212498156,-1.0515764747723317,-0.3022969858658717,0.06956266620286904,12.802419029879523
,0.3403591973930357,-1.3237282514056452,0.040689931374263244,-0.986015103481167,-1.5055538648200701,-0.6775528807446679,-1.703400980168032,0.12120790902169185,-0.3676274111979933,-0.7649012736463199,-1.2120919410751567,-0.06892623374427209,-7.790580774733045,51.55546532127714
,0.049543137839764724,-1.998069056620307,0.24814992278970777,-0.34808433593806315,-0.19274735545385288,-0.4739497038376116,-1.5421229553514895,-0.7619245939877113,0.22327132058207513,0.06828278589321239,-1.1439642840239057,-0.13681482111243737,-6.437002982605251,36.63368206328924
,0.25101610448048634,-1.5692811690041621,0.04344726945843345,-0.48133460455664967,-0.5443960717908097,-0.6863600289108186,-0.4692280812394271,-0.6788679623679905,0.07276516723421919,-0.0036515649471303363,-0.7871510401328964,0.11895378139311105,-12.675469526988682,41.47952468132908
,0.2484992258687545,-1.8889432406029527,-0.02701459536696452,-0.8882606730541698,-0.8431728343594606,-1.186249504426211,-0.5141184088272619,-0.7648302209253262,-0.21227069770407755,-0.8925504791732205,-1.123864533425266,0.1226816433741142,-14.222140781941691,30.132260027936113
,0.756257909104533,-2.1833692631760977,-0.2219026014181718,-0.8132582329302173,-0.3552968942666918,-0.5388480458671553,-0.9711579407807917,-0.6959577292080525,-0.5808834260427068,-0.8408410960317675,-0.7510402538549311,-0.23958110652657458,-0.5323345781764025,5.889500220812483
,0.46196164619880364,-2.7118822929259614,-0.17042461605522374,-0.5294942842181356,-0.25082087114533697,-0.9504596887912968,-1.638330210890361,0.07349371023830109,-1.8617355955447081,-0.6355453244057981,-0.7938067296442444,0.18741846741285598,15.504511246500915,16.88232494191645
,-0.5599506795884327,-2.260593335716366,0.21715145190858196,-0.6689858426257684,-1.3021589224984846,-0.9480237555516767,-2.0171804556728885,0.1988869995199543,-2.51750878720559,0.48247474520057276,-0.5249804645823031,0.6223432366585934,0.7236962382773624,14.95904695579048
,-0.5653230461682999,-1.5739783173138857,0.050782564297362505,-0.23967209837356357,-0.5942985376755382,-0.9668372235269679,-1.4856100818203595,-0.3153939379891337,-1.164991091905334,0.8650231788570454,-0.3617295007410571,0.6456276738472408,-8.220732798690094,-17.40204371300166
,-0.8198523498784288,-2.8257227643243406,-0.024056737163515547,0.73221549063423,-0.16945138469589516,-0.7790594088393855,-0.7775418237289703,-0.5261132933140433,-0.5581905938635676,-0.46526078191898257,-0.5098465551169842,0.13319883767635685,-10.959519270066263,-39.20345291848256
,-0.5801521239613862,-1.4583146694297053,0.0759615561452538,-0.3088387971256697,-0.8597207288698737,-0.0496921729453886,-0.5116271693267906,-0.438570507800514,-0.5870647572423001,-0.9656449402449604,-0.8823939864771501,-0.2355489101849676,-18.0859298159826,-3.5548772110812816
,-0.6637977221424924,-0.9991079972368714,0.14713633478700414,-0.28124875694144624,-0.5034664337703361,-0.5799733395707543,-0.46679443345591687,-1.0625733026801991,-1.3643060527558382,-0.7282395916633999,-1.5160898412632013,0.0017199907958622795,-26.689348962532502,15.607301951381427
,-0.6179161207292609,-2.532606723215789,0.23070929882110158,0.6861305269700123,0.05322109504377105,-0.6000082350593137,-1.087093186831523,-1.0251846210022657,-0.7045713300005803,-1.0162410284109928,-1.5690351941181102,0.17980293529637575,-13.25793727320368,-6.302571077465285
,-0.9614095928524157,-0.936798736151589,0.0304519477819042,0.34421284150913056,0.4935092798647844,-0.56303354538241,-2.280262960525558,-0.8999940839022662,-0.13944417020224065,-1.4649897863378394,-0.9613893589312635,-0.2872798683371098,10.07914167711166,-19.80164096094692
,-0.27049295969785914,-0.6598414695667678,0.03150751489358976,-0.22936201249939736,-0.2642302445282511,-0.7163497121285721,-2.378383106283768,-0.39058697264513437,0.21100589928320207,-0.5570570165457454,-1.2933742127544017,-0.027279013134860135,6.953611233212629,-8.11037110639047
,-0.19328374173590032,-1.717197660402329,0.05313131192998866,-0.36305133034770737,-0.6488917511649251,-0.6527773079996531,-1.9414478115357545,-0.13338896416349205,0.1081638633068774,-0.049513996096600586,-1.432727037388805,0.5207946989725908,-6.394197139853738,8.348590607197176
,-0.40027616037613484,-0.6297289947503856,-0.029928262211515247,-0.058385383567789044,-0.8706296441042689,0.7483047106597773,-0.5135908955087242,-0.44908145999965743,-0.6078202865587434,0.21619597177155137,-1.0265500609698444,0.8604852916062515,-3.7222355272336882,-0.024372546742905836
,-0.1971705407947311,-1.8736622184391767,0.38603804542001674,-0.18936368428606284,-0.1539994772408828,-0.03196205836476301,-0.6260429338244194,-0.35200267945410185,-0.7180458372421347,0.4533738001218473,-0.8485399663051776,0.35594262458029313,-1.1789698928110166,-6.968050213742446
,-0.4245789633706946,-2.4156103435254255,-0.018218417683059797,-0.43599520484076515,0.3888740655675631,-0.8454021103574254,0.2100694327777056,-0.5914001001826652,-0.5049587481825922,-0.21512527206174772,-0.7063377283983301,0.17648996961267888,-17.44008360824551,28.235886657343627
,-0.10052716257395966,-1.6342430973163125,0.22865960936653837,-0.6065226224291845,0.588406821389,-0.38255702580989803,-1.3625820235486892,-0.9458475887547257,-0.14227170874949016,0.16518659082216705,-0.7761654405209182,0.5254925722208134,-8.25952356217959,60.911138312498224
,-0.11685784131613847,-2.861703131158533,0.3281062054670901,-0.5916158682183725,0.07634930996609007,0.3590625184848849,-1.6438576865039034,-0.11469424389094973,-0.051355000729820584,-0.25671430666385087,-1.1186322178362267,0.3467069268564388,4.259308363877925,19.148932660631818
,-0.38370021841859586,-2.851040244068788,0.4627329518405497,-0.12795023568548833,-0.08573470484868878,1.0413972592457261,-0.17405947632911972,0.442834314884842,-0.5832486558357325,-0.032319785574977694,-1.1435502798954522,0.045839744061308876,14.208997844459798,-10.36005692554642
,-0.13108600371221032,-1.5895127830094413,0.2857720120067737,0.5095515652260303,0.752888357123,0.33008697688273,0.021116896227542172,-0.5465111903063711,-0.8052506834806316,-0.35708478606554483,-0.9313272511785332,0.0346122339452915,2.659964307893291,-19.51340146849211
,-0.33369062231931684,-2.4386288089736756,-0.35212864317042747,0.0487269339373782,-0.4431855167969936,-0.044459711680268355,0.030253357604996763,-0.9996961826797756,-0.2957817750787317,-0.1438318689757306,-0.29387670278941386,-0.42251479564553424,-10.118577661300778,-5.136899912873021
,0.13941132616876675,-1.8470896736257716,-0.40660767314394297,0.1336949896292786,-0.7189755716381682,0.05758658623843729,0.4151743219871732,-0.29964118117948396,0.6793562613820772,0.07674534918825596,-0.21681303487830714,-0.42048297297654863,-5.409971915659373,4.748936240138075
,0.5341889787589172,-1.1730136377355023,-0.10701307336499276,-0.668853106013803,-0.10963433192102376,-0.20320289101079964,0.342674261980313,-0.34626249275716975,-0.4579536763765828,-0.6542885244242141,-0.43212090236404865,0.2824351236676892,11.185732725684563,19.43753115419292
,0.9460383102743584,-2.194649051279721,-0.2876738310105733,-0.5282844767685843,1.4792321319670327,0.010353906364449831,-0.30063009976459465,-0.19387585560353543,0.022205117527840195,-0.2384645920546302,-0.7653609278151107,0.32781918337617744,4.120114870260155,8.358184596560609
,0.06759282424494008,-1.3332273282819782,-0.25587402638726603,-0.8876094105263796,0.1086565562380275,0.5138877519027325,-0.7009521787134482,-0.3083813876210491,0.40317741937607154,0.5806345151526784,-0.7754226445901867,-0.10552668781905644,4.21168524392465,13.455067043568258
,-0.2541433857978193,-0.9949720759237061,-0.06567154212735471,0.11135695710239188,-0.21262067817610783,0.06222883104014263,0.05929343652930888,-0.41288749555735843,0.16640976060521942,0.1440928029748088,-0.015101455844246396,-0.21777985405610145,17.388236185916465,51.198023410009235
,-0.6396274518553667,-1.8834151744345098,-0.262628763064781,-0.1053070229808357,0.758366477596548,0.29517585631773396,0.5331079605992617,-0.08031634247605368,-0.20366330604909094,0.20324030218171701,-0.28065512615656263,0.007532493551047083,5.795805554263384,23.5284404630106
,-0.6431268593141544,-0.5010530858163414,-0.1516017230666541,-1.8686998986111953,-0.20242360173720877,-0.9749535189827517,-0.6314451575802964,-0.4324657209962718,-0.7988471508347387,-0.4631858578049178,-0.7879209195139496,-0.1485857913720841,-4.886758231351486,-28.501395643902022
,-0.4769609011844385,3.4290135866414544,-0.12801531210452197,-2.478671787071539,-0.07560544832999479,-1.2869832298845436,-0.7658633481176537,-0.5670054600057091,-0.7010960081584336,-1.435703545048509,-1.0806834835668513,-0.4668498498435595,-18.571981982397034,-34.69320412311632
,-1.252130747501354,5.507666680563442,-0.08094685303652088,-2.756799120501771,0.1678423982942729,-0.6417985621928225,-0.9914967031763672,0.3057796122637797,0.18164967099126808,-0.9820349833580678,-1.4425411942790516,0.004840254912230695,-22.863491889799768,-33.825669439413545
,-1.8487489218510733,3.924245660507652,-0.33908858844342915,-2.32738649841986,-0.8664023660992546,-1.237334285007674,-0.9800443512751641,-0.30338618917291144,-0.5855435630624112,-0.7987777992964729,-1.695179360391166,-0.11381646162894853,-25.61232600355636,-43.8465570484465
,-1.70668036998409,1.9906531144233213,-0.28049842434628863,-1.1603186363577918,-1.1231991277636117,-1.440719444282684,-0.2571405134818939,-0.8610261882073972,-1.121896661852768,-0.5660356367046269,-1.412952507346366,0.07806172929131687,-19.59500679887316,-56.63897788304083
,-1.07589668348198,2.0649640093916095,0.0024115055103002604,-1.8782960994071327,-1.0374805010239638,-1.0551483521423382,-0.8261449679077514,-0.6646713503806028,-1.373503255508643,-0.8771647949138247,-1.684635741145724,0.03976501965599524,-15.568394005461288,-48.55787299203217
,-1.140891084274212,2.913262983823758,0.13149077971144582,-2.445502889776281,-0.4516065036098504,-0.12736546421577005,-0.8737291635127501,-0.9046537686720216,-1.0082525481134827,-0.4203639743253694,-1.599092857632109,-0.3703830689224784,-15.342966163374157,-57.1755810534835
,-0.933524564253914,2.8818677434957527,-0.17382477549841296,-1.0493917706958371,-0.5657223730831363,-0.718301680451648,-0.4596826282850341,-0.5159514334725323,0.05452464470610398,-0.037900004378823605,-1.008296986263399,-0.4314075947046511,-12.881325034211825,-31.597402480731066
,-1.0567367951981275,3.0730719448442234,-0.5795183783548796,-0.8184258744930867,-0.2548523964548911,-1.1896535304016145,-1.0556607359723917,-0.18432959244900768,0.1807582489144049,-0.40153311702401134,-0.6310634535036826,-0.3350252692076328,-8.23459509022875,-29.63816651694912
,-1.4271604031153247,1.923159470907105,-0.7729083430506912,-1.2608201173033617,0.455923810425678,-1.387923612971825,-1.222014656213288,-0.8159281023329755,-0.39467435439104426,-0.6031214102613005,-1.071302917381258,-0.8241131672034561,-12.820369607155675,-53.19000261371039
,-1.0618539590866523,-0.1960188119653194,-0.4853996835494329,-1.6050102718230264,-0.4814343618075421,-1.5955908885471488,-1.1269186909323947,-0.6753922879270982,-0.17611230243618822,-0.5481285455697646,-0.9147708871491008,-0.8642836394219918,-12.625175137197088,-55.980390800012934
,-0.5304140434302825,1.1591105382702616,-0.02755158506737485,-0.8883496184391517,-0.60926745058613,-1.8801093844273977,-1.1383477098043928,-0.7824766012305913,0.22137163302071455,-0.7640997908863442,-0.9988151993017151,-0.5494325747927946,0.4139372745370142,-25.53477089300602
,-0.056761408202746215,0.787805925277576,-0.0025279317228388792,0.48804939768402733,0.349982927002307,-1.3367311526047356,-0.3767193597053289,-0.8013343788953284,-0.009074544189314021,-0.3215297335262835,-1.0313628778701294,-0.05058111061561417,-15.543311910861695,12.031326283831211
,-0.49923920481841705,1.5922559704724557,-0.39758054136717774,-0.5610599958835967,0.8294274259722935,-0.75297381729116,-0.018538135025264663,-1.065768318853057,-0.9537294755095155,-0.8907118200895806,-0.4634428359161729,-0.016605471629529706,-8.720126309574827,1.847838796567416
,-0.919638220863922,1.736150461837907,-0.5092373973358642,-0.7902113370754638,-0.2801468992699415,-0.33295809374777613,-1.7232212158122335,-1.3151764635438907,-0.8683965218566821,-0.7541413576372593,-0.5321041963984247,0.1800763976771984,-5.2958199777487955,-22.89611340581576
,-0.8945717219065856,2.300050695902256,-0.16705005539657158,-0.635978019818177,-0.31820130216181836,-0.14647610602780298,-2.616742865240029,-0.5646611650200354,0.2684058845350075,-0.7647151536721868,-1.3771446749330762,-0.15043697112544333,-27.357794123833212,-16.333519229164455
,-0.8263361438574209,2.596117352606844,-0.19693881414028205,-1.3300563294020489,0.9272590159079831,0.005817991400318885,-1.1691804736905311,-0.7129646683450472,0.08296834467790024,-1.104598181123594,-1.54534279636721,-0.6653657901695442,-15.529450981320478,-30.58486371047825
,-0.43464048917736137,1.5821156203466096,-0.2913828615126064,-1.3741866920460006,1.290348484909129,-0.00434233503787785,-0.20292585285016024,-1.1009620553247,-0.2900980073736698,-1.0110821799591763,-1.1443012155456311,-0.5999959492288444,-11.251051700108238,-37.21653271372725
,-0.10250885178850015,4.319507212264467,-0.2697059528224611,-0.39093574316512586,-1.447264142442545,-0.8824080563942596,-0.6411986644419776,-1.2681695698706392,-0.7728598379173893,-0.07433499291183875,-1.4911666878215089,-0.03222985021393583,-14.402794654949485,-38.45767312440796
,-0.4215135205491088,4.15593988533034,-0.18203974621886196,-1.1826919722047466,-1.8811738721099294,-1.361365601423251,-1.4028143437924914,-1.203156259531335,-1.273826741619728,-0.4613246439414167,-1.4173453691653446,0.4076539597092822,-20.698475126714,-49.92742153132826
,-1.1331345359829492,3.8340954269874667,-0.23316961250690932,-1.959843103347932,-1.8659584292834153,-1.8157191659170049,-2.074717177322276,-0.6656919144854224,-1.5577092190104393,-0.9715067932910806,-1.331592860546712,-0.07069658563283204,-24.99644654574492,-42.998636279719406
,-1.1272639119142254,3.1598787106027557,0.14948258160405045,-0.9119513462549863,-1.6335649870589233,-1.2807111292932325,-1.046204022864443,-0.5533940091075652,-1.3130622524691613,-0.5150489836371162,-1.18660964873422,-0.04634833015965343,-17.895209558318797,-15.445463887600816
,-1.0241464044364526,2.730895290404384,-0.2652451425463758,-0.2412392463242348,-1.4672301377323889,-1.299260047564656,-0.0061780669247666516,-0.9071696232020112,-1.2075632970518677,-0.5911565873404919,-1.6181683323007408,0.1638149774261704,-24.204132513058706,-43.83719880257548
,-0.5265432647737947,-1.4454808901830785,-0.3046062945818427,-0.8547525113830394,0.31319631677930065,-0.7340066273606678,-0.29774928969357345,-0.849441816468337,-0.7217872121576381,-0.07706099583424307,-1.3826787261653213,0.474615026341365,-17.527295381020867,-27.674109091096526
,-1.050531988924572,0.5419445215792641,0.32716266262818333,-1.5355713709976568,1.030308343693076,-0.5562487584533725,-0.12193985370167064,-0.2075919787696793,1.239279903171031,0.039623928648316854,-1.6870107822123914,0.7692240838551871,-4.661233451016593,-11.30598598328459
,-1.2262076558201416,2.4675992797169832,0.2339922832612343,-1.0094247743050724,0.24140056646408958,-0.8756398074200833,-0.346956430788575,-0.50680498919547,0.5935971723921121,0.056521747900780045,-1.4107474359645487,0.1383856701087596,2.1390310759724382,-33.207557132727096
,-1.5789085648428363,3.9541180044050996,0.08944496113209235,-0.6038923434087095,-0.3903253630393177,-1.037598605136348,-0.6321156512358407,-0.6149928509756036,-0.35002050530985,0.09657276555299922,-0.8040976155415942,0.38513169839017686,-10.557296906240733,-29.014676963008263
,-1.3790670399143596,3.6109779314187382,-0.19609284042996525,-0.6868937873324983,-0.6659538202422093,-0.8857096157596867,-0.42953179730199237,-0.07903110479450237,-0.24705860145642583,-0.4548501327553138,-1.249471108761571,0.28651421963387586,-16.51946357738335,-21.14632473610679
,-0.866754751947011,2.9664281851117256,-0.18177761047119873,-1.735725342792291,-0.3231763253130632,-0.6576229180569662,-0.456217270946354,-0.09599182514170079,-0.5481932310459634,-0.6219504056172672,-1.4949161976158454,0.08393674922724753,-4.415519741243518,-37.11789772404979
,-1.121320949168471,3.606554056465601,-0.2257130859627439,-1.838753387683505,-1.0208153136948213,-1.093762111606084,-0.49769203870776324,-0.10554904240398072,-0.28173670849363525,-0.2116593544079048,-1.3850301961303966,-0.4677986720130787,-4.751066067431282,-33.5693554336189
,-1.6632196980281633,3.263868176371775,0.11779259737865516,-1.0601057333358952,-1.2460828842854372,-1.2923309447986844,-0.13544895662464704,-0.4555979184474855,-0.37950948179372046,-0.773567755090388,-0.9401116007469984,-0.6336465814769645,4.957110277789337,-42.55379843232827
,-1.5886997281112651,1.52886166683077,-0.31421926916696197,-1.59108401413212,-0.5535002718905657,-1.4956219124043881,-0.6004204905648046,-1.1281697337678893,-0.8054750602832,-1.3127856383289787,-0.8090754607762819,-0.16156675714118907,-0.40337652789018436,-70.339685159483
,-1.9462463010803717,1.64464554134736,-0.41413879826887334,-2.125188288003701,-0.5667952017948859,-0.6612702915974246,-0.3298049581111396,-1.0682983936920678,-1.142243538295328,-1.687722490217346,-0.8819351693210651,-0.027538060209568078,-0.9445800856619552,-94.99549420016002
,-1.232786345885811,1.1068352252427829,-0.3680904870832979,-1.3881329784050318,-0.673062091825475,-0.2243012432460486,0.1880741172155904,-0.7515228015530646,-0.5384579746047043,-0.9928937024208131,-0.8748240667013171,-0.028590600200253297,-0.7173201194417277,-60.26766543409492
,-0.8446564822470474,1.1040821410115613,-0.24798469018672803,-0.5418707414328373,-0.6341966279240207,-0.3891555781032494,0.18098990535304166,-0.5667546544853244,-0.5644374747276545,-0.18479560019648855,-0.8990217024688737,0.5511838226146475,9.475994220600006,-18.79083773142797
,-0.6245090936294946,0.38921598039263905,0.39022601419504577,-0.6698780904248028,0.10524896229184365,-0.4129109614571624,-0.3380310779899031,0.20796347192058673,-0.6912098321656234,0.2708662444017477,-1.0980252108311004,0.614813883581563,-2.156300810013954,-64.59625734139443
,-0.2587729754837038,2.0660211172161493,0.3926944926482581,-1.4176865880392955,0.09785518218102982,-0.5570236490880758,-0.07262816111287469,0.5003606906089237,-0.5512234997582908,0.9206095238215882,-0.7522630882203946,0.2807953749226913,-12.9173713851789,-62.209769405445506
,-0.3963409456165718,2.762186798756642,0.14416879948131167,-0.947451384474578,-0.0598264718975401,-0.8182483946597658,0.08299544684094413,-0.3713774242280086,-0.5364016898683707,0.47859904724832086,-0.6658538368742771,-0.19790732986394102,-6.953515551653097,-37.08606577550938
,-0.7176757978231435,1.949707206370441,0.047105101330059386,-0.29396047897995153,-0.28326608597406766,-0.6386584201420914,-0.8154669251026552,-0.6134575366079456,-0.2475933682584749,0.0435533326707729,-0.53820357998709,0.02380275161552739,1.9201318757396972,-35.66944052264393
,-0.5474448285734561,1.186263694739693,0.40123209457386655,-0.43000805949682447,-0.07302096295501762,-0.6025834039187855,-0.39809173584868524,-0.5093900966745155,0.048263110745867796,0.3497154901634333,-0.1678548531069127,0.4835317175319548,-3.1485350034080577,-39.1956251084451
,-0.9177739785354057,2.132315818167593,0.34212954108893084,-0.7695483674559959,-0.1278076074731408,-0.7478261372356827,0.1302769000072565,0.16377539286834875,0.3621194147555241,0.5090385167534315,-0.29014599732766044,0.18949919103155236,-9.827298671332171,-54.495956418061766
,-1.713929178567989,2.8685796022701138,-0.22586198636245747,-0.6378832754068051,-0.289753862812495,-0.6212073844901685,-0.7612461230895512,0.18350480300696423,0.23464288720408746,0.3979846671657267,-0.4935427571362267,-0.19666515384307423,-9.57070139094636,-72.74076007737631
,-1.7131412707370934,2.312850453030239,-0.32433312325639474,-0.5263070588990275,0.07001101413769861,-0.5490847398555454,-0.9145086279380839,-0.3154408162705887,-0.313181647416116,0.33317471503027424,-0.4313453835744329,-0.23322938881374458,-14.800028942256668,-50.16065841865763
,-0.5200150143961043,0.23890978006218633,-0.058304865541703076,-0.22899297308688263,-0.2908932420028588,-0.39902622258315296,-0.6797390739781195,0.0818969294253678,-0.6019759847945844,0.6980274506543601,-0.56157169642058,0.028602019100960867,-3.6107951619354406,21.695521700516007
,0.19276971993594935,-0.3075146302104323,0.1002675976882795,-0.4566663425737296,-0.0991853639009914,-0.7073931256235051,-0.8371978010859545,0.6697467585510222,-0.34031713959307863,0.30162986051699525,-0.4025053411997378,0.18752036790644047,8.038202628914451,-7.77198919269782
,-0.09007043072596413,-0.795720174131631,0.1747028961304636,-0.11741985278151892,0.8331351026572745,-0.7191953093951102,-1.0054146585622508,-0.03775906133850016,0.5430020298367382,0.8564058654478156,0.03495171417463701,0.22238065832015866,1.2592208633480304,-27.719658219493372
,-0.8960327018498548,1.0905592271351672,0.10428545917496594,-0.47320879350830125,-0.2894157475362317,-0.8460135307130081,-0.11404137301595366,-0.6158370641355452,-0.16493757872267142,1.0601542567060573,-0.5310868204997927,0.8391880830553407,12.844017204405528,-39.73502179920534
,-0.891669328854276,1.2377051552835587,-0.11727592081766121,-0.7430469523948692,-0.8586135368428257,-0.7994329264200954,1.0785269233364776,-1.0125235335598777,-0.9397070601071613,-0.16070279373732851,-0.7305521096616586,-0.08221296240669863,14.222637755726051,-20.450112307849153
,-0.2828144223536388,0.7311984536827443,0.10794746582689388,-0.23418702212055545,-1.1760235295216492,-0.21123431418318375,0.9349420051850135,-0.914775362781635,-0.35089845058079466,-0.17691843549878314,-0.7930068429188828,-0.385687996167528,9.278564759120393,7.586983478429071
,0.021297985301227514,-0.28377173469043754,-0.16178280975398232,-0.20785510342626834,-0.4152059764262286,0.2688642071228997,0.8800063114389426,-0.7559111019770867,0.01459267018302432,-0.18853718819099977,-0.48463583827958734,-0.14148278155339875,1.4726884545962708,4.609609967280273
,-0.551241102481906,-0.745592455186749,-0.21521227378458055,-0.9492567025364618,0.21340159815945753,0.07230612089875735,0.09000259585048453,-0.712358188258343,-0.07661751287365215,-0.23899307064612096,-0.47622981198840125,0.5323453385991829,9.172696592814347,-31.74026322865592
,-0.8596465351325603,-0.6841566356226139,0.18629619441513723,-1.109950887719541,1.0187018771364293,-0.45264974937703406,0.2571065476799289,0.11553324951564395,0.30430546709150263,0.42617716997543076,-0.540227930464311,0.16389365793002802,12.056517246606152,-28.428317237359664
,-0.9067370633175518,-0.37267684890762104,0.28052141912799516,-1.1476711004029854,1.3900355580849562,-0.03145748920078783,-0.15652133844367347,0.32744985876703775,-0.1467167507080684,0.16465172679911833,-0.47315401236163895,0.04562586875105831,20.39899008679575,-18.815327610915116
,-0.6433593921693218,-0.0833566639471106,-0.23747876058752065,-0.9343896612529387,-0.049848543465708,-0.4628495932847588,-0.7593845081420245,-0.6336306498943979,-0.7477747582353966,-0.6830359584363942,-0.5771809748730439,0.8251690526193238,13.093907177442457,-15.423490392770953
,-0.3038668537878965,1.426560735383943,-0.34591966893893383,-0.17660994054013535,-0.024345293108891587,-0.3894074857711426,-0.11039268274185772,-0.6870737324445041,-0.17863742243419733,-0.41854429180511377,-0.24262786648688064,0.29297341437158814,21.805401302348308,-16.484568704785058
,-0.1955132143755588,1.290572550409475,-0.577203701160291,-0.5085045158216446,-0.17253115804712252,0.29982289270068335,-0.31226861341352474,-0.3744698257596068,-0.13957041372576426,-0.2927514857016741,0.428463277794754,0.026096922500102773,25.924312087195254,-32.31279061004533
,-0.3169198826547866,-0.3177648746018999,-0.4069930432161391,-0.43835114903436667,0.18210603934724026,0.16164248955272742,-0.32968563010369395,0.034704231802081445,-0.22608564696850825,0.3992786105397843,0.009547030165911205,0.18597809886459238,32.522610375737685,-44.83759787563337
,0.8521559550489688,-1.2275007994130875,0.2295516443336316,0.44997851422198465,0.4355934000373431,-0.31374205817083467,0.3041551104228804,-0.41297057682004384,-0.24408925782618224,0.7392210082660831,-0.16915307879563726,-0.13337142312271452,18.197884082304,1.5917104210856952
,0.47175990663256046,-0.13887610726975166,0.12441505078150698,0.33907679978464755,-0.6043531616066206,-0.201431876487941,0.17469667929279553,-0.3744072429454071,-0.020308453070779074,1.1687043276482316,0.8565121015462288,0.07336224256557969,6.558412590985742,2.0471563761038927
,-0.2035639273518732,-0.4512589247886219,-0.45622756287773514,-0.639114274818046,-0.9940835738155238,-0.19140229606787218,-0.35229787742121593,0.18190770422295235,-0.10316080419420456,0.8520625373725211,0.18644490746380776,0.025401076792381995,3.3311054445741517,10.878181814713237
,-0.35000218170213326,-1.8792107392704627,-0.31055227978736344,-0.8434774562772857,0.005273471338099844,-0.5829741190932782,-0.7658858082682766,0.767803375736235,0.0156688365364144,0.3892792908538148,-0.6165261593642773,0.3693597245514772,-3.1027625238249823,6.886552160145795
,-1.188867625462282,0.6999009794120183,-0.5322282725448877,-0.529507446466523,-0.5261739672615372,-0.38930677263457786,-0.6995585779043352,0.12075535803164204,0.27573169686562526,0.6750417356959345,-0.5900637573803644,0.9911938412017545,8.816545498280014,-16.989592285929337
,-1.201317428158197,0.7692973448148521,-0.42663004067793825,-0.46535837483669157,-0.842037819051081,-0.3684532678361952,0.19057186332209922,-0.3781424906539983,-0.5391080193837595,-0.1589579011901303,0.19535826534135917,0.6955103972581085,4.6737460875602705,-33.49737047490705
,-0.9293317779475687,-0.7010473390010145,-0.22719805513600513,-0.07272282317490435,-0.0731411006702521,-0.42705130362700094,-0.19218768199399627,-0.3438394493705505,-0.9051619982408254,-0.2803370984151861,-0.11555162484638515,0.20433059632540618,15.989709633897277,-29.107689839180512
,-0.10291865814346958,-1.3911068740628905,-0.15070707105424722,0.5010847948856441,0.689019938573569,-0.29769974340604016,-0.2922808082119474,0.18894562966288475,-0.27793060051869656,-0.032756564806649326,-0.3722183461478684,0.25519804535435725,13.004558283667452,4.772278909923976
,0.24351800100870177,-2.106585542528237,-0.2060272960004116,-0.030716945357593926,0.039498465609487915,0.443859544139923,-0.1774163850292568,0.24603924891952123,0.415706702734999,-0.10756607014806442,0.2085991144672289,0.8192534701327389,2.036106160229356,1.9090599551014382
,-0.33034614240718646,-2.8034033817115076,0.06309758311329963,-0.19362987700883774,0.3634346651141846,0.1390512119500827,0.3392515653780387,0.16795915454440014,-0.1505179459259247,0.2296405850259078,0.4107451052737746,0.4522121540999091,14.20979611035046,-2.670089053725325
,-0.464572024071003,-2.9022126216120703,0.14362256651054492,0.9592271789156757,1.415195148526016,-0.22268501311144423,0.7631383142058765,-0.3513202329189652,-0.09473924881493566,0.6751785277900191,0.1730361897905982,0.27841786907655514,27.510023544292515,3.163538057032549
,-0.8994638762932952,-1.855904492201269,0.1153552412719094,0.9476620012925407,0.37744288812076976,-0.5595929302122236,-0.018878140731879208,-0.6233236811922703,-0.6480240101851888,0.9206445569965697,0.08500924043436102,0.1663817514189437,26.55309972023606,14.898004991815707
,-0.8005803751050038,-1.1784455643118925,0.24308861408662724,0.46123586580547743,0.3020690482026395,-0.4331958730671138,0.01210951627603373,-0.5253216722897183,-0.48787665593794616,0.34661509975081095,-0.19554548611231817,0.11368402557119428,19.61504921753257,15.838436265996423
,-0.30784008401881996,-2.472979256382803,0.1041115150824887,-0.510147744466627,0.35026260970079803,-0.7094658719071153,-0.4567492574127499,-0.5770566074984667,-0.1247433508385272,-0.3182288397724949,-0.7434104910847621,-0.31549053894195456,8.54764605562479,12.68528180221912
,0.37294060870458146,-1.8940802269924102,0.04663399837259076,-0.6219204086323644,1.4027169616247828,-0.44260339291781087,-0.5211530043440703,-0.6202176036998488,-0.22749713713613975,-0.07304790797480087,-0.319683317838431,-0.05531794827599566,24.13970170796954,3.482850587415546
,-0.23633359380475047,0.291453255104445,-0.035113567783511324,-0.6789836241321534,1.0538131806114317,-0.04201474766710187,1.0360825845203343,-0.6719329573405723,-0.44334103585736717,-0.614486607254536,-0.1422434953969862,0.37232481237438947,14.373752991196454,-6.340911982416847
,-0.9230928782981002,3.0563080716104727,-0.2581748339035514,-1.4250679589513793,-0.18848284618823213,-0.20561858771935082,0.3017262724935108,-0.655214212015503,-0.28718348286115314,-1.3645295662383994,-1.195804271021696,-0.22740897124930085,-21.41919982917615,-45.756256146275234
,-1.5416839106893145,3.238511162136348,-0.825636116644612,-1.7170019211059369,-0.03642155785020124,-0.24317521008512583,-0.13311414095464716,-0.275149437693317,0.29857429945740577,-1.052953172709645,-1.737849464393838,-0.7091814294408946,-46.84501596230325,-75.51173605960858
,-1.028300172386476,3.966429753698074,-0.41500631751202116,-1.7297639085918248,0.7700913911048788,0.4401187167891877,0.2781118584276053,0.09783266254683959,0.8654112753833219,-1.1277970668334218,-1.5260093013546459,-0.5455217164307756,-36.46775977849293,-60.65485502427985
,-0.7510037212871867,1.9646746127301087,0.07802082543758718,-0.5370812707328176,1.5000654176413735,0.3909808344490674,0.046140611153215376,-0.1781169641363714,-0.0876453069996516,-0.6237770714278382,-1.4090777219024604,-0.29872905057542937,-13.456308852071919,-39.922245584501596
,-0.38994455300420977,0.38397393275731995,0.16244145123793186,-0.1361075971788268,0.5790220993017255,-0.34758125426340897,0.2631315944555637,-0.06693702167101873,0.02137907905277671,0.15626182614360754,-0.7490446866397713,0.14174613973445008,-7.196515183976598,-29.890110490451963
,-0.7520194949051754,0.19838860944635187,0.29504045961378195,-0.494595706789026,0.1886457392258417,-0.5405281679549983,-0.2494879643202998,-0.2999884999635183,0.10404607181111766,0.2375045337429668,-0.68041373764595,0.6499111699973625,-22.18290920871794,-44.187813797892545
,-1.001177319838357,1.1486127313042438,-0.20588416863231337,-0.3356589369544103,-0.5406056916615591,-0.5499990757564862,-0.6216058388608358,-0.8805203768245052,-0.49405397720545563,-0.6409639419806435,-0.6904667866821658,0.3218185147899744,-12.073364048571744,-36.62668593301594
,-0.8479349027471501,0.6278856647972619,-0.022768300989198197,-1.042123296936601,-0.530692830776558,-0.07853606137956647,-0.01848610775042351,-0.4630362922747771,0.005802156895549822,0.10400861001019432,-0.7035151900327228,0.39678901942783856,1.5107121326698465,-26.668847798331075
,-1.0986999035445866,1.876557647556879,-0.06418025390506817,-1.536981475545532,-1.0289941143335384,-0.6037940550377564,-0.9901283516253628,-0.7596595209545389,0.14578912331933905,0.19305747386994532,-0.4673168607226352,-0.06604758216805971,-6.050149407099532,-51.89571672115766
,-1.356119987253351,0.5806187598631481,-0.12177766681959888,-0.6319046835109681,-0.567330850711383,-0.25490647244996434,-0.7058776228353536,-0.3812665950856976,-0.15717102155703544,-0.3046500517127195,0.11947617920278651,-0.4524774588247602,1.4846417546579405,-49.27566704381574
,-0.8013470802836579,0.7699687499931586,-0.05754598248958323,-0.47537070244040147,-0.37268191624493874,0.5786181700627336,0.19046450829128664,-0.2729885465413602,-0.07915248926747527,-0.18017491496717458,-0.03302807013585657,-0.7013425197516856,5.615294549269054,-29.131176346947846
,-0.7419548930080293,1.1624472818292466,0.12707196570097218,-0.3286468595413834,0.2659926596247951,0.4423670863123463,-0.04967446207244993,0.05153039489042525,-0.18857676427691514,0.3836367995768253,0.23606748179538484,-0.1409355066619104,8.569534904996484,-14.504217040401176
,-0.9206626325199774,2.1565747695192004,-0.1299851616529019,-0.5559043979693018,1.344902552127596,0.24482598686591706,0.13037051154417087,0.10883286065885225,-0.20265385830001081,0.31148883741673933,0.19332557972294884,1.044158296964203,15.50719170046078,-29.714163664671037
,0.033057953829982875,-0.5269264274240525,0.10443089622952878,-0.5763501688285778,0.709828647015996,0.27077363155618717,0.2301369524856364,-0.3494024031731426,0.05546058596043386,0.15398541807261157,0.5951560376386591,0.7931910477797929,12.253310749624092,-1.4935366169043642
,0.5099429794070005,-2.9409043484901356,-0.05489305729047197,0.28780126332003053,0.39034391634676585,-0.12600219836724655,1.7926468995956089,-0.5332713130395563,-0.2504387124927502,-0.11518047895763199,0.12480978614838281,0.6115173558095315,5.308343970331958,27.04089529478416
,0.19264518644091505,-0.9604168359907694,0.3350366515251923,0.8787536454689301,2.077171899969831,0.020820860534017938,1.8855619525705594,0.3416471825573284,0.10312355852264984,0.31709173946641006,0.28935068905642475,0.6327442505669059,17.12499101651412,4.151255721026291
,-0.6648826034987007,0.40995847956328346,0.25738135707820176,0.10009779952826604,1.0653791427300188,-0.06576248408046088,0.9325438221043623,-0.49478738609588546,-0.3695402505078803,0.5410760659883349,0.02053020831510037,0.18408752553117555,18.23241074978256,-15.162357284247141
,-0.6294017697529747,0.7531148450452624,0.23046311926388796,-0.9936762083867714,0.37960717118307274,-0.3546495653628959,0.4349021445600455,-0.418906458338397,-0.07065083772427094,0.040546644343347794,-0.37070564002444695,-0.21257130434300714,14.896353544246397,-11.919007780546904
,-0.5557893727376977,-0.8701521688456262,0.3837358505627871,-0.7368749012568135,0.31696467967957576,-0.17087530286039823,0.09515252963905098,-0.1760787192647227,-0.056392194884300036,-0.19215210168895216,-0.6957199887964941,0.17693100552916918,22.117164050744528,-23.254750507577487
,-1.2385077049160145,-1.8317909478053815,0.24389304288773406,-0.259451794166329,-0.17283775265887352,-0.25038509408143156,-0.351418829555957,-0.5522369820651712,-0.26266658489228567,0.24421746617107007,-0.76238499314397,0.17873544970703859,23.569563568602934,-28.08587360362717
,-1.0483902088581474,-2.5226520909349004,-0.027118010733933665,-0.45025703482871676,-0.47732426170871173,-0.27595701022312163,-0.2516795709195999,-0.3393744797989937,0.3153675504830918,0.345188937413792,-0.3614483299400954,0.3666197248673696,18.81191745820026,-21.88682387835353
,-1.8112874222479414,1.7762726243657965,-0.7440812363703553,-1.7944675983034044,-0.2802612032671,-0.671370485138345,0.14542809384076924,-0.5560433702163861,-0.39549314610561653,-0.7429568266332232,-1.3770715660371298,-0.13683803015037047,-17.409377592699013,-31.54133588795738
,-2.398953214237946,2.654332115457432,-0.9774447337005064,-1.7773509356166524,-1.2872234786812824,-0.700046153190748,-0.3337147083996619,-0.8913546219447872,-0.9193624560142143,-1.443153985483359,-2.2857514451246566,-0.7675379668197525,-47.32772405858386,-47.96772402732684
D1,-1.5695279179546355,-0.21697480867360658,-0.42630770967625925,-1.2637875730679846,-1.576713386227336,-0.8902009318597589,-0.6052160130499972,-0.5669466467691174,-0.20907685720779867,-0.48441842556798786,-2.15971491873178,-0.3914979042053153,-45.62992826066429,-34.94354151414464
,-0.7544210154899855,-2.27968330342771,-0.10893276684614796,-1.2397086557884547,-2.024911979970995,-1.5840156030726458,-0.8900423552167049,-0.5068421726543925,-0.9319492097884503,-0.36323219293863646,-1.6423538910049318,-0.2924122650369951,-25.629995362819948,-17.958369695173662
,-0.7912654376015851,0.48506011317462955,-0.07772842485248202,-0.5297577624832902,-1.6069916027643836,-1.2138909399094528,-0.7505372100142842,-1.0267887141127165,-1.162098295895906,-1.2008669798869953,-1.6830245347823805,-0.5447013458069858,-15.262398800328604,-19.249772344778034
,0.03444461105627381,0.27214078663456825,-0.019571954094286376,-0.42024057601941045,-0.8607487716611298,-0.5421892404595391,-0.1305455802948541,-0.4374629620153216,-0.19176537033024282,-0.49334104325796024,-0.7135633661859038,-0.01977401084100797,-13.499504352101749,-7.885462296483812
,0.35645766222545916,-0.14030101284082502,0.2732061995682739,-0.18075116526938365,-0.5843302918744323,-0.006586295295036634,0.5489030808739,-0.2420633219935692,-0.1022885177085022,0.019303494389813693,0.008187216328200237,0.0026131461023869247,4.895744170496004,-2.9389416123157215
,-0.47740603991386077,0.2828591092093675,0.6096053284612492,0.03511387130306988,0.9093543238459707,0.689225848723016,0.14705169726001652,-0.14769225871542707,-0.21897239535358898,-0.1820373636432552,-0.3291157734061063,0.41371497981525407,15.411028034674091,-28.137312863988814
,-0.2538816971957506,0.7422494390623894,0.2672962539998774,-0.1631457322679698,0.2890016507165853,-0.43791971900836113,-0.15300754346011325,0.22616450407122707,-0.551545529500133,-0.5570848089318857,-0.48671950130103914,0.37256813898309316,30.98867976861745,-4.758428447190089
,-0.8791459158446798,0.6195423471017746,0.11177812985526092,-0.5328593450451684,-0.896431898791518,-0.8470971428610747,-0.4011211051213122,0.26440702287038037,-0.12895843089704498,-0.3489054739582731,-0.6870746297156715,0.5637124072088583,-5.4565785108009655,-31.08379497733958
,-1.009227094793974,-0.7583707948633619,-0.10492715321314151,-1.0157656462252604,-0.7311179395995461,-0.08009188534767388,-0.038946782629832685,0.38611176131319236,0.017361135384068235,0.33488686297577164,-0.6802559803305548,0.5019797894619786,-5.853340310360493,-45.9355318419522
,-0.9210552142095991,1.2091218424462178,-0.2635797183527442,-0.7665428425332261,-0.6264506006712651,-0.3216159203281905,-1.3422275260662502,-0.5059467336680153,0.2802821149170874,-0.08618578727680387,-1.3432669452188266,-0.0017289510672937323,-16.705971766785368,-34.44228933672791
,-1.6228589600341259,1.6315188428264933,-0.18143153260457526,-0.36745375113196815,-0.4406008124186496,-0.5940065282249237,-1.7366826222383638,-0.7092453776396751,-0.2459843870351048,-1.089397387907413,-1.8288848548321972,0.30570589883287425,-27.29044757430314,-50.23496240857491
,-1.7667923731584922,0.17240518047228445,-0.15150335330672468,0.30662371014360806,-0.43994430546279506,-0.33162702117618137,-1.2393374455831487,-0.7887476286636823,-0.6145610289934638,-1.3630886472210815,-1.787126993907832,-0.26078645470713163,-11.53077737425282,-50.95575095125592
,-1.3706514069438525,2.39013057830782,-0.19571063889381557,-0.6424703832170825,-0.6667880478536007,-0.15566768477643317,-0.5727810725994539,-1.0741935955626314,-0.9613742971711231,-1.4551960856195798,-1.4110919584862143,-0.29285054937067395,-22.508030682618305,-36.048933387310655
,-1.3723004345729404,2.965143954895931,-0.5789159691218912,-0.9073009067970793,-1.12326318531298,-0.9312378745251659,-1.2094481684211307,-0.9288259837640108,-0.9126252759135259,-1.1186281154188469,-1.4715061393532902,-0.367168694663441,-19.79424011782142,-35.84463415727883
,-0.23043155139255375,1.4455908381461806,-0.3125199522751462,-0.35805830893252283,-0.22212407789688923,-0.494957701612248,-0.9360218267061718,0.04678794976865399,-0.6959697154782508,-0.670464735795199,-1.1088795685745378,-0.23172385984054417,1.7125341309537905,-11.734052008853103
,0.017133528911854677,-0.7240885096888497,0.7022274043418388,-0.6526715415415529,-0.8409935808625959,-0.8590455349976347,0.5138900279552764,-0.17623489709392037,-0.6270641905638836,0.17047398926131532,-0.8590735739242067,0.301632034855681,-6.125772483979668,2.7182329795183673
,-0.009297636644791003,-0.006380367574870211,0.07074649813365799,-0.8301679553784556,-0.4936712227532788,-0.9095222513080933,-0.3245092462454935,-0.3248576530073844,-0.33578588148860566,0.304836805424024,-1.0272452994111845,0.47650133180147575,-9.891153638858482,-22.857799418783934
,-0.4964232459423003,1.832697503909894,-0.011192063661335846,-0.7979576939495236,-0.5362401615266711,-0.56734428012566,-1.2026686262803217,-0.74823131073943,-1.1066473417074094,-0.9342663555448654,-0.8352944214858093,-0.13688149795635993,22.38722874047276,-35.3283432968866
,-1.0471934419133766,2.0270706346763587,0.1564698651841718,0.2568577816569348,0.10037149304619616,-0.1517808590695849,-0.6473175433522009,-0.5320627589014749,-0.9624095784275435,-1.3932317073573872,-0.9428256754604393,-0.3952542023417342,1.534717662029265,-37.31211712244554
,-1.1036802428789145,0.5125601486514318,0.16900545493230146,-0.49459157352139443,-0.13388140313923316,0.0649831700892376,0.13958939120774697,-0.589861627185681,-0.6859779968533669,-1.1816461865255046,-0.8518458388552428,0.05900398745605052,-10.117493408322682,-30.890790096009415
,-0.848905414520253,0.4852832846120561,0.24085979384821418,-0.757094993169002,0.19421714419196054,-0.6650378324244252,-0.6519685358751288,-1.0391114214528419,-1.0379817575691535,-0.8978555016139137,-1.4864328305236696,0.2032501659574152,-2.808376203084245,-25.272016179798804
,-1.0402102270466185,0.7275991210370373,-0.13296526869314765,-1.8917643543153893,0.1849270974303987,-1.0703861467182305,-0.6983123494249976,-1.0174819507472745,-1.1034261964984684,-0.26949761446318166,-1.523204818739575,0.7764512128336378,-7.202848419232233,-16.134753694713023
,-1.2534412956665886,-0.8727655860143393,-0.20890787386131834,-2.1808131263891357,0.9870630312609944,-1.1572223399802766,-0.6618362408579649,-0.9617461563853231,-0.7824408294561361,-0.20251797894612533,-1.1096929123541246,0.40164950299463437,-12.948464452952981,-32.073446022683086
,-1.1934359114659705,1.7021260630346702,-0.3341034672911219,-1.9953851363065231,1.4000214970398304,-1.4376443724345236,-0.9002279912381685,-0.46980083925899024,-0.20716625447167675,-0.35096400462298954,-1.322763664976687,-0.11970978522098637,-9.44162377442095,-21.084452765143087
,-1.1583356798505748,3.4712834854742565,-0.48919565120510955,-1.948234447176103,3.0010795247769733,-0.5672549769320283,-1.1177491422137016,-1.1910621821589373,-0.9774885610953497,-0.9182061861030892,-1.0662208761283387,-0.35825480305005786,-23.678856082359385,-27.13892800037274
,-1.1124060604423325,1.2277739930623468,-0.2921932037466467,-0.9128981212144605,0.2649982009336064,-0.9533999175198954,-1.440224215009918,-1.4482068999175426,-1.330159088200705,-1.1141771418921171,-0.8658670435901945,-0.46028956061571946,-26.394001873383814,-36.39494263077058
,-1.1601354741664476,-1.142729226097867,-0.05434639550017416,0.29543372347304064,-0.03510136089559588,-1.0042321956102942,-0.9364261709243311,-0.9719355995618053,-1.2300568484440058,-1.0616027537608217,-1.7651486191606465,-0.20449903890217327,-7.369213076472647,-26.606358196822544
,-0.9551739939426653,-0.48083689882291053,-0.40429139610093034,0.33363915330536803,0.6079237915882222,-0.5005586730130311,0.27371299569985724,-0.9504364430610438,-0.6811179490042665,-0.8851923345233295,-1.4970869182136586,0.17025593414705442,-2.678164812101705,-30.32210013631195
,-1.4091340025475831,0.5594833304736515,-0.2593370897132312,-0.8817123853745849,-0.6967988920768111,0.1954134666989693,-0.5595821489674642,-0.43438666120225056,-0.15089707042392417,-0.8574628142745718,-0.7856578459492001,0.043006945820736685,-4.410751598382008,-25.94396005822759
,-1.1052218784742143,1.0578042441697717,-0.21272324487612645,-1.9682399399645598,-0.23848597847082734,0.405038671683412,0.026370741572259545,-0.49114039675388194,-0.36843681995996463,-0.3781537185994728,-0.5017148385834086,-0.04713894245206492,4.037498414277535,3.433415289262959
,0.2614537613423231,-0.6234895189376589,0.2245262700954295,-1.3152846711124213,0.9295495696834194,-0.06854107681665786,0.922178949168256,-0.7455996284098504,-0.31542051352283335,0.2755814971561471,-0.30410157846795366,0.5098477545035881,9.286333007632129,30.41037954636138
,-0.1539414326278202,-0.6124147532359607,-0.1440509428469992,-0.8508046847425553,0.42228669626956095,-0.22258975243133713,-0.027320122720302226,-0.7983257520835749,0.21554205965611514,0.17603360367810522,-0.5337971454504161,0.36573219787775657,3.2644846049291445,16.702145447603936
,-0.48174264918793813,0.14697435897664418,-0.45026228251333533,-0.8635058284169612,-0.6153408724321672,-0.5811605471702899,-1.083857942225492,-0.6892206492601902,-0.44150156541168006,0.25354874204577293,-1.0088217117506,-0.41167721043737665,-8.236314450161997,-33.04693883918787
,-0.8957605484406139,0.06682762740006451,0.15276216360623518,-0.7582754402290416,-0.10718559303408146,-0.21713711980041694,-0.6389751981110734,-0.6894972940363542,0.03701893940030385,1.111584108693289,-0.9023820875449279,-0.2670018522359712,8.365307495963238,-28.2181439021589
,-1.192168654331221,1.0688914163768326,0.43189694495810654,-1.1013534790847217,0.6290089232955125,-0.21268717975378865,0.3012516129430152,-0.3103011698605429,0.05774648579441999,0.18710813464601386,-0.980844863960997,-0.12454972761290335,8.41643114639094,-19.068382488661467
,-1.067320563770807,0.16908104607980923,-0.3224049655295851,-0.666763956550403,-0.49284484729589106,0.27980078692437393,0.15669160769425555,-0.34198357105247795,-0.43984487983305465,0.43532307195042386,-1.5983090208291166,0.26441383205822694,10.644156002462067,-17.145462428758247
,-1.0212812706503067,-0.8565046319988568,-0.6766746529130175,-0.40545892589133703,-0.5294176134718854,0.028118270251659517,0.2891152874818937,-0.40537489719388736,-0.19359026585032688,0.7856954357583678,-1.173596715436194,0.10460555019510888,12.25437258535333,-26.230383934505053
,-0.8882826958159512,-0.029969367443470302,-0.17868075804969655,-0.6743336950004121,0.7135482339826184,-0.3269556058611292,-0.617459888039898,0.4661282333141273,0.12303028290619532,0.008255349789462428,-0.6735507073735999,0.3596171745504886,10.223511419919772,6.710013785911263
,-0.0533122841040042,-0.309022019455839,0.3319459440436083,0.12706110509977137,1.2836637340014008,0.3431385019970694,-0.28644766055056287,0.2120689648697376,-0.4363455352263816,-0.2709340862079985,-1.0718578262246434,0.5833549015187811,5.857085756090633,14.65816476220875
,-0.14592479276748058,-0.8691258167647932,0.03673274334940247,0.016573917820894644,1.5670333133463399,0.2631502932330731,-0.14976087883801792,0.14178904709140946,-0.27742512405396913,0.1474734525817078,-0.449284579749224,0.17540527794952013,8.49102092050051,-4.405051316070723
,-0.6561964238743778,0.07577110674200731,0.2863022135019518,-0.16129774195617064,2.9146831400765234,0.524135456015134,0.1641616713955132,-0.3219822591437345,0.12066773780752835,0.12033959931728573,-0.25273042717697947,0.2939140264876909,7.888764130782241,10.069752036498969
,-0.6178892267966871,0.22221647849922713,0.1822501918335168,-0.4769657464532799,0.5188203237377851,0.11956037723735738,0.44373514242673623,-0.9228937079286809,0.04091495506737287,-0.5129987221638634,-0.7538329371650779,-0.02840553131543878,8.32020346786123,-23.06396862752407
,0.3746425229496276,0.03960876996053207,0.2300308786586268,-0.30638804609485004,-0.5799140890941032,0.5487974809328715,0.729031105083112,-0.8262782014689773,0.12260995289733936,-0.35441269256811864,-0.9736814719615402,-0.07832629124718556,-0.2123119024835705,-33.753055210857255
,-0.4054200199237106,-0.9220023452267222,-0.038817953399870424,-0.4432739180665818,-0.030348845149904186,0.39158159533117814,-0.09382189711824586,-0.3588207607832541,-0.0820479704948251,0.11969561202678682,-0.7289482641511178,-0.3297956498663826,9.05293102553034,-33.569613390294535
,-1.0656296937129817,-0.023966419875159076,-0.4654891795229929,-0.5502357033237569,2.1167543236346797,-0.0575694995435503,-0.6308704117753783,-0.06819272488956724,-0.24798618317144502,-0.594413979135823,-0.8250914109562447,-0.250412396815564,-0.8615084201390216,-35.06597253210502
,-1.0064881022692023,-1.5089649030680805,-0.3572679242275342,-0.020119266246814333,1.1806534659320542,-0.29295982466304477,-0.23364510773720337,-0.3400715080283535,0.07463392004903872,-0.6890278900684202,-0.3389537639769427,-0.010406994975020909,-8.860775241283807,-22.926667950044184
,-0.7517769316057755,-0.8096826420483964,-0.14110206480104018,-0.8145199126200253,0.9950539744255071,-0.13962422708103384,0.10076454793327365,-0.7546213539990663,0.11809508188165897,0.21303730183572928,-0.2674587561088584,-0.12128605092992177,3.2956654564614514,-28.53013318724053
,-0.44187359154098227,0.8222329218596681,-0.09982516508502116,-1.3373990479016251,0.2934721385298384,0.466875011407134,0.12542388980259966,-0.6847535686978183,-0.2821913478501617,0.4743853040660965,-0.30758764763955504,-0.1700448137611041,1.5483010704748177,-25.28784248948498
,-0.4224452879227166,0.6596638253986827,-0.1831437111355881,-0.6824992457359653,1.1158998727418223,0.46896180295508394,-0.9524473887202217,-0.6601882862191276,-0.31689843107913845,-0.21621491327159748,-0.37013806835923224,-0.16528633278514274,24.916844235401673,-19.938901162504294
,-0.27910376699611966,1.095748042540424,0.6826352402557405,0.9922892184221361,-0.015183841899598044,-1.1589381995965613,-1.0462012605724973,-0.7072447740795103,-0.04277166111018709,-0.4721939061888798,-0.24884277606006514,-0.16164870297417788,13.812715877529302,-34.43519583355664
,0.7991381930245278,1.016525139604164,0.8608569261593075,0.41190558044311953,-0.5768326699477724,-2.1564106593183574,0.3940024159154632,-0.21454500000606053,0.7005210750373648,-0.18896572546136461,0.0473568892824262,-0.11906358569249478,4.395803267995333,-13.7016854105807
,0.040370985242777366,0.9775417203978509,0.1493585222244024,0.6647982768828792,0.33696210451715564,-2.241183667626504,0.5192060203909713,-0.5876983068353056,0.12186021232220552,0.06423394733208004,-0.3466810053905249,-0.1121312302168767,0.15407691308872287,-14.864761619511993
,-0.32033056417671496,-0.06725050743366184,-0.11545553227194881,0.4250770821059115,0.49173754739325304,-1.9631228788248747,-0.016408268377350866,-0.9920678449550252,-0.7385077941014244,-0.16187658707224997,-0.1927352130217619,0.1259146098307164,-2.48003661449414,-6.865720329331801
,-0.35637113498778783,-0.8218288662957262,0.3191957202256316,-0.307325592471314,-0.9050789636094965,-0.5635025732965133,0.49235711590740905,-0.5936083821333031,-0.5909418755366453,-0.29883975800050533,-0.6690631063263682,0.5335810338046805,11.488211864840551,-27.538662371914434
,-0.4681267385115667,-0.3970944736216972,0.09374734559591803,-0.6714500619644671,-1.4908468595372382,-0.6714453947849751,-0.6101413784309304,-0.2888685865547378,0.41259133765201395,-0.0695316708557934,-0.7226133102302759,0.7646281936370474,39.20792529877931,-19.40965430062073
,-0.4216020360101162,0.24170708677309935,-0.15776609762578697,-0.37184876684309076,-0.9312647012249715,-1.0623876514929602,-1.176293808021926,0.08071735059328661,0.46263198024262847,-0.5967375715785563,-0.472974884294139,0.17013918928342567,17.96690467925191,-21.276260657168667
