event,eeg.af3,eeg.f7,eeg.f3,eeg.fc5,eeg.t7,eeg.p7,eeg.o1,eeg.o2,eeg.p8,eeg.t8,eeg.fc6,eeg.f4,eeg.f8,eeg.af4
,-0.9426291270232107,-0.5028955173986163,-0.041492343967864775,5.605654531470947,0.6371185130034865,0.3077077753072762,-0.5202068966333311,0.6125133554458491,0.05454656941631901,-0.33583714142256255,-5.73045628440556,-0.22105820894934142,0.09175398442065903,0.9406423242434149
,-1.5462645683603138,-0.5399463290222803,-0.30995472496753756,23.867196598712543,-0.09574057518976918,-0.411215094906493,-1.267386397291529,0.06892901446986562,-0.18763324130265757,0.5931539841263713,-1.6619931817419369,-0.469826996020662,-1.5926600394961934,-0.002781273316338869
,-1.909838492470507,-0.6645836956319428,-0.3722922798837687,-6.517024417487232,-0.6278406697147864,-1.680500326556627,-2.2356417456233943,0.1966667899563746,0.6785300368201167,1.2334581294248286,6.17313599162824,-0.185616328898916,-0.13961240188804816,0.43702821769081857
,-1.518306622316701,-0.25018472558775334,-0.1986443572438499,-3.366784550465741,-0.40021481031824757,-0.9885087212567972,-0.751038149906979,-0.44625642648742614,0.4304884481295949,0.05615628211653054,4.626134965947682,0.24696435070577158,-0.8700700320583222,0.6499324698937937
,-0.9592514593505325,0.016263036950248038,-0.22236669265858716,13.988686997054577,-0.5571114909802467,-0.12454477887188868,1.7303343466957206,0.7129375190932619,0.17791381963738426,-0.4743579721052916,-0.7511483909078401,0.35979228134870117,-3.568362990437918,0.4284402463815184
,-2.500930646208215,0.4310023371537645,-0.3921792072291881,18.492997293813524,1.1799584560874987,-0.9429816515979959,0.08649561634524106,0.2917859894341538,0.10696354702438765,-0.7038794599489232,0.5418414865831861,0.34615971956750163,-1.886911608038486,1.2119669217069535
,-1.1147085229601326,-0.23951684505293813,-0.5143173103703464,7.030290010827426,1.4143284050807385,0.1608867319692293,-0.37764247108821497,0.6019806390143994,0.40840324208581275,-0.0369455540969892,4.727633797798946,-0.17253265430519948,-0.03960476022077263,0.41545270315328203
,0.41162552791198137,-0.5167492796544986,-0.4421621565048788,-11.826997265504023,0.6884239638390681,0.31247461622387956,-0.006409167226677445,0.16281815110103554,-0.1418279773381519,0.1722583728978038,2.8686726081096907,0.046010286429475224,-0.7484771869371937,-0.06834214164254651
,-0.10813252805059169,-0.4253566597013791,-0.04877967367526969,9.054730675875094,0.8286307836442203,-1.4415355293943453,0.25976120765481675,-0.25576440825291297,-0.328161613153611,-0.31480363062911265,4.42511528670746,0.15771658218574017,-1.0920477968915396,0.150682043510571
,1.2711735509228264,-1.1085583464475184,0.27802519191314723,-49.5983661154305,0.11841126402494928,-0.5443120956022062,2.229032883295834,1.0417548458447523,-0.3623526382334676,-0.637112060959385,6.342085950317124,0.7351503453339816,-2.0220966282396526,-0.6703146187383359
,2.5611600493986524,-1.823108443040923,0.2280092750823904,-102.61560902960194,1.3661648943861446,1.3622825203375821,0.4511683976846141,0.18797529810981758,-0.34995571015148613,0.03429010935532406,13.529440699740343,1.3937901556675538,-2.9899356122163394,-2.153295012591424
,1.3013098587299063,-1.7195471458248464,0.37738817045972883,-60.76946760325654,1.4711185818959993,0.13571888693589867,-0.7782577330370801,-1.1260423861002793,0.15605690507431227,0.7235258864061446,12.890467444447955,1.1349902001953158,-1.6843889245924508,-1.939008655779488
,0.7018524419375307,-0.6568281161260751,-0.2103547743067387,-10.658439758398615,1.9355008688919442,-0.28151440399096794,-0.4887216758429264,-0.6155505110459095,-0.28294324142567145,-0.43383235932647257,10.474271115237922,-0.12853604256516393,-1.2319223875141436,-1.5184298302850117
,1.181373244319013,0.005717483725988609,-0.2729790059946624,12.21057747712762,0.736510751103601,-0.4265736785397421,-0.4735715126487677,-0.282848298896841,-0.5498413191369448,-0.8541628379686398,4.958343992706594,-0.29106456791750474,-0.7181302144935198,-1.0542882358701804
,3.0644590490895074,-0.6683348794441341,0.15270835902350696,-15.988267289784307,0.6185426640161266,0.19248574641122437,-0.3522773405394655,0.04541546406160136,-0.5932554336738679,0.05566111681887841,6.556171316076725,0.407872740901682,-2.058187998465672,-0.7376284438580668
,3.7593178512241052,-2.0720360225730867,0.8434499838186794,-45.67914957669021,-0.0738027926362374,0.8955898439501384,0.5746779425674707,-0.16918846163482018,-0.8087661868408899,0.9173787824681632,6.629261391850583,0.21173417650348514,-3.140147645383056,-1.923166859024235
,1.6114271520071817,-2.5349038113928706,0.5636668535446805,-69.67353455845958,-0.25740596718572095,0.328382032019818,0.22213979789900073,-0.6414877897521122,-0.49876099489278675,0.5936988564654059,2.302600543365517,0.267660597758962,-4.216973402131692,-2.829157419172172
,1.48774874670625,-1.5982255957125973,0.73269044680054,-78.78189388686265,-0.017095611512496882,0.4766091732308288,0.3007966486596588,-0.12619152182422305,-0.3646123370924466,0.10948118436214709,5.68418502080623,0.4811311558566794,-5.661252547750331,-1.994747349071751
,1.8778208490700072,-0.7957211569403,0.5811445906769306,-46.207341199562144,-0.1658933364133312,0.7673656187043257,1.2481856255684942,-0.08221179968385833,-0.5878285993305179,-0.21199055331399722,8.768752469483273,0.5151377765007665,-3.300965225250771,-1.1444770089333585
,1.4427037387052593,-1.4810245355163987,0.814912779560738,-66.70298774632066,1.1096006579003792,0.3938073459799478,-0.05444124731669253,0.4117989780251621,0.02499734023621184,0.537504987708441,15.875735449703116,0.3629158108375654,-1.3607437801072024,-0.9236514456228453
,2.1426493496946555,-1.575450002552187,0.13744068374335935,-50.559184694970064,0.9662277917371328,0.23083664728627112,-0.511402667368699,-0.011342126456177586,-0.023406506074835683,0.33337398685249237,7.544958433624558,0.40575648447064644,-0.04541883157304334,-1.8715113672288843
,1.4905335036148706,-1.8513582603766188,-0.5256263110615752,-68.97630380191374,2.2010454460263533,0.22364699724481327,-0.4641092532143482,0.27241930047306934,-0.12415437104450831,0.7607878507369228,10.242278842998843,0.1319027525104696,-2.38386497852956,-1.993603813726097
,0.7297138112700506,-0.7949671167655148,-0.27974375256882045,-8.787225896983038,1.4414714578346868,0.5017015956754632,0.23436479836799354,-0.3965942460930162,-0.7565438478045886,0.6924263042939232,13.81702457145339,0.36815200808462106,-3.760918107477092,-0.8331554606446172
,0.2962588918438529,-0.7030016836462202,0.16761366471923209,-7.221811687800219,0.8503750971646508,0.29485168306867304,-0.031203487366462425,0.15163856284322116,-0.5572157834230131,0.15784766036392156,11.326109897576867,0.5202520622095199,-2.2862817037062024,-0.13353513489126936
,0.9830967965728196,-0.9831753622357202,-0.08598529161992688,-51.3536138547216,0.42410469246925925,-0.383086266078713,-0.3155951111365711,-0.5186446542842926,-0.5224345051884371,0.605250698527316,12.448479422377634,-0.0627847544327347,-1.7915155623185894,-1.3788251062153676
,0.4694494563950135,-0.46322722434223623,-0.14838924824893096,-37.25779755377534,0.7338770198714667,-0.24495785670083106,0.17176523303495825,-0.8693544067312599,-0.8403860219761413,1.1265758383294766,16.772657161439273,0.5038911058002017,-2.5541822653934543,-3.308632726190667
,0.7946201200601828,-0.5123325435147301,0.32556694488654075,-33.181451544205814,1.7193833273514398,-0.25685028616855343,-0.6050277154579369,0.6347435315997819,-0.31323707952640484,0.3098975388038728,17.616705559447507,0.7313742148334255,-1.952779512224616,-1.215869811924455
,0.32315427987180956,-1.3234498927506133,0.015877082836406462,-12.756548762431178,0.22907179475340997,-0.9826527732958733,-1.2375894987477476,1.090816256544048,-0.5147688412532745,-0.31662104092917454,8.481842191568655,-0.017044756492914547,-0.9732845645371221,-0.08697555377064667
,-0.4041353430077708,-0.37762542151514755,-0.2981095758258512,-49.363753787356615,-1.5817755446484156,-2.7412783111293675,-3.068213472789657,0.39878571970868953,0.32966971433415687,-0.04595940914346909,8.670817404735939,-0.7051338413057106,-1.7143171008542064,0.0706917047069789
,0.28960567112622687,-1.0476656937154292,-0.29662676162466056,-36.32840320256226,-0.8877355097650778,-1.704958264188154,-0.4685302206923825,0.42664308308521764,0.7325258047714003,-0.06745378684694232,8.514424629479599,0.1084863777456929,-3.117644236751929,-0.8589698430394805
,0.6760566923391673,-2.0726833568157566,-0.49362468905256746,-51.99400374374571,1.1163034616185534,-0.018923021328791617,1.088776115876578,-0.27204980139835283,0.029569065437100382,0.01760317253282949,4.451569980040174,0.0815497299942035,-4.280737356340726,-0.10841388416760729
,0.02369414791297039,-1.8954576109835641,-0.27509541083846056,-37.48624908270612,0.39409986098325667,0.5854665049097719,0.2985189380929261,0.17882728437874254,-0.1917007264671555,-0.34739059034810804,9.699079387992112,-0.39493197668565055,-3.6423447407849845,0.4568435938029468
,0.7350927495709791,-1.6736750071137965,0.37995787186713714,-26.36152341607062,-0.08131247192992191,0.2558624637590098,0.6993395405617975,-0.01787859635058057,-0.8108026970030857,0.503278377182843,10.046620668308728,0.22742000090178416,-3.6063286589792622,-0.8066336792115704
,1.3481242818101253,-1.3914925518503323,0.16548675330046284,-65.83255656280625,0.8954833594276531,0.44198116990453634,1.3777688854730739,0.7833014950785401,0.07692083404453946,0.9107938507889165,7.983691993108222,0.045993502115809666,-4.9455151797188135,-2.1582049339305596
,1.7136932511247187,-1.822462857383667,0.06274403363967034,-72.26120396341634,1.2122345619109758,-0.16281666781397164,1.8771323904060777,1.6778361199946423,0.952857572069905,0.34677772654629224,12.24198058711339,0.04340412183495685,-4.715641186588093,-1.65860441012871
,3.294692313223042,-1.1998325119725035,0.36066848166099463,-88.44371116185283,0.9187629215451275,1.1979607032489594,1.536563864056838,0.816291737057393,0.26028066578392645,-0.07223276767923394,11.816026946164847,0.72756516027884,-6.050335393460965,-2.2660566197596306
,2.0968041792902103,-1.0112137345629717,0.056044929028123636,-67.69126926486511,0.8704832883740061,1.0025480963249012,0.25009044427984367,0.5536081359070271,0.8988596872061828,0.13533949537507162,11.331675826385077,1.1554317145789526,-4.66543332149169,-1.9511824562472395
,2.1920380088917684,-1.3355889393438711,-0.26866941258788773,-17.186074412417188,1.2968161394973592,0.39921599768407884,0.35235267439812823,0.19197499689226916,0.43850322311222456,1.1952156896779083,8.43974247727592,0.9982606783196747,-3.1372791285262247,-1.6248253113183286
,0.7077594724052317,-0.8350398025632096,0.19424015162499672,14.042347485412778,1.414657237078608,-0.19328699110419734,2.222133987056302,-0.3638589659770793,-0.09180068816321392,1.1676745119325898,3.519586513640893,0.9445494912699122,-1.2920882879130755,-0.9099696963454407
,0.5199284995260606,-0.15374613479867127,0.8972869858845125,-43.83913571651581,0.8795673749314761,-0.20173324715364177,3.7209334016520277,-0.16283536728197218,0.31858343411865103,0.10934165868864394,4.989611605175422,1.1498875120061316,-2.9770102467750528,-0.7396330303202356
,-0.8351361430183177,0.9815350905859846,0.5778239536848051,-56.36583428275558,-0.24930845525117995,-1.0985451041674135,2.257039691133198,0.6658704797959171,0.6282065666701411,-0.6230372199937233,-6.8576609395906765,0.48041567456198825,-1.6075733187082288,0.9164453258769402
,-0.6130313706243607,0.17283043920657185,0.20648131974969175,-52.695787660901594,-0.39752225278335634,-0.7876425963117083,0.6670447352427925,0.10847959078517588,-0.15469791766592084,-0.006260664660671978,-9.772233817373682,-0.2254975794925784,-0.9532863624522987,0.8692442629722222
,-0.29093899088374786,-0.7237741689723449,-0.09090002952329951,-45.379429836088974,0.045845578643310084,-0.11718541303754915,-0.9691313058347094,0.4732466733649322,0.3841163629082158,0.9499679673177976,0.7886985856664132,-0.6349219003682478,-0.6683170436111195,0.41737340296993025
,-1.9313748013741037,-0.816352826912079,-0.27721221140224,-46.228623540334475,0.5408777793855074,-0.30957080000276266,-1.1489299462607032,-0.13346367743058374,0.8370748160802622,2.0871426577592262,3.490144444927663,-0.07957700671281985,1.947355472196775,1.5043484864526364
,-2.109791691723662,-0.04816857144029564,-0.3485820110250724,-33.82912208373964,1.457452642305419,0.08120991075472403,0.42622882377759275,0.5066804263580211,0.05190076704582616,0.2335053492810131,-0.025209778468792205,0.05908679557508244,1.963082672605365,1.5309834822124784
,-2.0583456164190426,0.7219576944698115,-0.5626763269302971,-16.874170322763025,0.5656703812917716,0.3190743675719265,2.384733356528835,-0.1371182953966142,-0.9712394536819078,-1.1378129104455799,-2.1446642498051918,-0.006814393609761475,1.329481152128971,1.325172576311592
,-1.7947290335614086,1.6548283882763934,-0.4621199098263277,32.367956230335245,-0.46750362222931274,-1.1533340503408267,-1.681310108901052,-0.6045767109201067,-1.224876108095915,-1.0110543321918684,-7.659620261394544,-0.47659954384390063,4.628982306788263,0.9418170467429104
,-1.4191744040449557,1.239480271332175,-0.4116426188758726,35.50213506432281,0.15816650610279284,-0.8243771461888413,-1.4466759983236621,-0.6758527262791659,-0.8244201156791534,0.392620996370408,-4.683805416239736,-0.6509621875002922,2.510621802036617,1.3596748898370736
,-1.42414422674971,0.5493393435618231,-0.10083233602092528,21.674580818285083,0.3437938024190671,-0.5384909769733389,-0.38645204247091547,-0.51284779955905,-0.5396948454988794,-0.6257035621949609,-6.746913965848541,-0.4870428710167873,-2.2558594310251463,1.4794668917895315
,-0.6232304693242415,0.026299439616255634,0.4272691534935217,8.127307742659951,0.7916623937348855,-0.14641654989177885,-0.7237363107299049,0.0896448014454226,-0.22565561760553252,-0.9427844890644146,-5.249372761501595,0.10056455798313,-0.3796311698632574,0.6986817168543019
,0.011151121371446103,1.1571176698410364,0.22955309774537572,21.12932420669258,-1.3177415560118149,-1.5301131998847564,1.4565958322222603,0.635975837139705,0.14067531613641412,-0.78527511672992,-9.368484464527738,1.0193172147988416,3.084974782682114,-0.01436137870444413
,-1.3024899043334628,1.5785532273896143,-0.31892707734693637,58.51773847194959,-0.9265232178581011,-1.395156532081888,2.638816170475704,1.0326359608521642,-0.32614982282475047,-0.5630910235313143,-9.377000960004432,0.5248535662598589,3.4630332346716983,0.7805827194982892
,-2.701065192875983,1.048432304861048,-0.580498098823187,67.0025662800718,0.06806948059081562,-0.5898696986837976,0.9501643919444748,0.062207216422652166,-0.6105785575786701,-0.7088915474282256,-3.4550120910788413,0.1400956187604947,2.778997201482206,1.0505723637815005
,-1.7115148303708783,1.294688756764857,-0.35266501125427885,50.41762159433336,1.617813404903874,0.23240686588945392,2.8886517080254555,0.3185479456302539,-0.775582964395924,-1.4226159386473352,-5.92161597429884,-0.08905720671357503,3.72395780335273,-0.9123129641466468
,-1.3942604182528888,1.0794275590091784,-0.33292183202108927,28.335520066289554,0.6487586426176922,-0.2083588934644679,3.915627187221377,-0.7607489949921387,-0.6678038602523525,-1.2108934028925937,-7.940622999491392,-0.25562782781653326,2.0191399614508057,-1.5357128245962144
,-1.5995638407924286,1.1192319384807494,-0.6228272762815038,68.2572063846026,-1.0385848568521219,-1.6193097999178785,3.1168611174611165,-0.9284663607060787,-0.982279995638627,-1.2794552192121065,-6.1753790567409155,-0.2658760531189816,1.0603666844227089,0.459200094090294
,-2.808456931150786,1.0256430708190503,-0.7360327706899752,41.10684421555396,-1.0050301549484602,-1.4985736033495176,-0.17137312861981996,-0.3121981024429791,-0.6428267606318967,-0.7538938536843416,-3.4594497210844586,-0.4347593010520711,-0.06060204472825212,1.8437054773887682
,-1.616709992586113,0.5381628388033047,-0.19079604162308927,-14.675887508857599,0.24480424701598064,-0.3812370400874401,-0.5774676065970274,-1.0923035255017721,-0.477938862355884,-0.009718986006849744,2.4258694145765776,-0.037297587377033405,-0.4524934225179593,1.2435385198269426
,-0.30111898493735084,-0.011747164176973897,0.006795060852896347,-6.121479557457616,0.20816083265912158,-0.3498910947539068,0.23707067662814582,0.2570465385955503,-0.03814944257174376,-1.249243852038335,5.189488845512562,0.7439346722728087,1.4032547156329243,-0.06413090435519402
,-0.9212067171964132,-0.7493019161219665,-0.09196426200472692,16.652429521084034,-0.22985597427998802,-1.0760358610290874,1.1166446648314001,1.6617182388923086,0.1165140487075368,-1.1420691270712326,4.6757437690649475,0.25923706229070453,1.1814720445396996,-0.41934657670028874
,-0.26737872232515103,-0.915216137828658,-0.2484743567910181,-27.132267356827803,0.34140092921412046,-0.7783726548433152,0.07030436216584174,0.7337975281123023,-0.4132314025988088,-0.567476078161259,3.655511410710536,-0.41041652457875194,-1.237151080268182,-0.41046571519613606
,-0.1539195720955308,0.01974349004043921,-0.5025828718997895,-25.01359347425713,1.1649518167232165,-0.6510247919202865,-0.38719293145544753,-0.18245914485439949,-0.6454132648335097,-0.08551807290565826,5.376560450565263,-0.29538206586956284,-1.4753501090617585,-0.5223123830888552
,0.3355077034627435,0.28092843055381594,0.08242447505379781,-3.5080870502100083,-0.4179995499894929,0.43219460358479345,3.2550087967418397,0.17586577692016614,-0.3646870182457386,0.5389261738220349,7.216031155670548,1.0217036013453626,-3.3261302684592873,-0.36068356532858237
,0.3105040011750226,-0.34922155903539104,0.17404818636058125,20.50549900012175,-2.160767494788888,-0.3957587737872936,3.930134770169486,0.543270812278108,-0.2566052849922201,0.47690709916118684,4.3176736429604885,2.2345504186924607,-4.54653908208157,0.37685028269835563
,0.8284620833385482,-0.3467530656443513,1.033887990344703,14.554084787808325,-1.494276925967908,-0.6855139203085485,-0.4519579047728847,-0.6715319209833418,-0.6463176265507742,0.5363806248741853,1.3062647658335553,0.7528166263183993,-3.5433911456064386,-0.012381294099121668
,0.3765980804281492,-0.38911708230737296,0.06495806373554745,-10.73546664101736,-1.3776399390210479,-2.0023713020298493,-0.46966257941076994,-1.0445611988314412,-1.1389441204237027,-0.0889468556473245,2.8788888014906315,1.0686643731755587,-2.0506843995365025,-0.1964274102698649
,-1.2168210184984098,-0.4912307122114932,-0.42443076217695674,-25.735050115308823,-1.3778098868284863,-1.8895936375021813,0.14086778205599568,-1.0036527035126153,-0.5262185405052574,-0.16553418620958846,2.8760993371304675,-0.13165038674616913,-0.6055251075141602,0.4570080993256107
,-1.7436534693352257,-0.2615233066520036,-0.1738623573173742,16.84595076880639,-0.4077981946917559,-0.1027714124433914,0.2510633998456099,-0.9274889091282879,-0.689274706483937,-0.0031579424100105827,3.204954947276998,-0.4404870349125492,-0.5153577816746312,1.2350534496526733
,-2.1020794830686294,0.5580869678551169,-0.4631554862146741,53.77173912210882,-0.462953820803202,-0.5852156107616274,1.659387249813999,-0.6698867376072978,-1.4994744952843952,-2.11639008165084,-5.5707868689950715,-0.19781229460263403,3.382382397282758,0.9789333791627056
,-2.0657678393432155,0.7390494061686098,-0.403300272342745,45.867933476257704,0.3565542166203712,-0.19691225035773738,1.6913112276562887,-0.13615125384983467,-1.1179998355899812,-2.365005247460368,-7.473886402095241,-0.21804109292096405,4.833102220357468,1.1717948516974828
,-0.23430451051056841,-0.2616752605941395,0.030539962395497455,18.853991252980283,0.1483920425553631,-1.2061592021733187,0.27341319237657985,-0.11866785764638191,-0.9950709221407349,-1.3841087412554225,0.756636721980289,-0.5316476285083694,1.558126984971707,-0.2253598828418875
,-0.8719906252716301,0.3466634315790609,0.22022221715468443,30.89744739303384,0.06859431070318822,-1.0039870795608339,0.5285628880298721,-0.7959111564417407,-1.1946776112035211,-0.5995712810564657,3.018010868905496,-0.25969146136497145,0.2434686917610737,0.315337867839922
,-1.3822593361907216,0.12410580853724584,-0.39989365374671215,19.18330230789179,-0.5823342775850336,-1.661275232877431,0.861320429320331,-1.4281626088265051,-1.66050217364114,-1.0464858411100166,7.840383564451658,-0.013202751871041765,-1.2645393785775794,0.47987462682639576
,0.07530507771214207,-0.35286310151994166,-0.20000734883578067,0.20786401117494074,0.11495826352227241,-1.2374982894707376,0.21874046545935247,-0.34253386114140094,-0.8367784340443869,0.2265759170727349,3.653883356537087,-0.4595844023201197,-1.7771322272945436,-0.3968468040205203
,-0.5148011544738013,-0.18884564465929074,0.2708591292808649,-10.245361585576033,-1.4735776908603013,-0.8736712884356707,0.0779576988987825,-0.417979340188485,-0.05102571275927207,-0.017121181219522816,2.4528881141899816,0.03330320839572111,-1.7894944541956674,-0.1398309201190767
,0.18590351823203208,0.5106231310244682,0.4236394045758718,-14.161907556750728,-1.5211147075346703,0.021851881236832973,-1.9197968868547808,-0.633131778839221,-0.8587735337297,-0.4844386925144895,-0.7593075166755995,-0.5294641227019904,-2.7099019950771446,0.387502162131758
,0.2156480320298048,-0.1981996796888863,0.7754536185822335,-35.174611971302255,-0.005045091762169562,0.9259389477350302,-2.4646041646475516,-0.7803202711552343,-0.7395805101604194,-0.19386406247666663,-1.0737140478638583,-0.33656273107914597,-0.6147149894627824,-0.048887299854143404
,-0.22809060003409312,0.05764321020510404,0.9907260120188497,-7.2610594744752905,1.2101838662751396,0.44917640618126503,-1.6908246294652698,-0.5838934670984681,-0.3647919350496455,-0.31940435484151436,-1.8511093929205173,-0.2620166891166958,1.8035270622437232,-0.3803998027321761
,-0.620900829128627,0.18063200793618353,1.283355563094656,4.291416650567628,-0.39090118057712897,-0.10520957464492181,0.011275383580889876,-1.1078699447553781,-0.9413622777123268,-0.45717892326851933,-4.005049129700851,-0.22997345069351166,1.6940618192159516,-0.5208054149296504
,-0.6868471645589397,-0.4108287972943982,0.8902984075802872,-36.88900521665515,-0.6434409630130726,0.056712492443319266,0.7830265975504116,-0.5524613554617073,-0.7557877169927085,0.14046938768593126,-1.4171964426074197,0.12651249533272146,-1.1624655047024939,0.2824042351226774
,-2.363587170290331,0.06633547931855983,-0.07024030814477447,-42.71333364934476,-1.40040515344419,-0.8403922212462313,-0.45870313019738723,0.1625284635252169,-0.4650466812916088,-0.5207385402541904,-4.576929359274991,0.4071074541764117,0.29626285587911894,1.303631037830422
,-2.2261520363260905,0.3637407405705014,-0.019599072009127257,-64.5129325794232,-0.688724558464011,-0.41783026277338386,-1.070384984110192,-0.30405852916813375,0.1964392358543168,-0.4950923542764651,-1.4813113933871953,0.15799580872103075,-0.08868106591967682,1.1498879535001036
,-0.5058351779766173,-0.0013608750645006274,1.0216821857116172,-92.72577962738478,1.404725700622888,-0.1594123504743817,-0.19179001513165747,-0.5133758612576702,-0.2944107411285261,-0.42121570550390314,2.2237113734766094,0.11686180221683727,-2.446592294983079,-0.3975675602809281
,1.6333414418303804,-0.5106359527763283,1.2100983951871915,-92.54349549729008,1.6930736618251945,0.342394763074334,0.9549254652408016,0.6243172903872768,-0.03893248731720729,0.13681810272142206,7.51990341326157,0.19959118253581737,-2.4182125879934415,-0.5811514777512824
,2.2714272971279192,-1.3345166095298724,0.6886736294072353,-24.09600806186626,0.680836874378658,0.22160840334284898,1.6527621684309308,0.595265742872611,0.4884662353799944,0.6172587134786727,4.756055323626308,-0.46590811263549947,-0.7502607975859487,-0.8318327916847451
,3.0415166240530103,-0.5478722105861265,0.5626696595615926,-16.91122203271113,0.6752615996057028,-0.15666270617495498,3.13500117567262,0.45849391491010677,0.3083340500653186,1.0699455181437092,5.71493717973639,-0.5956221687915781,-0.6652701388914133,-0.8535325710699513
,1.7721411691977162,-0.23836217027995005,0.17667997900860133,-78.9882288104904,1.1809840963123046,1.1091794165523987,1.6663177068631292,0.502842428656889,0.12857862205109608,0.4595873024122138,8.043481064050804,0.2819761047409731,-1.7713382628295258,-1.345214105672059
,0.707640371637154,-0.24757030903265798,-0.14663572893886584,-57.001342221883135,-0.5538449424235438,0.6264258447470279,0.018294124042235384,0.16346581876109118,-0.40462893112546017,-0.07533879094723188,6.193824538175683,0.45282993735723964,-1.3728610922889681,-0.6863215007164729
,-0.44171768791517596,-0.20025376262446906,0.1561110382589978,-2.758373111566419,-1.0230349198791626,0.05268712391460122,0.10760914687968091,0.9924094058264894,0.1787048170754843,0.38096475674995184,6.2987349614723565,1.0306640853606348,-2.176435731614826,-0.024442231229791427
,-0.7489338266115534,-0.12929809310747065,0.050535208619726074,1.7915419099278627,-0.9942845115145987,-0.33226881114641227,3.2809407395358843,-0.07384469990635265,-0.867449029204971,-0.025010794727892433,0.7413868541039095,0.9877108770635625,-1.5831956615460554,-0.05285253238134639
,-0.6681074604555929,1.0287441075213388,0.21159334226212798,18.796661331747465,-0.12033206518834588,-0.9080714205012016,0.4454199583424701,-0.3714180318981547,-0.9689525386018643,-1.0373596205600701,-1.984205712768911,-0.10115221775357935,1.1392229097780606,0.3069608665539348
,0.6398784263047324,1.1989032985194317,0.19233991057278205,2.4762419672112945,-0.1484400507663277,-0.608983452204929,-0.818850258427836,0.45930952169481676,-0.07730585110688269,-0.9823119191258952,0.25832867392679415,-0.16801167417504537,1.3687151879177257,0.6991284541270563
,-0.9829869448617254,0.1953750469430848,-0.00030398553791617547,-7.277954009734792,0.5974065896126739,-0.18123270466179628,-0.3018419735741107,0.06508420345929981,0.09898111565864243,-0.182960587301854,4.517430741989651,0.5753694017506346,0.13722763682725664,0.8881862278985071
,-0.6112576251744813,0.32468947965079503,-0.44294771408499445,34.169708326689886,-0.3809842073658482,-0.36782079280026136,-1.2343121028081647,0.03267346904076972,0.5295193810043959,-0.21074258632789006,1.4484835749845717,-0.4179258911454334,0.6856860585787437,1.4996939448136455
,-0.6233626547129667,0.06603263517954527,-0.3633900959674015,59.1917052214684,-0.2707314432879529,-0.7259646159087617,-1.9745236227710659,-0.8287680949391754,-0.5292384646776,-0.7258894911601405,-0.9712307935336589,-0.4716742870448406,0.13488795583415877,1.2749938675410601
,0.5480472730226237,-0.7054589295764749,-0.17643191466580282,51.83218236638528,-0.07287730923365185,-0.22089197113533618,-2.3446585030477762,-0.5820553635838055,-0.34366729679683883,-0.5760149277331822,-0.017142586404803643,-0.5670610795307592,-1.8810550524009548,0.723221059904884
,2.0982000344879252,-0.7691881133748252,-0.0542200342400018,1.1502112845723143,-1.3984321531863029,0.5452130532984214,-1.5754166487469627,0.8096918542444749,0.6976187691357564,1.5824941483640074,5.9111268930111525,-0.6578548969096083,-4.860116632397628,0.3321291280538054
,0.7456569237874147,-1.3229097319815946,0.3415211871861241,-22.843695223493395,-0.5634075999705037,0.09946838211442367,-0.05258098578167189,0.847280878078008,1.2414428641237039,1.7041402249761899,4.858562571408291,-0.17328383951172283,-2.4632283503314403,-0.674791425867571
,-0.7450844694289256,0.038721979872605436,0.1052630484040219,18.68264442584034,-0.4251513295535231,0.38984502308461727,0.8660035317611086,0.31128719974524194,0.17053246351267712,-0.34443082728016344,1.341671205776873,-0.2925914186218941,0.002766555708186116,-0.8069074907362811
,-1.899546787462619,1.058493026329477,-0.12499563046110557,10.274661347859073,-0.8575934021300121,-0.7490016917713178,-1.4988094632471118,0.2622361111495137,-0.14509443587188572,-1.2838235921618097,-9.134932491913856,-0.17383025834610139,2.8438024236410273,0.46004090953863896
,-2.4834503034681132,0.7747325840143554,-0.5071512238066421,33.17172315395184,-0.6917611138103361,-1.3741139684635102,-3.658892436476615,-0.497363108056712,-0.3587002934366433,-0.8482202850647759,-6.23557139282671,-0.40177698480404217,3.4093403275503094,1.651740403585091
,-1.3734958282199925,0.1747751840768634,-0.37662265976345666,17.85497666231861,-0.5116811983349737,-0.19322771372007783,-2.8322015188113516,0.0964676808761226,0.3487432594250008,-0.5237952870753,-4.741889002997291,-0.10716502334282266,1.3515817248479722,1.1378446995921334
,-0.7184995062617331,0.3652237474796119,-0.25005072748207025,16.251730295745435,0.16542473993899146,0.3503162813655467,-0.7362143299516355,1.1298331537296116,0.6204989421077022,-0.23706815909207674,-3.1304599236303403,0.10731460072218782,1.4502003305733877,0.05626294876674503
,-2.202816097578803,0.8745863204341243,-0.44648224430379774,21.40480021751986,-0.5099973141771742,0.1916383777804298,0.9941872221263078,-0.19831488067501357,-0.41933052916189645,-0.985080846713659,-2.2581130922614814,-1.0537776982133127,2.634613296672116,1.0799909329919464
,-2.074979794744438,0.4012455786199807,-0.4083547231459841,16.566838547649066,0.051701864112708995,0.5462737853947237,-0.3412739769289245,-0.637307037713545,-0.6632341670451306,-0.7114932216284617,-2.1987473679933767,-0.9049299626235133,1.9913361918448278,0.6838587911343017
,-2.681587167857816,0.5309840053976035,-0.4253924801599602,35.47777309919791,0.515956505838269,0.7432076562083068,-1.69682530500231,-1.903956393949957,-0.5770027851719695,-0.7526104374053008,-6.164948374640418,-0.49489281119405276,2.549114305535275,0.9795397441102063
,-2.656117727832781,0.8709717738215917,0.015538206051556142,41.3372266658662,-0.39835065208715925,-0.7176997466622326,-1.5965922501006293,-1.5495525890499604,-0.7148205928185305,-0.7769053830892193,-6.62305404503757,-0.426712822425313,2.1417516506360785,1.504748006434039
,-0.9609111848461985,0.4119246115890947,0.44442778832396673,6.942349948214059,-1.5511067562161243,-1.445028546609407,-0.9830727916578526,-0.5717892769381534,-0.29997936619050813,0.11237763063693613,2.288465665947813,0.3941571101483013,-0.8265654082149664,0.2770465092433428
,-1.4313461613372862,0.07874515459387142,0.29948860762595303,-0.8192398041179205,-1.1170002439428022,0.4898448387908615,-0.5637762816422257,-0.5537860168724308,-0.1186003656870196,-0.5915014826225663,2.2865123218343433,0.6933611633267213,0.4406460975415165,0.5188578402635172
,0.03382565895680569,-0.41001320687392345,0.13203122550638485,-11.936944289405348,-1.4220036721053815,0.9503676386357461,-0.020897533805671373,-0.1413095734531461,-0.5321090650695397,-0.6079355738458189,0.9387884746571074,1.178316679844149,0.552153101330094,-0.01844077848281943
,2.5974946609250424,0.13119113459048018,-0.1369756184340011,-18.413157893409274,-0.8488561619868747,0.3609548990905268,-0.1831106485238046,0.2247553897660125,-0.12852072382607954,0.7092117365293127,1.575008509625738,0.1206182298500834,-0.2944928353011146,-0.2661352993420141
,1.4759860269407115,-0.005108265462685308,-0.03803053369141885,-35.434081962919834,0.9756341093382233,-1.2038577986408474,0.7500736625730704,0.0755777650562464,0.17712914076778982,1.1742887142139493,-2.5646936840450403,-0.4935000587086391,1.0495838595389162,-0.3913389400467121
,1.5233525762641398,-0.8914778090155738,0.2677060789268137,-36.49550993444979,1.1578003706317734,-0.5177926346577243,0.888053335785318,0.08408418639947039,-0.5738212180237354,0.42468973810150457,0.9768843952626545,-0.12369023400424678,-0.2522291563162527,-2.172320260987918
,0.5795124548843296,-0.6668921724716763,1.0726193017046075,-15.171618977201643,0.5977450849795848,0.5534564528140641,-0.6480665947885587,1.0726739662755296,-0.005866158502677154,0.06898655855659133,7.560931371512034,0.07001637074395425,-1.2370870510671022,-1.4306382197286531
,1.781589007333964,-0.598538447354734,0.6799580175118319,-25.982191252662812,0.9420760660000026,1.0023306449127323,-0.5660917338097693,0.33205183196895255,1.4314815511322394,1.267778315333904,5.343095655805325,-0.21470655673589054,-1.0404621737139077,-0.7148422938372878
,1.1967833532362915,-1.3373021204790807,0.18601893742154899,-54.145931320496516,0.12250376750777052,0.28765542732400057,0.8716873933342065,-0.19947162421412365,0.6690016073097965,0.5795397622597833,1.9613498946659138,-0.08048495161207693,-3.5321380334581214,-0.9255975973776338
,1.007984949573861,-0.565356527776484,0.0005099942385266459,-23.863284683775593,0.6258358021604622,0.3483419256387472,1.023720568015269,0.5965442817479383,-0.06323420628175139,-0.38419146342188565,2.98250438936929,0.28808676071162576,-0.9676427331432146,-0.3395258302744129
,2.0037542129455166,0.24042947227283817,-0.1722005305369086,-5.1844407236335694,2.9501488330455925,0.527079039468401,0.8513347028229209,0.7190352809189416,0.31968466845022114,-0.36589988602946877,1.4165856784821031,0.4944511468366979,-1.3467207991622672,-0.04606163200477984
,2.274734827264966,-0.2811843653634583,-0.23409569187113544,20.68287373489289,-0.2245086516792628,-0.8527131062808241,1.9161454265009474,0.54653002589929,0.4957282638315816,0.20579188914816202,2.6842571914483506,0.08985426671408048,-3.6029042657340256,-1.0049228364991774
,0.17721412684640278,-0.3480732526870106,-0.25745351412794254,20.492620445986184,-1.2590554937885006,-1.287771443475008,2.829392748286115,1.1502994268225648,0.7113225459733489,0.32319946171577174,0.10523701336264388,0.08997591407575906,-1.3973394094654517,0.5379026757667572
,-0.5524783864929844,1.023869184608564,-0.3526394337945222,30.435211224682085,-0.26226699923512753,-0.13337597737796522,0.04352790557857908,-0.27236559659434917,-0.6770708012188394,1.0706179344278395,-2.437715071367799,0.37370787588630977,0.3366013070562397,0.5337715402784162
R,-0.8602470331050699,1.0135563668894936,-0.4399191913824663,49.248400122511235,0.03505837779518213,-1.611270955956451,-2.3250892484679584,-1.2074235504910231,-1.21226072192373,-0.2990006976299731,-4.680747854494576,0.22769673507041774,-0.3791152865385406,1.307279586576946
,0.4162787800198769,0.6540573905649177,-0.33859327311687826,23.503323973370783,-1.1844108569156495,-1.4003891177013772,-2.484035409490543,-0.5641836005606815,-0.6200443375952448,-0.0260991907202704,-7.120155085967235,0.13425156651960046,1.8615519866604573,1.1037471987688297
,0.2429867077322575,0.3767484418011823,-0.12019627311765575,24.100507880931676,-0.32975486468885934,0.17357440582130682,-2.00488270619812,-0.015843011474684813,-0.680218544335718,0.6772361828363139,-8.809186690020393,-0.9280885082322743,1.743618758135808,-0.05959176092060689
,-0.5901874644351373,-0.23536785341440422,-0.31301895655303563,14.322256492334693,-0.6543002193995691,0.2511883108795687,-2.807945702695514,0.666650549332609,-0.6145401964888316,-0.29957257590801684,-1.12401305106755,-0.8495337958339203,-0.030821022984087967,-0.10070679121673815
,-0.5881679406416159,-0.19241106805848499,-0.12956513778746126,21.192383732641165,-1.9565295220050138,-0.3454549977111809,-1.035443553302218,0.9984966037235614,0.3320593880995947,0.24827152815894152,-0.17884315334541492,-0.5536457428708346,-1.5984149617287235,0.10457767918119769
,0.3568011080124449,-0.45641842051380466,0.09978842781251446,35.94234237474742,-2.165506752422169,-1.2794514723324555,-1.2667211919297243,0.2972653785416536,0.1261090825596651,0.9563792477927261,-2.62483891187745,-0.7607920606893247,-1.996109209865194,0.20836408830450387
,-0.5838272418932817,-0.5049054817787842,-0.119000583369951,7.199311108709695,-1.1903688009912132,-1.6573798728009004,0.8795826599916974,-0.5157635284562997,-0.38996236496648307,1.0223954538181106,0.49406446106876867,-0.09626897386040792,-2.5747520868908977,0.1607598861037534
,-0.1502705408955396,-1.1129226223631357,-0.41836763341515676,-7.08602587227324,-0.5529137891179845,0.3121002433042735,2.148700168124201,-0.8521405659536123,-0.7089215794524025,-0.09976732163520763,2.1504828269423206,-0.48699869204590734,-3.2955953910233218,-0.663637295155475
,2.0675168039970253,-2.520209102366846,-0.36144062833086804,-48.814905842247796,-0.3745664462669919,0.38450209657606477,0.40799055178861915,-0.3227430131449744,-0.9909889466180662,-0.6246301632285018,-0.8942569927551106,-0.5925435417318741,-1.7778202128296325,-2.043922492671938
,2.208520056199799,-2.3964444651492665,0.10316921889833013,-69.58549853945256,-0.03712946351952483,0.24066696164196544,0.25558013717376127,-0.8553186245012391,-1.5373217209008478,-0.928528691593232,-0.154636595421467,-0.10981599755868572,-1.7516865127603,-2.5746097080782655
,0.6925548283295164,-2.204564794187209,-0.11796026515044633,-46.97172554872534,0.9946426474618958,1.5076188227192902,2.329078264195817,-0.2634527498326123,-1.2361325374933205,-0.5418740986779034,6.994530609280516,-0.06280580868674517,-3.813757458172981,-4.193859631961208
,1.0784093477036834,-1.7419604638494053,0.09897266646393395,-12.769186347553276,1.5256264791942633,0.666815002896559,2.1791405667882104,0.42771529928952984,-0.855101568751976,-0.8106217072043735,4.619853664875697,-0.09517358643319211,-3.382031554815454,-3.7521742638781714
,1.2336958440696746,-1.751091963052543,0.16805638443173487,-40.04548446258276,2.1788207701731204,0.8257480372700252,1.8896211678900925,-0.027073549002195944,0.04131680604930048,-0.21889426633542108,3.2790568280380383,0.9038442023031728,-2.3132975085621905,-3.8568142563716767
,-0.37945957323669843,-1.1156487649907294,-0.3337775197647712,9.220202297193822,1.5786338008739476,-0.9671305267838748,-1.5888413554637917,-0.2191930075260311,-0.1778530791818002,-0.15629460710055307,5.050339557262411,0.5033455255862093,0.37163571884230007,-2.623418706242758
,0.8793488038181253,-1.5363297433461909,-0.24032691117922883,-12.6283781463787,0.52358772545743,-1.0277562690345106,-1.7323591027642298,1.1659498248491535,0.28482219170314305,0.4741044530985609,6.584102877228763,0.282721353768511,-0.8442679344715002,-2.243280614622183
,1.0790196809110755,-0.9392714645711546,0.1598217530658899,-20.18168318197532,-0.42701196640769035,-0.6000115178236499,0.6794399365630311,1.007009697377455,0.19826489448266454,1.6007918353826833,6.52107218416276,0.15078845868911028,-2.3462778480238535,-1.4317695529860455
,-0.151687964009798,0.492546172701618,0.5042983392184347,36.20979353364959,-1.0765073708370627,-1.4997319986712851,1.5691809741167202,0.13449976784458945,-0.39236548441395713,0.48210838871552253,2.735627371693159,0.5599283721201218,0.5435796281841266,0.06147138277221723
,-0.7758939064249176,0.697241161006678,-0.22648478477294176,28.647400183562613,-1.3343743925401645,-0.42757109523512854,-0.7502081708051775,0.41671207242347175,-0.5716686555409499,-0.3564759657448886,5.163645904688809,0.41974918120996396,1.1780945751451297,0.5236282689618289
,-0.31132775483300384,-0.6791974578347514,-0.6204748146172648,-21.081169441113218,-0.24057814263512928,0.4948717758319711,-1.9653242435154394,0.3279201656465471,-0.263746559673127,0.21916306375652891,5.8283535631379,0.2910447578723864,-0.28465279072996824,0.20627261113007062
,2.2955962441099387,-2.2337894694319047,-0.2693911419997451,-12.901946120657632,0.3307513416349119,0.8580732375165617,-0.3482090408933561,0.18625121080502458,0.10721714723552046,0.5347821943965495,4.1202993325942305,0.5870920205341645,-0.6641560695046893,-1.430322688572046
,2.0416866544173096,-1.8828145872552604,-0.26130630332395216,-30.64332247022754,-0.12561961374888092,-0.09141673013426048,1.6279052661364153,0.07103293189067635,-0.41276552997442534,0.5778684370314845,3.333121564096832,0.7262113210347054,0.13328086131553926,-1.9121415641695092
,2.538939583921231,-0.9592155616450653,-0.2980077354178384,-5.679019505959894,0.4707344015281621,0.7651445230419088,-0.221338736194462,-0.17538593980210154,-1.1904532860307477,-0.6967388537231973,2.6835696402754827,0.9886506025035873,-1.184431743911745,-1.3118021164587468
,2.8119685906128815,-0.36943309267367874,-0.22434610004358205,-23.53779098563507,0.8969227693869337,0.12303881254529996,0.1329589326066859,0.5747805086163507,-1.013735729266073,-1.019264686518585,14.141516573305273,0.5162139177379456,-0.9999790170160404,-0.9123412095109517
,1.1948374072679322,-0.28854963562826275,0.48640212075848943,-40.326106960337555,0.7660728568872979,0.7102870647169156,1.6847062001689934,0.40512243872407294,-0.2451526006914025,0.3492861725588275,7.679878099572633,0.15149744836820803,-0.5451357897303966,-1.5683742337997577
,-0.6350980205009453,-0.17144773886153855,0.36367069117267947,-55.911192872049185,0.07425397215808582,0.3843999709130959,1.5338169650479943,1.9022473910251323,0.22795553753804215,0.5090315608418007,0.06659572692366078,0.1354128278244666,-1.630567138510474,-1.5668637574496198
,-0.6887779098714406,-0.08818073039607456,-0.05573044658799956,-28.134567960603924,1.0518250325839968,-0.3961959023187901,-0.09049074556710143,1.379482142459899,0.061072327412959954,-0.20065283997362945,4.43579235179695,0.5169721479996957,-3.453679257751035,0.029131393507897802
,-1.4695710203809207,-0.674825202524954,-0.22000016085720153,8.617705607885945,1.1010511787698294,-0.28820572753240914,0.6597967847980551,0.09359609509427814,-0.27566171353381125,-0.3132042439716085,5.024400752907218,0.3636089798513237,-2.5195742412369873,0.8110039235582247
,-1.57408236958765,-1.1775974985017357,0.019128902614349862,4.6427747885748625,0.5556223572330373,0.7521551054254444,3.746844365541273,-0.18367616902574604,-0.2720729429202581,0.6457247473713558,9.808074608049992,0.39958383986607954,-2.772098191228353,0.4508991232837473
,-0.3863198478715805,-1.0498477316542132,0.41148011828551295,-15.785729039282359,0.22298845891721128,0.54802321118562,1.887440174905987,-0.15910186868365,-0.2563302767042484,1.1709939875178714,12.151823800030469,0.34423194189892165,-4.614159561803355,-0.5738478002032996
,-1.408712636574024,-1.2951565471339952,-0.07913191853740147,-19.905271092832187,0.38225432978030416,-0.28271207134972565,2.7850984011758597,0.08832207960345677,-0.7263784299875194,0.3752406471887419,11.575677434260399,0.265168620046774,-4.739730025456532,0.2922069958980626
,-0.4501922929789001,-0.8373333761431747,-0.04288147580018425,-36.056280773644815,-0.8838900366282954,-0.272990984916357,2.358299407731502,1.004662616823429,-0.2638701136452047,0.28184370491264776,7.803175046253958,1.0223552045749897,-1.5880021204378705,0.10240663755802325
,-0.9529037490632148,0.3179086963780168,0.2088785154187724,-16.64315702691206,-0.2693641989228222,0.7978956419443853,1.2476904465316974,-0.3938175438378748,-0.43117969582637533,-0.27562633700098244,4.9250466327788365,0.9229890095384548,-0.3697900884722285,1.0055809522734294
,-0.6511136248009994,0.5323566533086825,-0.21749964902967125,-8.68991162496075,0.6177034366081849,0.5360618916761799,1.30936003098487,-0.14905703041758414,-0.5498864421283108,-0.5933857033332844,0.18421626553552034,0.7584928599508508,-0.3725046700396729,0.8698011136938516
,-0.27620550506097824,0.633468724289652,-0.3211781187037306,14.278838450756275,1.0638294231703174,-0.891127021451882,2.1388017425522796,0.7443664166603465,-0.42543065385728257,-0.6077425116660559,-1.7754431641669688,0.14954601232030823,-0.46595895272234533,-0.029621045288661385
,-0.5183164905225776,0.3791169182452189,-0.05724356985523847,-9.588163403261738,0.36166081133545663,-0.24770825368272756,2.5012700239912804,0.14973691174221115,-0.8972673093428668,-1.1467682111788746,2.754056037188899,-0.17007583631669101,-2.3328065174603267,-0.014901000154618165
,1.59428183353438,-0.5880325134389456,0.3463934802308228,-54.19075511762448,0.6481753261610376,0.858896294422052,2.6064870883794797,0.26032803340723953,-0.21503857003066656,-0.6760225827600314,8.69426221148424,0.6243892087456645,-2.0288338273764164,-3.1319485422730193
,1.1847369771861114,-1.377347130023072,0.12948407750767674,-21.93689403914084,-0.2433326310162029,1.0608325889794052,0.947630435871718,0.5784248783874453,0.8231756290211594,0.8415883137628059,10.92295531725031,1.0626343124831654,-0.8467190431629941,-1.5426236645061115
,-0.06644973112732781,-0.7696508905353296,0.16333064108581474,-19.417307413322995,-0.9299325327122371,1.2985271062400445,0.8763057579604057,-0.4005551785464357,-0.40050009218710636,-0.6854949567961189,6.853500622524599,0.33444242316602474,-0.24844360922649386,-0.011054791291423652
,-0.9753007084350537,-0.12202801679076491,-0.16411780392902106,9.649168284594298,-0.5718307338273817,0.19773963053771915,1.7477096592948957,0.05267610542866396,-0.4158828319200816,-1.2383681664056765,4.501221381384879,0.41623281884179963,0.9612711535665853,-0.4078692260871157
,-0.36675731119879273,-0.47386146296312615,0.15421015004739602,-1.6843461463509424,0.39587251302838167,0.087414671063874,0.4239519621806715,0.789672103277795,-0.0036931421655135507,-0.6107313459854685,6.356278136527812,0.35704827116624976,0.8750022376994415,-0.9114763516501978
,0.4699049400858965,-0.35858808908685524,0.3655175115567895,-14.011242088522524,0.3070251201002187,0.15842818216229365,0.3712796647202048,0.1568729637664674,-0.6978275420891586,-0.3481369789716735,1.9018139012152753,-0.2117703786067563,-1.919837917331533,-0.5296356771725929
,-1.0238219996483517,0.7527996450602525,-0.44682982296250934,15.10964631085444,0.4714184243201793,-0.4425150771517194,0.47509645872792194,0.12177540838282067,-0.5531105559325185,0.8184575517038879,-0.4655677461568345,0.13472647980039337,0.2855883757935909,0.4557699005313787
,-1.1726853306758604,0.6609752966408042,-0.404993295082831,-5.064074248288777,0.1408138046147623,-0.7285553650984933,0.9418164371671108,0.1619919258373137,-0.7757357046917757,-0.06798151893577346,3.138339430012607,0.46406129004903546,0.2538960024380958,0.08413827796464371
,-2.6495687000929413,0.4109402836468909,-0.12121386445951941,-8.160232354240774,-0.6210429832488139,-0.781705588119331,0.9406637151186841,-0.22775399447517117,-0.41093074855339945,0.28319358657658744,4.747163963774507,0.7660607793404524,1.3133402599870487,0.5954357553021417
,-2.550722288676096,0.6066865139657562,-0.15907006006953878,24.644478807984534,-1.3242693048832437,-0.7955793489816275,-0.255146377688251,1.4301030186013095,0.6167263825168128,-0.2230381076575187,-3.9138840714639707,0.34156992310941536,1.831965867122027,1.1247229931120382
,-0.7620360660922402,0.2917161650059949,-0.02081684688320542,26.130524226519125,-0.7001028973437847,-0.9429572864150839,-1.346172969025784,0.9182777530657278,-0.020838097625197123,-0.6466310840569311,-8.061433519938555,0.19614362140476574,3.167540203987002,0.7450841656933823
,-0.8902824674133459,-0.28437629955753135,0.254717357766373,11.11972176058834,-0.36858991767085575,-0.13935638805394568,-0.2640040838098264,-0.3170106272885811,-0.2023997230958615,-0.23558544150897456,-5.9755450406584245,0.27277079489318945,3.1971643190666588,0.9794193047431153
,-0.14873806783337773,0.2967436653687426,0.27127156853394907,-37.78438415623974,-0.2302674165390254,0.71353789464044,2.4073503181697933,-0.22246205405162123,-0.14141172715293826,1.330319876835636,-0.837734187608243,-0.04888448791822271,0.09848157127460383,0.41367964262541135
,-1.2807330427572763,0.7408028156674245,-0.049301578710288035,-3.672251246328031,-0.2323256760840169,0.8088475802105576,3.165308346197109,0.6755352686828302,0.07112218612400875,0.08930348872993765,-5.698245235254794,-0.1919677150317863,-0.45323589263489056,0.43829395227655177
,-1.6309930827595327,-0.22890564198443164,-0.08332443912571279,8.094903486647905,1.1941267713467838,-0.9190813802521891,2.412534759148528,0.6706694927532191,-0.39886122813579344,-0.2691704628982495,0.3747001545107162,0.03377805599554838,-0.8656141942686355,0.6993821057134992
,-1.6185132098533446,0.45988389651347183,0.11363551520588751,2.2765078015920612,0.6513598219585089,-1.9069533242915533,0.02544175736279812,0.9131449415191085,-0.490905638168862,-0.600930862921174,4.5041979014645595,-0.24304520078010652,0.7534559987901583,1.250089195565011
,-3.149984717311291,0.45209174677797426,-0.3043488900443445,9.538777292230336,-1.7876281424214282,-1.9996737541308862,0.8457769678158517,0.33667083539575987,-0.8110669704664702,-1.0931243374333588,1.8858161043385633,-0.21862179485687844,0.8675967629238833,1.562591085540553
,-3.270520451618386,-0.007690150873041492,-0.19463280346351847,-23.860743951890385,-2.8360967494758844,-1.0062636825105864,3.577623889885901,0.31259226426307846,-0.5175868434556798,-0.5588168517511811,6.004728002228453,0.07966885143204998,-0.5177921392092586,0.9664131487748271
,-0.9629899659856305,-1.6499072053059332,0.18977623186355635,-51.7948846596773,-1.2057876531636922,-1.4155462572689121,1.904033296064447,1.3673776776328166,-0.03850821815614781,-0.7014228217700552,1.0759412156248482,0.24254056756708306,-0.6613522531534455,0.5866577382971679
,1.7703426934521131,-1.0771201318317731,0.5714927798425996,-14.078545062639694,0.9833032419516697,-0.02200781082357115,-0.18135091321653987,2.0344621810734567,-0.16508798858480198,-1.1724457958500578,-0.5320958467627785,-0.5045690505329327,-0.4348329953176398,-1.0334907571622867
,0.7628462200442828,0.2874137285526849,0.39256638310399233,-15.734551964517857,0.22548335168180486,-0.10882207603765755,-0.08363065002819989,1.2516577786950334,-0.5007805938299469,-1.019851800971187,4.934507882348386,0.10524572084032041,-0.8338304116974342,-0.6983834971362973
,-1.0456877033690517,-0.08386864749698042,0.1788586290758867,0.595212403856472,-0.9679863126157491,-0.176742030712273,1.4413090356313207,0.2749740631160063,-0.47573631102034675,-1.1211374213267873,8.390743067061916,1.37368867095591,0.6164447452441566,-0.6457038625266805
,-1.6961171887197937,-1.25563565648601,0.031735430718337634,7.222677117815836,-0.3311558954902118,0.7670055875544947,0.2503412643285957,-0.2910892345277436,-0.4521510156253984,0.0012544231043614073,11.176283698628469,0.5525381448259888,1.1204010549187327,0.5446688719717282
,-1.9355738698519058,-0.8176445410766814,0.016128032959214958,-40.79071239766027,1.1438272748605547,1.7159659071671962,0.07740789802890748,-0.570532898452871,-0.07417136820814188,1.6386292161490734,8.82835432584149,0.2677190423852369,-0.37085815195942623,1.4608138830517805
,-1.3453591066479442,-0.19575932753101494,-0.16874480225531674,-18.868661189137676,-0.6476240207018579,0.28519832549403384,0.12181849316495569,0.49476591082553784,0.8975679215607717,1.2004816152058395,8.864116599047364,-0.29680171084186857,-4.122830577758848,0.8707628550593972
,-0.1870747072122835,-0.5878964535764306,-0.24822025321946847,-11.316125409462758,0.007239973241362752,0.6501102131923711,1.8795389967406249,0.9267564074298519,0.09022414391362957,0.7687268061350695,4.053041910906708,0.4477742409856362,-5.611376228703255,0.07339007339006752
,-0.8826970099114202,-1.0301103779864205,-0.045650758054577155,-11.132394323809619,1.0446268770816547,0.7762484104438048,1.794238700054512,0.7261944024521575,0.5443965334111158,1.1127637554663177,6.119696015355988,0.9726125005971686,-3.1979658206621786,0.13032475333545976
,-0.6581638787285793,-0.620504507791547,0.39085779521074704,-26.048332807955063,0.4586736907437297,0.2777618619102431,-0.24724529364151623,1.2202837046502797,1.2746397842566435,1.5443810765802777,13.294810771428999,0.525447017357513,-2.7537650450520816,0.15524850571727472
,-0.7620058274276891,-0.2117325894046927,-0.09919813552987732,-40.66983063000161,-1.1891050374233385,-0.8036434124056374,0.3092677668913232,0.120622220832147,-0.29069294813005586,0.2763279967174658,8.48846218517177,0.049828291448302746,-2.319391885382854,0.49901939695589526
,-2.4493594044204228,-0.3900067994485246,0.04673101552074237,13.002304970793823,-1.9325305054680515,-1.15533687995586,-0.5158408200835619,-1.0778539729258891,-0.7892136742825422,-0.38771233298193636,5.748029903243363,-0.15885438366675264,-2.5909448683219387,1.1474460417592738
,-1.5647594382115377,-0.12088184816034409,0.1626158983296956,32.488256496386455,-0.05166248613258609,-0.8040459022727087,-0.165744780246083,-0.9171287734152058,-0.8159374417146991,-0.9666772534002649,3.993522380774233,0.27906593880301556,-2.3520872275878895,0.550220851831562
,-2.170421413284202,0.0794750978035912,-0.048877180071477025,-2.2707309592650344,-0.39790157541087023,-1.908656676280723,-0.11324154612626629,-0.7615400537259224,-0.6013007880363712,-0.30583345372586873,-0.8142252544783624,0.9384690339357522,-1.2662796754400705,1.8197140030453745
,-2.612765479318401,-0.054261456590788466,-0.1250453422155897,-4.902097676006281,-1.230928960546296,-1.7306011951544291,0.9495738277016367,-0.6785881481884425,-0.6312765585797184,-0.9824489082909899,-6.763061357523848,0.05356122661910196,-1.3498251236338188,2.75575608925725
,-1.935923823010408,0.38252048336204686,-0.1874838147633228,17.65324034399788,-0.8922102014732815,-1.798308309852465,0.9877716646150599,-0.882920465583441,-0.7232631303034619,-1.5390455830725784,-4.357798810501241,-0.11808435572546197,-1.5723976827949016,1.9314731194332384
,-1.1735830745049904,0.6683848343344613,-0.08005343955132294,31.404920076906784,-1.707313169251916,-2.3145385131521694,0.8332637109902398,-0.40389423706666605,0.026582037861706015,-0.4303716881912423,-1.7803046893738719,0.415254197839935,-0.03731521299892417,0.3882243685825256
,-0.916074544378314,1.2198493899496512,0.04448892836636137,81.13370234792313,-2.1153048592798305,-2.2314294649546107,2.501805577732675,0.41861226377329386,-0.17160469791633154,-0.07796531430022574,-2.6371690041598908,0.3692688858584447,-0.7331133459696296,0.4148378918500881
,-1.787991915477546,0.9038230545332355,-0.7618777231301637,58.79449911596376,-2.3111543921217934,-2.6053225360710783,0.1351857823698728,-0.1168888715548105,-0.7941291068922047,-0.12790921884331,-3.4762326898976657,-0.4353597304214854,-1.7353839822281034,1.2119914240339869
,-1.5314687868436891,0.7609796418907042,-0.4338529401696192,49.287625308595906,-1.9139555949747937,-2.7172090616440134,-0.8903129949997302,-1.2428732230277861,-1.914485737358962,-0.0987428535804802,1.6391284706256193,-0.15361244524740153,-2.4530412334337264,1.07093827714809
,-2.0512726311266327,1.015713663414538,0.14253763284006968,31.072592865070824,-0.7864039025467643,-2.876596847295311,0.2668185069682576,-0.8983289529025061,-2.0149999782120607,-0.3598721673676816,3.131249404388947,0.5445920274153534,-0.059924381728029705,1.2953854345835474
,-1.1510448372432958,-0.028706785641219052,-0.17797220894224294,13.04293380549049,-1.1073000473968035,-2.1624046308304763,1.8380935749071383,0.24408296895433249,-0.2217694899627908,-0.24963112552174668,3.66076170377097,0.08082044734631137,0.6304317145867256,0.9621096994772699
,0.43269123138282745,0.8583781103485199,0.04605210197645974,14.41060569021175,-1.2538524224036034,-1.4033565530164311,0.6939153641414123,-0.46829399645952574,-1.1541699929547997,-1.366756957625004,-3.8786886998277637,0.8437430801011954,3.4247104869960663,-0.37541068332513367
,-0.782947465675697,1.2996765208180443,0.020072039038501584,51.104994393440435,-1.661704814566086,-1.5140391101583304,-0.6556683931181126,-0.5064765110618299,-1.0906730045057251,-1.1029700670149782,0.2511719716579828,0.9215315863259907,3.257538192117708,0.9318224764519154
,-2.1672388739220096,0.5602049353081474,-0.03737976605365474,41.17396763399025,-2.7420384357272116,-2.1425443643154773,-0.5373983467635738,-0.1738720498942331,-0.4972524568647999,-1.454078763036557,-1.7992974935720252,0.2618133696817184,-0.9761995792776821,1.623265299206498
,-4.0366229177783906,0.9284223834505201,-0.5054176942371292,31.906670853582675,-3.720233049227008,-2.3380687318852686,-1.526656367116445,-0.9833516247671219,-1.202454868809195,-2.0720989259967557,-7.905615016638675,-0.2703123525746726,2.266498347980626,2.793710479688335
,-3.414477222583882,1.392912470853779,-0.4345442055736204,63.84610752013767,-2.8123468623978845,-0.43577764902319455,0.17238401526802177,-1.2573480950920668,-1.3760239001799524,-1.4608123368944717,-3.481419471582269,-0.3488130073381024,1.9478128870237126,2.4815345618669555
,-3.0359806124249875,1.7598896932959516,-0.2959430907606224,82.72887451312869,-0.35297932689375866,1.266375914480993,0.5439539899134036,-1.0440147886761417,-0.8267866026546083,-1.447858196071427,3.8428000943489047,0.11222462370123154,-1.1599974356948461,2.0597789489435603
,-2.5264548644486995,1.3066198319498321,-0.12066312448912969,55.19123491641587,-0.10293836386839426,0.5644190010990172,0.37004539001539,-1.1432282859114609,-1.082157336846826,-1.380692384790348,14.381413180456624,0.3049999165867571,-0.18856839192774472,1.9354591981309148
,-1.9126038794904525,0.5621534546921033,0.21149529197829023,2.9049942913640816,0.7516059560689001,0.39462572285574166,0.8379542331921758,-0.16479861437574084,-0.7491720464420408,-1.1185621849504375,9.87587685358205,0.7588553628614315,-1.9265257129884075,2.0107860645838835
,-2.056486159463041,0.20756184857633003,-0.3958489203063977,3.095421503190659,-0.03843834900497759,0.3367721084416487,-0.6469770006048378,-0.5142356936803372,-0.5507407297246739,-0.0301758719595147,7.327336525290588,0.0591194019173124,-1.136608762407656,1.689865044453417
,-1.3044772045127329,0.5247749831223006,-0.8025053936791547,48.16105998734682,-0.609707935319311,0.05664263041996409,-0.8611090650831101,-1.2421983351259036,-0.8328918889171579,0.1302077799424582,-0.439453117426861,-0.37402796088749474,0.8082259716726079,1.2226280268257916
,-1.6752238258981036,0.16967022999726752,-0.4556425479573167,18.738847185510593,1.2910444017909695,0.08347115429488688,-0.7491401129913353,-0.7080563648931573,-0.693187845931497,-0.1644240444891823,1.2740396716361895,0.08473052340045982,0.6950435993140925,0.35963538970729886
,-2.7948511510863217,-0.21460503822956817,-0.29857652852729055,9.135118216354243,1.0630200542560393,-0.8335077624445016,-0.8989673494965977,-0.8146227011778187,-1.1681490177102132,-0.709262034794332,2.9706195914646707,-0.01730739745437129,0.3082714870024538,2.109358231266998
,-2.323458752681295,0.1451635073684184,0.015336980046197267,38.60057521853558,0.5767230965637299,-0.3749951654866335,-0.961752045083677,-0.9047872513443332,-0.6556715179092957,0.2166653014244616,0.9870089429997138,-0.14188828371569892,0.14961875866895052,1.6026759233654848
,-2.52336958404351,0.030815492557678254,-0.03508362324837964,17.731900810098054,-0.956464006204049,-0.4879453774713807,-0.9551097676917363,-0.10166978835165218,-0.04029680504963935,0.2448132302657006,-0.4515468102993982,0.3351430425039334,-0.15454435956283225,2.09959018898299
,-2.651277963450329,-0.49095135808621293,-0.1038909411173437,-15.214164923783404,-1.1778773601724397,-0.4430487739958357,-1.40664306994802,0.45086838356322156,0.8000893560933721,1.5461158898912524,1.37118112744618,1.0331564237048392,-0.3275386162015384,1.8726461509986727
,-0.8915165163320466,0.23143069682466885,-0.3354840097075932,-8.067556316365565,-0.6509225424402418,-0.36724803152871555,1.286085148672533,0.8567088281282402,1.0511076951215204,1.041465770035804,6.77573162576377,1.547792851851858,-1.4086691737581085,0.01566609944313068
,2.1182433916026997,-0.28962254824171246,0.04452892137061738,8.500209820435183,-0.8802139796280117,0.14596073493237163,2.9347753111596657,1.3448004073333601,0.3776917867133025,0.22229122154201475,11.043761806385634,1.6212454073274911,-1.2987580293081207,-1.2024002834183392
,-0.36808241483050813,-0.5742509590618134,0.0543472793109169,30.200821336080406,-0.6265913397932528,0.7839226737223396,6.511254239108478,1.1469156889359242,0.8771287840179153,0.33126743645480716,5.745260031671077,1.47353502533772,-2.3609507221420056,-1.229753142649678
,-1.0314320207995082,-0.40379248151812597,-0.07462196216429844,13.30760712399595,0.6337844072384756,0.11262373344050008,2.3022307497223857,0.1083984324265266,0.1835709552597165,1.014847961527077,6.558182072385905,0.7941716561515866,-4.795209777014478,-0.5552572420672826
,-0.07133765570557654,-0.11877611874790185,0.042123662464471495,22.208407357335535,1.3650031161098144,0.537425525900649,1.1619978909873623,-0.5929590581394866,-0.8197621987339381,0.2018791382730946,7.68457456239457,0.9948583868989249,-2.775957728732606,-1.2991025171826802
,-1.381675843431249,0.18134318653894518,-0.4027087634122903,-14.869080151797434,1.0611253075254425,0.7759903223827682,3.034748820361449,0.678531136494439,-0.2845615005003992,0.3293541014899781,3.032014986567313,0.13884342903403013,-2.1748989679892192,0.12961442603756926
,-2.1362217181042364,0.10801800811741173,-0.5300507388831422,-6.774496860813578,1.1814285671547624,0.357099008038505,2.8865450947687554,1.2305452197939177,0.28125949006003853,1.0788994554757025,7.911058602082569,-0.032412230703433145,-3.618594502899559,1.5851772609956818
,-1.6907729942401664,0.3579306390622955,0.16782781991167778,11.896158027593652,-0.2997161188846756,-0.4682497182402221,1.0039832556936938,0.45154829764791643,0.35765038764156176,0.5488432254240587,6.098259997718759,0.9605435592881849,-3.1213419750208966,1.5642528155645188
,0.7545231807908697,0.07840166338676313,0.6470559309012991,11.613945757002607,-0.6915776148928529,0.1895663367900291,1.090359780318401,0.83832604952728,1.0724460569115108,0.8154505065520216,5.060608414262369,0.32107630066851883,-0.6495264329326119,0.41662305198432575
,-1.2709638314665699,-0.5586976393458056,-0.5524318908525229,11.985238233773325,0.928927412259626,1.2538570999902525,0.9249795908309552,-0.0582257066410467,-0.4197175512181326,-0.3048952436228678,5.1964393779205755,0.36960881681369145,0.02913446910978362,0.03722493790959113
,-2.753860226665249,-0.47896132114769274,-0.5596077250224256,13.102987744589859,2.2657386249451954,0.8814062285590215,0.06089205355945543,-1.0155100806501927,-0.9092147021417113,-0.30089838071273406,3.762046692134502,1.168652468600103,-0.8351961295442575,0.8894260438143243
,-1.7528690254074941,-0.9522177945847685,0.08833171069058467,-13.496194108859502,1.6163732447207824,0.6669027620431415,0.8660273604620585,-0.5019153210190271,-0.440046369388995,1.1803312343531223,6.233845819818898,1.4296955047095372,-2.5833087846977034,0.051890241398817066
,-1.2645156825760178,-0.6242105190945196,0.19004914172047077,-24.70925048630457,1.2550407371260148,0.767169515850083,1.9871169972325162,-0.015920437904213488,-0.315324984671837,0.5024701587261797,12.528219360400984,1.0839838572623233,-1.2217536198431487,-0.014514179022969694
,-0.7026401653209072,-0.4274820903190967,0.27145099893905017,-41.089527006327785,-0.4491643490090837,0.8551892940447836,2.0512869417920716,-0.20209871074576874,0.11946799301407021,1.1519891243602995,5.6840841890877725,0.5008001764849837,-2.7166811428355304,0.2821476200228364
,-0.3731512873041421,-0.9030973975794383,-0.10529455700697961,-35.39612445737525,-1.161729388968525,0.10432601254373296,1.8080664319099822,0.45884603080162517,0.9518603689310092,2.6306453388845785,0.8232483909854446,0.25043530998967856,-2.752199939778151,-0.2824535945296161
,0.6059889098392991,-1.122899163277938,0.22583944048619806,-34.0225044134375,-0.42411684003525807,-0.14555000576817492,1.0796126585952321,0.6279561832420462,1.0589235546426476,2.58299608418722,2.732918717391188,0.44757347618237797,-0.7433968901827015,0.2178879827621204
,0.47738931880473096,-0.8707484410466155,0.1306997536009861,-4.892412806122544,0.07683133727615216,0.6860721382325227,2.790039309957928,-0.41046835590125025,-0.01455151773177633,1.6842889422607679,11.12381077589492,0.8780756858515303,-2.4489947095953877,-0.060273257669540524
,0.9614517077359724,0.01395926262277294,0.31073888467540933,-17.457769195978972,0.8505122826134544,0.4744142167611536,3.12866294396503,0.0029291824564607696,-0.06945525774840086,1.9897247381266738,10.084503629641857,0.8693385779771872,-3.9638614016954588,-0.8728780650880884
,-0.2977169037798948,0.06868702588373414,-0.14256069957866846,-42.40231487011318,-0.9059158547444726,-0.5731061726477714,1.9036512926612559,2.6292175980232995,0.24079183858804631,2.163154595408503,11.433523290075659,0.8542235604684287,-1.3232453884843596,0.1550177357300618
,0.25372252858875805,-0.9625003095685616,-0.32386144127959715,-17.409021639694004,0.09929295253347258,0.16291682449488645,3.4866496919091925,1.8752517572690275,-0.007956154238643914,0.278323141013898,17.618059803867,0.13251779084541193,-3.150125138907251,0.13221938010140752
,1.0618202842814084,-0.7977741366722798,-0.09852663841540213,-39.558792724309725,2.9807023066553406,1.1554522025333687,4.311656078671174,1.627020063365448,0.5658500767580716,0.16294288362974257,9.538394694177546,0.09129708915790188,-3.99599446576516,-0.37554069405359153
,0.47064281802308067,-0.7492170761877947,0.15163958416100193,-29.036869837584074,1.261079889829237,0.5283355154479206,0.9896744623684985,1.3969327203073156,0.6244250789377594,0.5642706321475982,8.695100106781142,0.5224196552637164,-0.7251074166842106,0.004912561985461226
,-1.096038113346233,-0.7907493832700796,0.49726089794132616,-20.60240074183774,0.23644521715588315,0.10876942193848822,0.11716739569403964,0.13941370247533566,-0.10923034309650234,0.2810264936540288,5.504026914733706,1.3600940172502338,-1.0608309837693861,0.47006968730783283
,-0.16781165007722632,-0.8449999982626704,0.21150388956452496,-41.39458017228209,-0.3924638282341158,1.3365681328232308,2.0333241892527107,-0.07278204033663302,0.5865935630631782,0.6689516939876158,8.32005338485834,1.0278698834866262,-2.8183858455526924,-0.7805468721317478
,-1.0195299887308698,-0.08984552183915484,0.11394378175722814,-6.691956529239223,-0.25634279920782926,0.8038239113858682,3.0829760005283497,-0.2476864902832971,1.4331715735927841,1.040691262973047,9.168537414028018,0.7395162358493345,-2.7731164392451397,0.534898503112751
,-1.086366834523443,0.8150546046926103,0.14786853872742783,55.224004080422276,-0.25622924352679,0.010250089047232628,2.430479275460281,0.5135676850812634,0.288508335091408,-0.001018319364877496,10.123818159817253,1.1283208587063362,-0.9536234954694488,1.251005988873558
,-0.920970293206612,0.35938400523107,0.34431139656367343,41.79325469135124,0.20545193249615618,-0.18387161408495215,2.503425108037292,-0.09239763413950733,-0.26807900522707756,0.3308488557823702,5.747654778553957,1.5361327899518846,-3.7886637987702514,0.627586302420789
,-0.976158809293107,-0.4434741715918596,0.4301179707931803,-1.3093966498180623,1.005308168470325,-1.0822869961482073,1.1407222368971837,-0.03304081070675309,0.01590860030864573,0.2071423062568463,1.9774242982278885,0.5844875232720603,-2.737264061679783,0.5142231395429662
,0.3494881823253864,-0.9757517843471829,0.07065199136330591,-25.679324688880552,0.32665466486937755,-0.2742080966282914,1.7743278505409565,1.4218785456187462,0.11234829593300329,1.1309779561218545,4.379894259014253,0.05565637741763176,-1.5120819444692064,0.18996788680570242
,0.28700633954035937,-1.1238265964509424,-0.09897061322084494,-48.55889490880584,0.11058848126331307,0.8811804260716184,1.0134364839820387,1.685000867157302,-0.3132041784093862,0.8695701098255163,7.942317308924338,0.4465147677095592,-1.7066886923321263,-0.5525186727075635
,-0.8562121519641129,0.3329357639909027,-0.21204593562502905,16.690785146546812,0.19229848320893503,-0.0879314834331878,1.0123676377359123,0.6542239478362459,-0.2088457975485567,-0.022467085848403415,11.573667587338075,0.5143979001296773,0.9790334879554359,0.15656845989579954
,-2.453578639135278,0.6267894201834395,-0.18957177758357305,45.723519616277294,-0.8391903746363859,-1.4482797045509965,-0.3139202326166347,-0.36054893704598917,-0.8749594309667513,-0.6368046760028753,6.683899747291525,0.22793913630351728,-0.27014545924003364,2.3691897280292227
,-2.03994379917662,0.6600067499362623,0.017194609650905513,30.50373595136133,0.40659263112082483,-1.5959083131506422,-1.36467272353843,-0.43805863120604455,-1.1428420877307408,-1.117706813588609,3.9413060343445068,0.5061378897228308,-0.9154540947471572,2.5707867986135993
,0.15341361730800243,0.008517406536637883,-0.08698142712187937,-11.321671215644265,0.38189374543221566,-0.1254360593458972,0.7891486981777894,0.3365248822171992,-0.5223923600055338,-0.06644647251190836,5.697219298724414,0.9430720554391725,0.7648597462018839,0.6248170684412373
,-0.3092847635539002,-0.6168571168232062,0.15865706046955458,-49.61138396132094,-0.18848913025621394,-0.058452314937471425,1.0322566938377518,0.6713468068108659,-0.31077742446383255,1.296541708523404,9.969789924765099,0.33467199325834934,-0.8320872419818675,-0.005024466384451398
,-1.549100120258162,-0.6078004958146231,-0.18255993804312529,-31.46409643248593,-0.39914997928108387,-0.9893283564530938,-0.8309069573582681,-0.5694632034963106,-0.7550837906698065,-0.025739304859282712,8.725598588806015,-0.42475020059513946,-1.7619329232626528,0.8762760884187505
,-2.068674743740275,-0.18707725143026455,0.015763443899491497,-42.04240904350557,-0.34216566785042385,-1.6575536160460695,-1.4647840286528115,-0.6267245892646132,-0.5080218220283448,0.03236852636188067,7.8296991295135925,0.07064755716337827,-1.3474125745125363,0.7106257558092316
,-0.39500792668992063,-0.5771775263118131,0.19306671835540865,-28.587444208633613,0.8923233045408585,-0.3213112188940583,1.4395468790450279,-0.01230215577477201,0.5281919250329751,0.8515859773936207,3.7516043497170126,0.47818617486448295,-2.596605616669004,0.5610905581636659
,-1.5129445614821087,-0.12453232943318404,0.19916763931631049,-19.014993089562928,-0.6395840733163087,0.1090450977020562,2.1449382894810176,0.05765778808479814,0.07550054413281507,0.26232297438600205,2.5796698233872917,0.7637200257577206,-2.3232179940602573,1.4793044093909615
,-2.298373897144064,0.10045403009982558,-0.2092316542365771,-33.022122021787794,-0.21921390011521066,0.3971865931576264,0.44311093718554195,-0.11161488110976613,-0.35383173977593013,0.24879899505677736,6.712710997787458,0.30466924222629344,-2.6383119775188297,1.4661064462233684
,-1.979926293645585,-0.13302347081606794,-0.45015250722552386,-47.30987227790523,0.2254261357620645,0.483704013084735,0.7432808028829632,-0.23133792794283994,0.37544211126190963,0.35383800239007057,11.972028864126681,0.046700772941784686,-1.3725126528721927,0.8904812062154065
,-0.4132768950375084,-1.1920179042062684,-0.22777381694435078,-24.258029370862605,0.8125697276794469,1.6918961338220182,0.5888111148709464,-0.6596211532974762,-0.19957031155355467,0.16434218020960253,12.537130239593893,0.8994702915001455,-2.2659600447683546,-0.5589247982896222
,-0.6117182635311339,-0.7669905951364854,0.35743192600547485,-47.47845323903114,0.2636466834797224,1.092867302912245,-0.06303233572773521,-0.8359660440550662,-0.9173116322161183,-0.7473773264532951,10.335891383424052,1.3602309242548318,-3.516297424076265,-0.17740576593726926
,-0.1645858784864312,-0.3716564639152747,0.3673982458928086,-34.71325777544772,0.6559767925651615,0.36505701456137163,0.669096085340148,0.39009784205640907,-0.007163019220183514,0.11036850132463702,10.1599400003785,0.6320943544432638,-4.7540849276199095,-0.5688023898189559
,-0.377321555365803,-0.060387157578570834,0.7941332538205848,-11.6803083683459,0.7480102208498984,2.0663816271026687,3.6346396564443224,0.7583101464054276,0.25793301104970634,1.0014279577375969,10.048156191807742,0.3494435330047877,-1.273118705384217,-0.37520030994840065
,-0.11281788383641456,-0.8493320804625373,0.9078947176466754,-40.51493370992683,0.6649529846115236,3.2379911221116857,3.0838904544182073,1.0048676110144714,0.17539526356388555,0.08932414702772573,11.858741562377752,0.5879112626081648,-2.515321411812109,-0.6522251498829679
,0.5558262051185541,-0.639761272201273,0.16198823174266608,-81.84901526942217,1.1082591690563455,1.2762922066213163,1.7538016177361242,1.2818163414227977,0.4637209076661753,-0.034331975315870254,16.07328541274845,0.7181658024384376,-5.454364150952262,-0.18289881916338374
,-1.3262307916770264,-0.21514439037364533,-0.11865179762576764,-41.990662950197475,-0.4351681142839456,-0.3361046261035337,0.047739997019418536,-0.41473443913631036,-0.1438381334635327,0.5525355018058036,11.951457750028132,0.6323106895021601,-3.3149291031901145,0.6829931376409238
,-1.586568032113753,-0.5917221787939889,0.3525474948390557,-36.79163389514113,-0.6517619590732291,-0.08762541859237681,1.0924032643022836,-0.5263812986339765,-0.16442376264437977,0.8845347756420048,8.181193158889423,0.3984844355934105,-2.30442022634742,0.8777481211410082
,-1.188929787874506,-0.1614215353141502,0.30277258980368865,-22.931499213812067,0.7224607526473021,-0.13616891568112344,3.8533005212144977,0.1057393628200284,-0.006983205151527997,0.3861891598524048,10.031132415326304,0.34174280594877193,-1.7674605653820195,0.7440604647828283
,-0.037871123299410774,-0.22849314331196569,0.2960166249798963,-21.618391995012725,-1.1858288067723441,-0.5590452450982973,2.276686554571966,0.4317319250466878,-0.9177967441240396,-0.2797814916520048,12.617275735469963,0.5238579498835889,-1.4039504821354631,0.21811032523580856
,1.6804184316291961,-0.569468410098374,0.6319428892838571,-63.90474346200679,-0.6833659101991906,-0.30049436586137057,0.6228263860062562,0.3906649079623966,-0.8746553764268324,-0.23266117634337685,8.11895838885195,0.4098882704139157,-2.6107488652753217,-0.4869770005947046
,1.0503895276211077,-0.8800103793855116,0.4216828073031192,-26.495631553813865,-0.10496132496819394,-0.12281830130159548,1.4561058926059378,1.0274221447349097,0.04677751169330313,0.04467183631424562,3.950585813672642,0.07654472031114133,-1.4711947252332205,-0.19386402081747814
,-0.9857664250600102,-0.468967088964242,-0.19511299346133407,8.92104430396789,-0.8475518838746343,-0.6052171465315656,0.7825911303789772,0.8011075443182234,0.4688512855946219,0.7680765595644101,7.388543648333698,0.019889397444077615,0.5998473412882598,1.5594925457989695
,-0.26750146099223954,-1.3732077819486028,-0.060627252778306974,-9.196603120685674,-0.05199907095844514,0.32393341090839634,2.426431454154925,0.19139586580419454,0.069480299591805,1.6245468526276652,4.834994190555177,0.8896332255714234,-0.9284674639596029,0.907502071931898
,-0.25064586213134127,-1.3120984009242616,0.3843341841310591,0.7057919474174246,-0.7612940444216639,-0.48690661210948044,0.5567596215044628,-0.004154962200764145,0.5146707018251659,1.7155154464419964,7.197974529487248,1.7885492596684749,-3.1579529186942774,0.7180779968438737
,0.4130730163476458,-1.1424539724473801,0.4475791384452937,-3.1791115729903225,-0.9331602164917275,-0.33291171095209693,0.37897032272224196,0.7419252564075771,1.2741568361564577,1.4461445042416319,8.202208086407158,0.30344543895676596,-3.467057120313006,0.7388127144535763
,0.9668945881572601,-0.6599793703861685,-0.044819793731451625,-6.64397341488592,-0.13991881351615396,-0.1938461368327919,1.6448116524906122,-0.18373921635234294,-0.49732741697632527,-0.40619927955786134,8.80111834826371,-0.3195584431907662,-2.0942301790714715,-0.330079979498285
,-0.5530139475241697,-0.3638649399392497,-0.1631610176486013,-23.001809336619573,-0.16125088063769025,0.6524095514184147,1.3432923617659285,-0.0585222158951636,-0.9732079956049285,-0.5983208551622599,7.856128978284595,0.48936879782947046,-1.8200320354356594,-0.3118560769271646
,-0.3784645961209248,-1.0598887570059712,0.09610975315470932,-1.8015020798370318,-0.40723429150611085,0.23987743283469937,2.94474463593056,0.35824884849763106,-0.05904257697969066,0.9068637474201453,9.469311350389853,0.9891527319360994,-3.2173181690931116,-0.6451958435429717
,0.35207720481362736,-1.1675425709885885,-0.30662159142679724,-9.784849090721723,0.08969426819657056,-0.5404834124447779,2.5119758556539633,-0.24352088414999898,-0.36574328304507575,1.7346026757400856,10.081006759945428,0.639178893492285,-3.7288756867486685,-0.10974601481297487
,-1.8775594202121815,-0.5499004180877102,-0.4468743938273424,-43.10125219038511,0.10404603466242617,-1.6194861164318137,1.1926213882001668,-0.535632486666215,-0.7394132038338984,0.5150209575790698,13.467184784886946,0.31565852684793766,-2.4614848981427273,0.7249751803769888
,-1.955425794043517,0.01891201119943019,-0.26097786955885904,-17.133682905944973,0.24939993143646919,-1.767155511732739,-0.7620598582187261,-0.27473140582975414,-0.3178761763959375,-0.12227428667804507,11.507819074846925,0.7238188371954303,-1.5328523089096937,0.6289232643238906
,-0.3705700031990855,-0.263362700316345,-0.2412065856063439,-25.542491347355156,-0.5294324421451915,-0.9161119340141161,-0.6096537664760735,0.9255449660886782,0.3522154625647734,0.19068565870263798,5.481340019075179,0.24878637785186586,-2.413602498186323,-0.4363105497667948
,-0.032687931738048535,-1.0391148117329698,-0.04325470714558412,-27.73684730546806,-1.1600819890741414,0.7572343598086728,2.005015177496274,0.009542676098723708,0.07111588465830479,0.9725165549376676,5.855211112111011,-0.46728670478247764,-3.774031741058418,-1.431799457639504
,-1.125271973457886,-1.1040104180700698,-0.18208465200727655,-43.9491536480771,-1.708843761467307,-0.18765872289637267,1.1057121916331973,-0.0951165852829279,0.314398571798394,1.7651946364515696,12.353490115137122,-0.5015873756341542,-3.1565081409921008,-0.004315224387575683
,-1.192621634431283,-0.8626103439986011,-0.0006215044490070427,-17.01094667633695,-1.127243701632264,0.1420678979111145,0.8105627115606635,-0.6169132900069436,0.5233791443643192,1.6491146640832757,13.229967471649985,0.2262960178425976,-3.397197407602026,0.24240796600650655
,-1.2176664856541781,-0.255798025845798,0.5230128852991881,-17.243875536130165,-0.9745204277772803,-0.2075560230592755,0.6603020221354122,-0.4734252939793176,0.35404136229517713,1.1441308793788194,14.840191991283762,1.1053860016851176,-2.5234236480116405,0.688705994565177
,-0.47629986641503513,-0.6748747428354677,-0.004999915657873058,-45.33884200313349,-0.3434120175681151,0.025144616882851523,1.0521142169435815,0.1633882592661552,-0.352513542902507,1.09488769601994,5.985896069548236,1.4927969676215072,-2.3087084781813845,0.5158073696518397
,1.747860042151681,-0.9753354086978093,0.1935202012390125,-84.12359435638223,-0.25855184655627705,1.3663751371942228,1.2491222832096263,0.7595899997879431,-0.5522202839886716,-0.24554454497741443,4.914990093395828,1.1275419870769647,-2.5248935622268323,-1.1637507753393546
,1.0487448481303372,-0.8530887211817811,0.22713810421331854,-31.97244294900728,-0.21277821856243398,0.9957612126149562,2.1102656010105223,-0.08429138412494441,-0.7926815642343363,-0.8529764829392558,3.307929564928596,0.5115474951075423,-1.1715794481779074,-1.274767134564416
,-0.006480154745573296,-1.1198026982895541,-0.05063400435861042,3.496194771841602,-0.6379392595893476,0.07069359587310757,-0.16174013373234042,-0.6435122465230798,-0.6524995914571785,0.45720899916883095,3.3686098632275296,0.42931436858435756,-1.4476515524300324,-0.06957642140962905
,-0.34212904496563795,-0.8301908526866211,-0.15855092608015536,6.344763397079684,-0.4541362018616446,-0.16998212308662852,-0.7136960527669051,-0.5956864055040458,-0.43853021626429967,-0.9775478529705516,3.2403967736552084,-0.054334140062679885,-3.933890293405086,0.38729605149665036
,0.07548745245057296,-0.22724613740323937,-0.14748388024169848,-9.949359366679786,-1.2749314878546711,0.9427146866448658,1.611550161900145,-0.40412985428846854,-0.882631806795799,-1.457468959561843,1.9753768634052031,-0.06973634881036932,-5.507673122369505,-0.4831001709199452
,1.1564445893890622,-0.7521343203933409,0.7394221060805174,-31.54780383887566,-0.09616804637738198,0.03348424162874105,3.364790549347024,0.40156966245303993,-1.0380828527532657,-0.6994305535609386,4.851728228275964,0.6883056540988514,-3.565933214939996,-0.2429114188771407
,0.5403982533563172,-1.3911550559628387,0.611039595204197,-29.945090043945093,0.20340322796784518,-0.06407166250782292,4.1484326030724175,0.32061846329427685,-1.039078925781178,-0.3188287826321021,7.455717080679389,0.6102064724343147,-3.8482058941398622,0.046307650558269894
,0.12119883053460655,-0.758181946882385,0.44631735618900187,-3.875519538842761,-0.07801291226602923,0.4698793280508035,3.143951531238813,0.21661641203850876,-0.8837175690097921,-1.2104002831697886,8.829617363431058,0.5178894885650868,-3.56985325991421,-0.2622085098401282
,0.1428237191056966,-1.0293642080857819,0.4182994061471456,-27.22339247180503,0.3873606151398272,0.15185466738029296,0.5104513937501001,0.2163089064150204,-0.5175449036652382,-0.38767639469415904,11.924191175029994,0.4611547176827244,-2.453975475024595,-0.59449056680106
,-0.5430627936470925,-1.0962945590487267,0.10098732310228907,-54.28230903207536,-0.7693298014489011,1.0077745152306712,1.0746579073145255,0.15722431172636625,-0.04411388632854825,0.18412858825616338,16.957430887498106,0.33280417986273975,-1.1384009485386626,-0.13829395085719842
,1.0984805365425439,-0.5860537411333505,0.06822474896381919,-57.76772655794755,-0.9901988401312429,-0.34924453472453404,2.4067126755123813,1.0935078803200773,-0.1680936980771817,0.9743021588307703,20.9531751558841,0.6268703865802404,-1.0023985176372083,-0.9209940324647584
,0.16051297316047608,-1.0597354921684192,0.006277087296977115,-39.034369238977774,-1.0873446025887432,0.17601355635917848,3.0811917321035875,-0.22604702985983555,-0.8221714535380336,-0.04301189225063817,13.21746469411727,1.0601506845292603,-1.974375339300928,-0.5874115596861257
,0.2461139229037455,-1.613206864971526,0.2764869535198062,-18.309751598747987,-1.1663722330222015,0.2950550335767843,2.4917226822103067,0.5151583234343003,-0.6455686290226469,-0.5219600275976151,3.5374369804844497,1.1752145933412845,-1.9477580643782029,-0.2444191948457555
,-0.833213156554357,-1.3809729962823045,0.4254791801805111,-26.70782038769102,-0.7241863040297101,-0.689280692703586,2.033582056955759,1.5365919070617695,-0.41815906398655284,-0.33251268401047956,3.4517581419477024,1.0416309134730655,-1.7435484987258627,0.2092273337506991
E,-0.8139243215455779,-0.5944808931781325,0.47254884113161394,-22.917076057089236,-0.8319181540287804,-0.4074405746586785,2.240145989030829,0.5716330957793124,-0.2983794820777189,-0.7354124019054857,2.103025303888487,0.5408106344916275,1.1187776493502672,-0.1252590070586231
,-2.666430449575053,0.7483538552907356,-0.5781786108901876,33.774006993261985,-1.360139124137745,-0.44221903500985693,0.7438537997965416,-1.4322127217836946,-1.2396205707348114,-2.19557979886115,-7.08185571122459,-0.2719121994312428,5.027390285973572,-0.2539258740854647
,-3.518994112916463,0.9056892191816674,-0.8495121495518584,46.67776191548422,-1.6882118050441157,0.29675772845882586,-0.15313413139675167,-1.250962806228346,-1.1254035491848262,-2.020772627636551,-5.637304633166647,-0.25000974305482826,4.036849634442773,0.5182162559037008
,-1.3316573216537662,0.2807351289288191,-0.15868568143709416,6.307623550220346,-0.600749154756443,0.20439715931604371,0.2740153587384052,-0.9018253787647993,-0.23623224242571353,-0.3703584223957934,1.615335723372578,1.1458229948351586,-0.10263903357503028,0.7407573458724397
,-2.0980778285851844,-1.3228948434631305,-0.5635253569794201,18.398942546162065,-1.4560080610023662,-0.729740975902645,-0.31307325359556304,-0.7788926815284719,-0.8856776363038482,-0.3848937103611839,2.2403674369893096,-0.28794147176614276,0.04167472093823781,1.4611128509038809
,-3.101639579777487,-0.7745578593567694,-0.8252585671490195,-12.843647070486334,-2.416575882642639,-1.5406135396008147,-0.8179460988653167,-0.2896317787544958,-1.2577253051727195,-0.5580070604195676,-1.097229218807077,-0.952982908142828,0.17822841392212768,1.4728498828795797
,-2.289511304399614,-0.3393770694558202,-0.2381700743004709,-49.005828880914876,-1.1844038866547082,-0.3010626131078769,0.6291575097256566,-0.9448677406674946,-1.1186805680558076,-0.6659948217929622,4.588449361133938,0.07081697637198868,1.2082286945867275,0.4845135946252019
,-1.4711543170287122,-0.3323187292151451,-0.17736828335328622,-36.474944263436846,-1.7354561334674914,0.4421152031614595,2.452610348929869,-0.6919948037625714,-0.8530207505093663,-0.09867886202914743,16.18453659563423,0.5116260372991407,-0.05281219627916058,-0.11566177814223529
,0.7005870385528066,-0.5579940775552007,-0.014593405473819484,-35.89142286691545,-0.5679481261141942,-0.5869594099319186,1.05553107784395,0.2678611495508419,-0.32882179006509926,1.1424489254397985,17.88656067804477,0.1818041551830454,-2.803516307417249,-0.8214072204374085
,-0.9573909165149381,-0.8191228217001516,0.09159456326437831,-19.06107179677383,-0.22568738344171946,-0.9127513496697476,0.7737222683696898,-0.04212468265391984,-0.5245324137657953,0.03789639606373021,18.06063401587678,-0.18516234778627041,-1.9377956630633988,-0.4534431808511041
,-1.319381676292522,-0.9916097880961372,0.26508126834396917,-11.724651696763823,-1.268139594676155,-1.1396792196602732,0.5319691294378057,0.02324872726193814,-0.20759850861008494,-0.18203505114711271,14.177724688707919,-0.2504519822793355,-0.31127689134154574,0.8360219419875571
,-2.8655356830710095,-0.4749764695547702,-0.002083743979682482,-19.073059360981354,-1.4637653302252969,-0.4003860894682762,0.08901716832154993,-0.4407498385798569,0.26422296300227266,-0.39786719107685314,11.726725861631214,0.33370638289619214,0.7568779002643439,2.296444910551974
,-1.8494263512060807,0.026348319168851723,0.11504025459861322,-19.9605035362592,-1.0210325975559693,0.9220245666908644,0.9840370497778409,-0.23506058410799596,-0.24792136799929657,0.00037434950998296884,9.329846459971089,0.36275786911248487,-0.5721976681477275,1.428585697101354
,1.3192539563062469,-0.4891173539934228,0.19067561949103234,-42.705097841992185,-1.388580751014047,2.270252731771147,2.746955302100348,-0.3041294020176533,-0.4906538408748005,0.4213305826920919,14.30142976573785,1.376848905940546,-3.3183129774460705,-0.388526876489627
,-0.10677698521538245,-1.4107406706542576,0.13300495240336385,-70.68508369202895,-1.3915842251741375,0.5069554740393881,1.845350737791828,-0.38306188591476353,-0.15915805295652202,0.28119888063983284,16.105893522246152,1.1867904596759755,-7.118362734317004,0.014478213751007564
,-0.6064108590191426,-1.8068974703904335,0.36747286547648944,-66.8030607072787,-0.05348945128330334,-0.3419754242173771,1.6329632177910152,0.23570279266191393,-0.5083428190579072,-0.8357715261660457,11.525126891193304,0.9777757063313082,-4.602147214872452,-0.09134604167649628
,0.8685518731054919,-1.6368818680721255,0.4036212130219125,-23.78475763823685,-1.3916105599244193,-0.6239390863796045,1.4689747554722776,0.319374897710267,-0.19087924695947212,-0.9087030961426763,5.999864651935509,0.7211574695293185,-3.5924698004405435,-1.3660000403588022
,-1.7845555944760632,-1.1698150218079493,-0.058284345850157036,-37.04036484676157,-2.131793867499018,-1.744454619474445,-0.0958302920834772,0.25679707694255116,-0.7692111488445529,-0.44013528299923976,10.461822395784337,0.13841171026228205,-2.4739924922248484,0.35632538523955376
,-1.6250645187594868,-2.1560656510328498,0.14158198613079342,-36.62548034409094,-0.42959211297192845,-0.7358279032437874,0.5499882939945797,-0.20524453264575698,-0.6939666027157534,-0.4441232481207363,3.2856620895135347,-0.019228401274376125,-1.693048268395011,0.33867858572345116
,-0.17334984147642143,-1.7068315085269907,0.0813486778386895,-57.5755393862736,0.6120565992126608,0.9761993611698377,2.957226680667775,0.7502104002374225,-0.17169711727228812,0.37718620142845966,5.90272273078305,0.5154197844612033,-3.717819272526119,-0.9006575341840336
,0.6091187173790475,-1.4613740253830976,-0.038084729815970254,-66.32945213805101,1.3963818933905232,0.6291867458384384,3.7831638762496973,0.8087210637931976,-0.4092575854328439,1.5464944168603598,11.258647546466745,0.8492759939699481,-4.531891176328049,-2.129541807409239
,1.6063757929154707,-0.2078680349433087,0.3828158270891403,-20.388615258487196,1.6120820589720224,0.8629131293075907,1.8963068581942282,0.30567062387723226,-0.2629248074573086,1.3066604839952471,13.973797057633426,0.2583645484134848,-3.8845011237315794,-2.435647123275433
,0.08151363064009297,-0.09306158579988108,0.05458383195956411,13.539908948796636,0.8586738508495417,0.324021523073585,0.562236174513775,0.08988126610649855,-0.6417388045340756,0.017751775012894003,12.598544582448596,0.6530346348860417,-2.4991290995805655,-0.8017560319851956
,-0.9809188107569822,-0.33867215128260963,-0.37576392635830996,16.684260929247873,1.387932995420888,-0.07229212278256371,1.2066895083414209,-1.0385445908844897,-1.2423559929254044,-0.8339546624743527,5.648015887617033,0.9026304592419312,-2.4078301991967677,0.744743329470534
,-1.429755419949854,-0.859709489715743,-0.38453323544836226,-7.436523443590093,-0.007747594457947877,-0.4441554763679816,-0.17310537466834186,-0.2988084012865214,-0.6479503409226597,-0.8109108483047577,2.1598197128492864,0.5857844350402095,-1.6549057741974729,0.34195983544312053
,-0.6230683625241813,-0.35947825218188423,-0.041973114313163376,-37.571007255974656,-1.0282689649458443,0.16415343104448119,0.7245379808039706,0.3372473686346352,-0.6328159357911751,-0.6273150782796425,6.517436897845026,0.4429505079520876,0.5455087219769171,-0.034626790866622695
,0.5084054613623075,-0.2831833408133175,0.10234166281010035,-45.65674335639118,-0.13207236346173362,2.5563129431623635,2.3257815836231224,-0.3539323566618116,-0.7879230741953688,-0.4948036093109916,10.671509717421456,0.7008510290707023,-1.3784091630001012,-0.26867263187125917
,0.035605975619649295,-1.0994673067486573,0.35811294027307244,-4.14319053085228,0.22548987716123028,1.0912947064295841,0.5988548380893935,0.16441113385620906,-0.30877804614481913,-0.31521260869263934,12.327609623579482,0.5701462627859031,-3.859637795792246,0.1992011603685929
,-1.21526281252151,-1.2709454293308748,-0.3164942001038118,-11.638921852054615,0.49540698924786947,1.1386835986358657,0.39024687748746073,0.8404102570435822,-0.49030613851502003,0.35718699356291544,6.9445103226028175,0.33701122951955836,-1.8405595691312175,0.8431366819782263
,-1.2406011932822647,-0.23595192397449086,-0.6930850960400703,-21.74152617172481,-0.6100843277899303,1.499319721552069,1.9618287722972878,0.5342616713144135,-0.9919710814429767,-0.4532153475423737,4.929280088546218,-0.6529807055571423,-1.784442423479866,1.1124385238406842
,-2.1030887099870386,-0.24120980574091555,-0.4427149719464234,-10.986132112847484,-1.6836696805879177,-0.33587955258291224,-0.17194377592109827,-0.6594450759226242,-1.3313365153472718,-1.5905718863069198,4.662874129743164,-0.20840562477842312,-3.4523862083154873,1.634164103775053
,-2.6315094641184316,-0.1846069606206762,-0.6372253580583846,-13.61394902377782,-2.1583690515864102,-1.3653555189417201,-0.20571769950402383,-0.658960125719384,-1.2815928456246881,-1.5839922766522856,1.7143606075111473,-0.014188995303594597,-0.9273925560666553,1.5803385064634077
,-1.4902396291782984,0.11157469026459402,-0.41904591649238115,13.869783298792608,-1.750558113325627,-1.0771987560355067,1.8206884313845106,-0.9791419777737279,-1.1697529425368396,-1.404025465774979,1.9590539295618048,0.3474881200855983,2.665971692135181,0.6365812417397885
,-2.6755527747238546,-0.5053868990526308,-0.15768935356008912,35.02208991214201,-1.2403159604047675,0.1262074886659509,3.154835532946019,-1.3839523020512106,-1.0075563422960592,-1.519834121284951,4.950795894165027,0.44360979554509206,3.2340134874726907,1.3854244551196748
,-2.4077407727956444,-0.18257074469481166,-0.41193749619676784,24.18573995767524,-2.0962941127587826,0.9645250076615869,2.5608660328165636,-0.5501178128555025,-0.2650910361565767,-1.2661663678155342,-0.5012158791988828,-0.47776219424379873,3.19121559662665,1.6314571288395079
,-0.9255518082866492,-0.09365101756782683,-0.14560471597070498,-25.75725294796476,-1.222074814975935,-0.2954488743269092,1.2939210698385923,0.2798548535695928,-0.4945931545507133,-1.0720672072471842,2.5954690482794183,-0.16250628434083272,2.400318924013,0.9162035440527967
,-1.6168666615272547,-0.39350956166440426,0.28964274703744886,-22.456392296675446,-0.1665269607658663,-1.0819939203147897,1.6865371117690657,0.4830324662879459,-0.17263647405165874,-0.8963684091410294,7.991632895105241,0.5953719108179076,-0.43468637487081013,1.7878836668036289
,-0.2468989415679537,-1.115143931206951,0.3421631256902348,-0.6175553303888652,-0.39513998400234424,0.2876193098795271,2.0879133060090007,-0.04675468450346034,-0.3423073298330494,-0.47282394548816054,2.8731857343517384,0.44808457521799355,-1.0219258515951213,1.2171156305198771
,0.3243603942308277,-1.6723483177792373,0.32125920057261,-17.398575239857397,-0.7910550489307097,-0.6368606628655129,2.0340593718002506,0.3343708086126654,-0.6757659442820035,-0.8150429803926216,3.9483647877327197,0.5186669692056092,-0.9276340812137283,-0.5470719065206542
,-0.3837706914843012,-0.942006588107639,0.1714195288188739,-35.98103235351286,-0.7348423573685571,-0.39669160328038544,4.183114790843967,0.9937788671187722,-0.2728291792817722,-0.40992839799653735,9.159441750188241,1.2121725701932309,-2.5158200937962683,-0.323792118642129
,0.3542704635194044,-0.08121561813692134,-0.0770264385899902,-42.36505549543768,-0.4664717304550652,0.5743180114369193,2.0620703670068643,0.6961052623469596,0.4132787488773242,-0.1336765198364695,4.945788485337389,0.6391296186821255,-0.9993824053931567,-1.0461084580291131
,0.3429025830352937,-0.21863347366670188,0.09775405743118672,-59.5338086441487,-1.9231456546266035,0.3716180475179274,0.998608232324559,1.034718627462286,0.15533507905296848,0.28716218281269645,4.269627924206158,0.1828439475006294,0.046867498173160375,-1.2891155357526483
,1.203205831946101,-0.8389076469007268,0.2512006388285288,-39.1369966179343,-2.146073986198016,-1.4545230363429396,1.3502637275039775,1.2518457417422064,0.22257557099284836,0.9627909157097955,11.154015768377592,0.5274002678541843,-1.7874631450631844,-1.0373626185063125
,-1.8620011207813334,-0.050078702740907345,-0.02290185035894479,3.500450267575971,-2.4225350474395815,-1.8873335371952165,1.8466126210920333,0.8026911308361554,0.24744072848682808,0.13026939351580058,7.613454262011798,0.9555952454366813,-2.222339040602888,1.213483254677909
,-2.5157435378190187,0.4417294838796513,-0.2545372500281469,9.487322961586313,-2.5563747629621782,-1.129582317916323,1.7768207213633427,0.1382870152647456,-0.5653868236400933,-0.25185701005156713,5.649551617812333,1.192690118274673,1.0252180287164607,1.8161621559677348
,-1.0601522655609437,0.3559826681957501,0.18151929326697203,-23.938715547395432,-1.3004118782148106,-0.3464764879376609,2.19604696336686,0.5678507789818926,-0.8146862409439471,-0.9118361787495715,6.18671445380327,0.3852718365282657,1.8415038393185859,0.9553279839650075
,-1.4290402201470351,-0.4077894558455108,0.32528027990252206,-44.187763563466845,-1.0923245792023843,-1.2986905991237288,0.24452608250230604,0.3678418632394822,-0.501347036163787,-0.49022209603652933,5.238522760742929,0.4170984960466002,-0.2764509057887925,0.5326417171693827
,-0.8007163259293562,-0.6803960106462228,0.20974355865520714,-40.98371062651964,-0.1880683018692653,-0.8305636558073614,0.16206756209656661,0.33493241011960595,0.16849645905844307,0.8334966559975308,3.008539414840466,0.1594109978764368,-3.7294624057104317,0.570178334554247
,-0.5283625359507673,-0.9001283353258954,-0.24356262387875469,-53.937995892765365,0.9539108787708233,-0.7359894930177775,0.6142007724926855,1.3488357003743545,0.4918658764253074,-0.3275161196661558,6.472877138221423,0.30783781948836186,-2.917449577057478,0.048956419688032125
,-0.1275679884887152,-1.8116937021100301,-0.1367934216827968,-46.02308061941597,-0.47769050135403773,-0.6795880751119381,3.1077364258819555,1.8473803162741058,0.20547194020833945,-0.6301341478011037,8.6259179858038,0.9301337420859547,-3.7343538779985956,-0.05292127996525929
,0.13820210006349254,-1.4776221264070402,0.29151087263552783,-58.64883217716442,-0.4582214966661213,-0.10154803288435905,2.7494573815755015,0.9167111725950453,-0.45889849624623436,0.508703626089695,10.711169544575952,0.733409599095373,-3.6556338160237702,0.3403097778007702
,1.302003873914305,-1.0559390043814023,0.06309295957236581,-16.251548247767097,0.024722242263964384,0.13688103739081794,1.4816290861605128,-0.22368072264542618,-0.5294591545003862,0.6268452171962049,12.555216743394787,0.7360803442474202,-3.4249808300722884,-0.6335711411651982
,2.2769675807024856,-1.8275683958031115,0.16730132832409564,-16.832431852504847,-0.02772943067252071,0.05634715100042285,1.9820813189269897,-0.20183478400382082,0.02740384192866451,0.861862416691819,12.77868044412692,0.9341252207993255,-3.932581329732009,-1.5256977483548797
,0.9793507584951974,-1.1135326827614689,0.07808004457968071,-58.45112184397455,-0.08247051133382009,0.829117899200362,2.178924514663765,-0.2523230797744637,0.5586939596131814,0.23288073247044622,11.84263016642077,0.08496841494446335,-3.747873510869761,-1.5363240167598058
,-0.013293270904592128,-0.0982857689476048,-0.1682965594396718,-73.98988570206019,0.13540740417533234,0.11791964767004724,1.4542827915104872,0.02950347570586408,0.8078581740358072,0.3620976144612536,12.263066150667214,-0.07657973423078565,-3.8009793218149475,-0.46520539333953703
,1.291991600521371,-0.3286283076956952,-0.33267028930937853,-60.50101581483526,-0.12175647393248619,0.25727386344826664,0.15647106695819604,0.062127606226864,-0.16855988726727647,-0.9097835311682755,10.713794247033427,0.08985443181854337,-0.20981476472053595,-0.8747936834230617
,2.602502754801157,-1.4272373969223657,-0.2350479379633479,-39.88053372956551,-1.67582853689552,-0.4305574010975271,2.8683606596910294,0.3610629011259506,-0.6213962197856735,-1.3663474323291747,7.498415880165893,0.23484743098287605,1.2692859641124083,-1.0138485954041356
,2.897610130369191,-1.449090431743679,0.4207547313146287,6.655036273698412,-2.068070493908263,-0.6254477682446087,0.111074522629373,0.4696108174387566,-0.38862878559479286,-0.8439181800274598,3.719702941574707,0.4733578120046552,0.8368288598175202,-2.04760895882579
,0.35909811319741836,-0.9630315380641897,0.30821547807012567,-13.38556192389926,-1.8383811383712731,-0.8380103513681962,-1.6471560705926869,2.01632006132611,0.3141412187502706,-1.046573542252556,5.746782584360675,0.4811496139304398,0.7012973247619186,-0.26020769674392163
,-0.06327522471289203,-0.6883737932320665,0.26064478654729023,-31.93248706572795,-2.796524950392564,-1.5562851408604765,0.7283124670349248,0.8016492105741932,-1.3874528764375733,-0.9211918338067276,7.41221184688578,0.5380694097446044,0.8763691539333456,0.3872476177751985
,0.7260568196929819,-1.1785496118476246,0.10951395621129432,-73.19201935069245,-2.452354401286143,-2.3959654977111624,2.633625266299441,-0.03085221708810782,-1.9337667115500747,-1.851071544065687,7.602228212265531,0.6786136901685637,0.5935014432856089,-0.6721328883764888
,1.241240365512728,-0.7103765685633412,0.7270550473124301,-17.893221858435222,-1.4302892503177962,-0.38704091029770776,4.006917042026442,-0.9783723767752631,-2.1698057638300354,-2.5350897755253596,-1.4840043626079886,0.07387454365667707,0.7873857528869697,-0.122174649307737
,1.0690243433800473,-0.7545149973286976,0.8160023368332996,-0.05315170605440785,-1.085097466796252,-0.392691346724325,3.9717968657113256,-0.8019231022632368,-2.4258325528880547,-2.713204681896473,-4.289046007896913,0.06107162372307387,2.2188208226149286,-0.28893380922165496
,-0.6215991325846127,-1.0957365713850393,0.3832567132269533,3.811172596684467,-1.079347954460836,-1.1351612863309575,1.4200048395153513,-0.18371060709367829,-2.154041405974783,-4.202744106195284,0.35826646998800704,0.3987078306998751,1.8271245812732884,0.5061512016368805
,-0.8957604498517573,-1.843968518310873,-0.027516654877871475,-36.492484083139864,-0.06160218975382081,0.3188388553466414,0.43343979310131775,0.15791392161875784,-1.4505287739496513,-3.8816156230860357,-1.6372188258113847,0.2527220265982133,0.3160087536834438,0.5339859106865876
,1.0724331836907228,-0.8287447102327097,-0.014112201592554696,-36.97369202173737,0.41597236186849607,-1.0349543644572585,2.3380699134186567,0.9785392898639713,-1.2431748036613914,-2.2370468819351514,-1.9602808874337327,0.2880830507522466,1.7320465450895788,-0.3123389791372226
,0.8672920181903088,-0.9008241567798894,0.36561372132374015,-31.341992294686882,0.02524421660367992,-1.015055817399004,1.2975494873828082,1.012172739327271,-1.6248511776300416,-2.763876536329632,-2.018058840214887,0.8323240527839132,2.8758526116887775,-0.6814816422809242
,0.034487372519591414,-0.9669132350960079,0.19933119007625888,-23.57362506437579,0.09695022100106902,-0.09409737319421443,0.8487762976961257,0.975295339893482,-1.574140315361646,-3.1192411073533144,-0.5778175652858077,1.2410601075973517,0.41236031467448137,-0.7906171692747482
,-0.6488622585970042,-0.82056141666476,-0.02039769145527312,-33.84665623019061,-0.18039721370277317,-1.3947340103252999,3.1772541549283306,2.0245058651254686,-1.0934446953411965,-2.4803412183126667,4.989753382256486,1.3099887238296606,-2.09770903469158,-0.4381993929981541
,-1.7520358816513417,-0.4542056169138371,-0.07259117728510188,-32.79219603088978,-0.16196136765722727,-1.8279124642743094,2.477814140399357,1.8098743714857972,-0.6787712632763148,-1.609938172089752,9.261919491869055,0.4462767824849888,-1.8088920736422833,-0.5080448128845394
,-1.2566228016191852,-0.5078979089826036,0.07971865627715884,-2.433161809572242,-0.5166007950405808,-0.8083273113020536,1.407844709063359,1.3093556792932641,-0.3330729972738528,-0.3838870543548579,7.0924884518074025,0.7553259032258517,1.451139532993644,0.3220325732719711
D1R,-1.821632652580737,-0.5820190794023319,-0.39513203206435576,-20.181808057381662,-0.23742519638970377,-0.7037064614197452,-1.4964874926514877,-0.19183479857684949,-0.5978626963001371,-0.4931718908654476,7.932741723414607,-0.07852311165139052,1.1543749914725632,0.7811360295811597
,-1.5355773422025896,-0.5052645663087908,-0.29619199910840743,-38.25811217792899,-0.9958973244209073,-0.06450975263710607,-0.3168175684220342,0.1359716118215807,-0.9567137374384851,-0.4700546444652803,13.835661105793749,0.2853399280797255,0.11834300073363238,0.754261390895518
,-0.2590858435731178,-1.261193920613029,0.38879255686253905,-69.75926968181233,-0.32761883496243327,0.16943260908711974,0.9509983087902415,0.39785051434612423,-0.9320181515712254,-1.2239334039054068,9.132767500803967,0.5543004807199463,0.547891835966813,0.771346074963862
,-0.710540503767513,-0.9900025859688601,0.2508510335978827,-104.00772356705023,0.3561268714363118,-0.8222887225338685,0.33776861662377516,-0.18055002904161843,-0.5747776116303697,-1.6033346439953222,9.904061868298704,0.6561545593670308,1.0810202435641862,0.6850454555428857
,-0.24009741786692146,-0.727237041892236,0.08602976700533083,-68.25291644399742,0.38524752479168967,-1.0299685827954714,2.1624675763054992,-0.11417256341654296,-0.3420884069927678,-1.6317577280304498,3.6233562713669865,0.4488278775547922,-0.867962804052191,1.016396973702212
,-0.5067097509679349,0.3117954065537243,0.4001846319995731,-38.77632203775869,-0.9430863396032511,-0.12683280761792523,2.7741077624410067,-0.3930718888705991,-0.8302098004306342,-1.0102825516833187,3.1854170647060704,-0.15186072065546263,0.5287956381352149,1.2543525543959244
,-1.2139137227430767,0.40231498839267393,0.513961523766866,-18.559887490250063,0.006939369014017288,0.14535610804495872,0.8011153957153407,-0.36887814037852334,-0.4701629335653171,0.004376285320220435,11.250290109333186,0.3632312443218549,-0.011820762163937003,0.8868184858840771
,-0.7715351250931834,0.12381861350003139,0.703969783960048,-23.19284679341168,0.7229173522562939,-1.216777828714093,0.09637904616207352,0.9842067180831994,0.32411460334667525,0.7029619791447335,7.977797689526289,0.7003084260636756,-2.5313112561801696,0.13046305482868711
,0.5753962381731209,-0.21444966702654691,0.41690148318006365,-40.36182360349927,-0.1446836060488874,-1.5662283076082755,2.4647200877250244,2.543075444596185,0.7726073808733926,0.8316956733280797,7.000298084627593,0.8452449873873413,-3.6338691519971364,-0.4071583009680981
,1.0041903340884841,-0.9088086148731607,0.2206994598471627,-34.86971408898704,-1.2044300131092702,-0.83983836837413,5.607630619270661,0.5409910081625693,0.4872334744810639,1.6360570644122792,9.876879463615913,0.7709368061610233,-2.4938882812340077,-0.5970129363194142
,0.9525976505912765,-1.323622201002779,0.09161252229860067,-59.14023327495754,0.9512340794746612,0.43727247249053164,2.796878526203832,-0.4996155209618051,-0.2653025785261965,-0.14476045650777253,14.168231155249007,1.4831472562440888,-1.349299013486251,-1.1967353152347084
,0.8075284962154853,-1.2598079550071961,-0.25043610680414147,-26.335905511211052,0.010797426609310042,-0.2697002647814128,1.412052052117987,-0.04574699658545241,-0.42695192879083915,-0.9523942214662086,7.035157114376618,1.036781376595064,0.07170991946140838,-0.8979398469226512
,0.34248582332648125,-1.293962337615636,-0.15198091961435856,-12.996651641665492,-0.4666512420487539,-0.900762378512294,2.136885971806468,0.7993207837184712,-0.1774617571732755,-1.1341059390633803,3.0559479422388494,0.23456193352287516,0.8270862422737194,-0.5981662737584658
,1.8667519476213732,-0.7870546357618382,0.38459995777758554,-56.51203282513462,0.4592319620819962,-0.7035794656045464,1.9464796386577614,1.9705918854458582,-0.08918408041292993,-0.7551753645277202,10.425936337529215,-0.14696952131620133,-0.30872508811492566,-1.2487542930163593
,0.9685370076313161,-1.0067261399943408,0.030533800798759836,-70.86625898862161,1.7319265826297934,-0.5663641503078399,1.7375174854755762,1.7615218321221395,-0.2916857753697168,0.3844957921706943,11.962638545118303,-0.1094483453622945,-3.354333523015827,-1.011259134444784
,-0.7067714845468221,-1.1924686508401203,-0.058150179916661764,-52.28561490035487,0.819713864155597,-0.1810011868017045,0.6334774882553813,1.720322201093174,0.14641327719074124,0.19375088527415144,7.4710694108268685,0.2007582521297459,-2.5954003395998013,-0.706435114730373
,0.16391556154689912,-1.1629601665985867,0.10241362598834906,-44.72150554945561,0.8760242524902992,-0.9560518955194288,1.2603252061782477,1.6152188005774115,0.5044492551735069,-0.2789620235412275,4.450816100520257,1.1139304468523459,-0.10198149663927708,-0.35420001393729106
,1.5537377003349206,-0.7279979284893029,0.18988150683018987,-55.79630101486397,0.9385866704467338,-0.1744443612460123,1.7160987197902025,1.2886754502111015,0.18907514108730863,0.6461924737796351,6.070542798921643,1.4550018303639254,-1.2041429509161248,-0.24151655570371824
,1.5949833416142907,-1.0962529156413516,0.46732184855558695,-50.95142600392321,-0.08675136443372172,0.10391663745608179,1.2839972492634748,1.591863677071269,0.6696381589841317,0.25694866042597314,5.9099966206785846,1.5593104130498234,-1.4717384793255,-0.32570759437413943
,1.494172743408466,-1.8210304391190515,0.5663127391601968,-19.052610139328532,-0.8445411233254949,-0.8331882827673552,1.8649392108367258,0.9503237753246763,0.20981499992146754,-0.15074450319534222,13.966344836113311,1.172447843707244,-1.3387104653588562,-1.5404148431584024
,-0.3271250658143596,-1.518532572574455,-0.035016281791657014,-39.50454352254671,-0.4301802056602806,-0.9034303571960549,0.8420720828205128,-0.3535163183660652,-0.0811771191727444,-0.44017063570068393,20.08880476415227,1.4314305577573823,-1.8793342489138052,-1.954090750157013
,-0.5705577600520814,-0.995225690364107,0.5257074439671852,-79.30275493649567,-0.011597481796048359,-0.8432544955013548,0.5596609795233293,0.5472627870626889,0.5974222702318718,0.3328818825699623,16.713603167892153,1.1138035345384008,-3.7130135690755264,-0.6351117670552778
,0.3184727345708369,-0.5416080873753145,1.1817364687042857,-49.46861524366852,0.7048587151727195,-1.1016309087859844,0.6610811928647421,1.125006890058575,0.07906865088353775,0.5785673010897228,5.660548894558409,0.6107329122558327,-3.591283632629241,-0.1465297112357178
,0.9274026223836771,-0.5387383790962263,0.834416858885348,-58.297934822924,0.33452777037002585,-1.0922843144330079,0.9520148928662635,0.93421344856068,-0.25434144941742487,0.18643703143729023,4.513216282816686,0.7639307007579181,-5.840827882393665,-0.40880081785745076
,-0.4010590702925423,-1.5425822384672159,0.4410570949210161,-50.11359926671863,0.3471747470063409,-1.0545194740558246,-0.5366521503078598,-0.0017603784620973428,-0.9842286569366937,-0.13581893727927874,9.923619829948564,0.311577993037894,-1.8783841194439217,-0.21195925798132062
,-0.4114200861302313,-0.9520619822087744,0.13727826134345195,-74.38876828613994,-0.4555341914378224,-1.3344001191587513,0.0770227682795963,-0.038270333547660636,-0.9094079854263156,-0.18167298355735823,9.68466308717766,0.2733238174350102,0.20780705173896652,0.17575977509451082
,0.8193212423291352,-0.3168180122498979,-0.17540278819767785,-68.72521111847063,-0.41494295894839633,-0.37072658335158987,0.8197271291651139,0.31057673623572013,-0.037120146923330356,0.6200468729404247,13.866035310122827,0.8414776792385761,-0.25007296588904043,-0.8830142807050514
,0.05912411905670348,-0.9559558825470713,-0.16230615597275572,-48.32531607964348,0.6849689800596809,-0.4266404944048557,0.48574585802707254,0.6640503548710859,0.7506100673737769,0.7787038893066502,13.817637905080959,1.4993029194761873,-1.193257112854639,-1.519224634167951
,1.1302063854688726,-1.752660969858478,0.43076575712207965,-38.827998603201166,0.9385873174528141,0.4789734423982808,0.9966318580006703,0.9831666735659589,0.4915803133806537,0.7957393455623443,15.907186427630439,0.803965987001025,-0.7688743715640428,-1.2892278211508472
,1.3362104812505178,-0.6842026844337611,0.47746697721164844,-33.81806518989257,-0.8927634781541015,0.5195824714777575,1.8628400187699306,0.7250538460849404,-0.15767822731017905,0.2089668029387833,11.338226562158527,0.4009973269545793,-2.1569982601220765,-1.1841666658293883
,1.2734248043878593,-0.7888334888603838,-0.10655083448990985,-42.62101926423313,-0.8885298212038009,-0.7998862392011672,2.8418467299211896,-0.23035071544822586,-0.40751459796211514,-0.5556198207639683,12.753198869535957,0.27573446203594826,-2.734165162348662,-0.9735208884217946
,-0.3271008774253582,-0.9567970363703115,0.13774912844835024,-22.66651441248703,-1.3461164017340639,-1.0026984913224017,3.547992038116585,0.4058846023101735,-0.34523462299737595,0.0313948148126741,10.343126637886984,1.2780321756765145,-3.313642043890816,0.14580501230270995
,-0.22998877716332602,-1.1590672446625723,0.9890762596997841,-50.37426612730356,-1.1857183704594176,-0.27989112398360577,4.162006437065507,0.6110613896468722,-0.29792901958156376,0.888437934328912,10.980306453265202,1.4498926863555528,-3.20443271246669,0.19110331485762963
,-0.2382813170595404,-1.6239203384761374,0.5575901385354517,-49.22182978561487,-0.21555308677705362,0.3905816546843749,3.255667442927724,0.5258881783657801,0.1689793058419785,1.0828194140881042,12.82602115833766,0.7207287720166671,-2.7638351232215794,0.6744080767317026
,0.7244979308147298,-1.4440043160739753,0.238456155294424,-27.911401314168298,0.7347402605927994,-0.39148200745096384,1.5345106820166179,1.7193603983405725,0.25306061757194054,0.39439137025637344,12.071746023807677,0.6792755598977592,-2.9108692377310437,-0.6313516103783122
,1.9874395465131542,-0.9219311659927493,0.3437982051410109,-79.10010407554704,2.657198968781161,0.28686179415238156,2.5886935464436576,0.5677751930730726,-0.21520146937905324,-0.16541421812723026,14.885978604078801,1.624047108816956,-2.809938902875246,-2.121184292429217
,0.9703075331088753,-1.1631783915286045,0.33151335348077576,-34.914832179781804,0.7095039409721413,1.1736930361631444,1.8497845595140132,0.8216321188118509,0.22276945661083317,-0.18573728436054543,16.686827957248312,0.501071710475818,-1.6071816111276211,-1.4397417581282743
,1.1139022694167267,-1.5769435023331073,0.3283289297657633,-43.47198611431739,-0.8772135775422334,-0.15635214600381026,1.975380156365577,1.1577292932155623,0.7157255550876723,1.4171229829732965,16.29617189781778,0.09030350158591764,-1.7538592352397948,-0.5714791493967799
,2.1495255521368506,-1.6493609953626416,0.44504671361560755,-56.14843533256876,-0.9632937784282173,-0.25833391363849667,1.3519922673239892,1.0029808427823645,0.7280552682330501,1.386804408360615,15.983836191171871,0.7022012006643946,-3.3857776477973185,-0.8800902974511786
,1.5058807609709992,-1.0268039517754277,0.4359682094931032,-41.12888808138923,-0.5146671684453101,-0.5800040489401166,0.10011590714530245,0.8559261837071078,-0.10227365802267326,0.194611306341367,9.24789909545262,0.6685701750277866,-4.640413794970583,-1.8344436833505813
,2.115970075556553,-0.9706396719490084,0.10569288653364317,-27.530546690179442,-0.7117841982217242,-0.6123728835052645,0.6586457926276323,0.6660805200475408,-0.614629254541427,-0.0634402824077269,9.622821171714943,0.756334571818044,-2.0937041498903524,-2.2685981709289025
,0.32944206904580187,-1.9852337628513712,-0.2219628341962886,-22.540817905936883,0.2913085239282482,0.971182240985582,2.842440321448075,1.3894751634816154,0.2858414552695157,0.6127702230213685,15.13558385200156,0.3178437171997264,-3.431049853230652,-1.9077289562537916
,0.21063725680300968,-1.8277576601864358,0.31261566380224937,-31.218534017556077,-1.2083583538456222,1.8311706690284402,3.9464580127281166,1.1456733819372804,-0.359217724687032,1.042155150143922,11.36484694120041,0.1687698067050276,-4.594994427636336,-1.1018427548921856
,0.14929015348751049,-2.1975135223666604,0.21443199083245626,-30.303381588569458,-1.2612202319346448,0.18643822148743053,1.9414466801713188,0.31035685596974977,-0.8883000802491068,0.6716375368554742,6.393902446313937,0.22624068579944992,-5.645611548907103,-0.4155185696083274
,1.6040972235865365,-1.8455373142529488,0.24490079730304176,-27.44420344853554,-0.9246156430089251,-1.607230540789497,1.537948038957474,0.14973678114379757,-1.0643250798027497,-0.3320417897810221,4.255771638782194,0.7020082319092705,-6.145635739471313,-1.9503924717733792
,1.0972414959196917,-2.030141132419086,0.18794061683860933,-22.118172565037064,-0.7321363307011124,-1.5384675638475809,2.3956352732588044,0.7997449540050984,-1.0183981720302873,-0.5162834689886302,8.201178313908155,0.8797514766212584,-4.648115092309669,-1.3770630442505067
,0.19301497720118393,-2.4099272500416964,0.05482684705853881,-31.55007915451362,-0.3465721537360148,-1.3768579801351475,2.7356834030219623,1.4287211856536415,-0.5200159543101506,0.17976824909042755,8.922328137696534,0.6745330238581595,-4.149176307722881,-0.3030951984609699
,0.7784158684493926,-2.189354535931679,0.48654094227095024,-76.99161118295838,0.24263621531173027,-0.40589449863742827,3.3897255830355557,1.7707055992586542,-0.28013407629809656,0.6098595880946803,8.576644770396662,-0.09231088314192268,-5.102486270688672,-1.0672472295053759
,1.3754268866133488,-2.3165968757385,0.23020687119864194,-88.63242663555843,0.8694821189635535,0.34183442763801736,2.6272021007992925,1.387778267485098,-0.18413906374173047,1.1981484270269793,9.891608996015716,0.6374607934338301,-2.6547333153511428,-0.5305626016221976
,1.3721769137058752,-1.8578295005852834,0.3503769673966054,-72.81957391125391,1.4145048938670268,-0.14668816126449363,3.479656337750281,0.8009090656963844,0.546265978172454,1.0963202327860528,15.118093109079734,0.5159670323541161,-3.155243129952905,0.07950436725234468
,1.8286645120600926,-1.6765312028318888,0.3547521527745203,-21.26198420440545,-0.189851906745554,0.5164999341575076,3.2166054713680436,0.21357048829173736,1.174406156543717,0.7538646633687905,9.473931321936542,0.1760435612948561,-1.5833903726857719,-0.4032473136069156
,0.4651104073511706,-1.949830866864669,0.37407357169468103,-47.244294242590634,-1.123999362879579,0.11219879965478223,2.516195530779984,-0.14713917760721776,1.037916711408892,0.6635888647418667,4.7542575634930655,-0.1932458075186838,-1.8436916940585217,-0.5404042661392464
,0.5056779695908833,-2.516745519273347,0.582107902380168,-75.0543537538032,-0.9197214927304646,-1.2993856830864634,2.047434140438489,-0.3175133883668137,-0.1733292889134448,0.08277819803522457,6.494538204618868,0.6086102393416648,-1.7979841441165718,-0.8256535271260906
,0.6954517284987464,-2.5343121717734802,0.14198223421327416,-80.73040989150144,-0.5276891465990245,-0.7521320983868064,2.0690140268222397,0.8743464574883747,-0.21052123403936973,0.24082160081414433,14.071456057110026,0.8303636148082583,-4.339120684552041,-0.9551043373793175
,2.3482586410441195,-1.4370757857156258,0.06284577252377316,-57.63360009698675,-0.23988463757037937,-0.21654528232127707,1.2937851308718251,1.1509636194411215,-0.47988959608743087,0.43556841348446496,21.056449193857507,0.022432842468327677,-3.7265661280933986,-1.8501049714486013
,1.2992379592009031,-1.5641839106713864,0.3939234121922787,-71.82771357883765,0.48398577765063316,-0.44941411870969333,0.5293841475583743,1.0731655086337335,-0.21506040647623162,-0.2287103252193211,15.89983038705475,0.3932104118343213,-2.817642796891809,-0.30504054683181064
,-0.4135040125559129,-1.9235816798690322,0.3745006699588312,-49.47842353591712,0.7745819796451963,0.6428517378442591,1.0054123411328921,0.21061672302216256,-0.9863236017031011,-0.29746767037941657,8.973053437897873,0.7461643305500749,-1.6026125609060233,0.5358575964610527
,1.159876405272931,-1.4804072614650123,0.38806669895275797,-60.270532949106546,-0.09304535599726253,0.619749157666641,3.0621415627172057,-0.6178326291928186,-0.6381805115796229,0.744665982833522,8.847512197039483,0.7490378138717566,-2.138366156975461,-1.018471499713111
,-0.2810189757624112,-0.750726828514846,0.005716133695265819,-33.517923189512196,-1.4396537565174026,0.08727612067124038,2.8033090648656906,-0.6699852039012825,0.2816910148945938,-0.0032582688381570172,8.574193838777592,0.7502624141651894,-4.051458353561722,-0.21657257383694972
,-0.11945771340670898,-0.8986202480589269,-0.2523505049486779,-49.960134742752835,-1.246780245009973,-0.8310783455241101,0.4394622609254966,-0.384608683792555,-0.23793286814778872,-0.14444839663338618,8.900886252393798,0.2869886958453833,-4.12947602135225,-0.050106109350646334
,1.6613610034961779,-1.1033166212150236,-0.13414974098640606,-89.65694832666397,0.6213467793270455,-1.2286217012619163,-0.32034698831849145,-0.2386802364545534,-0.4137199564781755,0.4278058046900849,2.7021267492324337,0.7278218525336688,-2.0660929808961406,-1.28345202870909
,2.0546741666558317,-1.704023515205677,0.39408511493700427,-109.54932750927864,1.4857008194599473,-0.4243260108749041,1.1716725920523103,0.798328185683422,0.3125904826576342,0.08181037092917597,5.0838672846290605,1.0555505831254215,-3.0537547102030276,-2.4450048664035875
,2.488250914631419,-1.950863955147794,0.3714360149431428,-43.50730594082652,-0.029782290911564768,0.3950714689855654,1.6894098411889436,0.2933141295787028,0.4833689281482026,0.31598054903594097,6.641308759888487,0.9939631223644462,-2.0797664237756903,-3.243464705121515
,1.324484337725296,-1.6224106462174166,0.2511912577576117,-15.320373319445666,-0.6750256022817233,0.38223143869966014,1.5089909245856925,-0.3936098520471863,0.16531808462402367,0.6698844042886453,4.63440638787847,0.8265523298139039,-0.5113194659450688,-2.2305612419225165
,0.5657656695623565,-1.8173255791653904,0.15245147452585453,-56.85906017759336,1.776534572935747,-0.3236160145634343,1.423234678335156,-0.25009564527644584,-0.13552049870432945,1.0262699806537734,9.86620062890903,0.7365531390459309,-2.9970350900460154,-1.7025706036361519
,0.8087753158382648,-2.842728107496016,0.29476287566282533,-62.209763436793956,2.993031551438932,0.3187191436136678,1.5828224557142418,0.6081012500924259,-0.08629842009350713,1.551115294958084,12.788465672329457,0.9736801081642773,-4.081039422129164,-1.1958722853207209
,0.9027013863080582,-2.5265133303320053,0.21719907645389405,-61.973346403246715,1.221047204274867,0.3308674274591739,0.7588705279809301,0.49476036608108964,0.056538964090047335,0.6758826733614393,6.726104258200978,0.23046425175006885,-3.220250603981679,-1.1512956101024678
,-0.22149340816402066,-1.5805059996993038,-0.09474629972211453,-65.90723536432841,0.2055689130546203,-0.7667337015119843,1.8606617941511845,0.24718972889722315,0.4742147729586572,0.7983240088770253,6.068907588930392,0.31226961889334404,-6.043234347825893,-0.736896250567648
,1.34108187264322,-1.6106699429907092,-0.15698526237567115,-76.37301512904801,0.4687678901687247,-0.6047073312953701,1.4340540979100858,0.10018034674572539,-0.13289463890189407,0.8851902345438553,14.237288180287285,1.3442896934608002,-4.9245529432904,-1.2587345188687475
,1.6180518914759823,-1.743930718687315,0.042118436809304424,-76.03500358217362,-0.6470440206483627,0.18333770247119116,2.8440921764291027,0.24965389920663733,0.009518147304261877,0.5125133335603875,11.98008857049206,1.4928912442073294,-5.1512350384323815,-2.5629836873966156
,0.07227944054112165,-1.4647441815035882,0.13665350137371887,-70.12933179992237,-1.0490164242952549,-0.04484795254698899,3.265790277012628,0.5957348294893863,0.03718327772363115,1.1993691241352888,10.952058561201298,0.5653472392784018,-4.491266230914152,-0.9110261421977927
