event,eeg.af3,eeg.f7,eeg.f3,eeg.fc5,eeg.t7,eeg.p7,eeg.o1,eeg.o2,eeg.p8,eeg.t8,eeg.fc6,eeg.f4,eeg.f8,eeg.af4
,0.07210716531979178,-0.7021021261086453,0.07123485341110762,1.511801072370684,0.5450427698884217,-0.18534996658214511,0.3190023336653617,0.02189151113612542,0.2499769024427959,0.08556920260907457,0.02179555217847651,0.1004607459974139,-1.4978511293597234,-13.079976915017438
,0.33130614627606103,0.3472032552051701,0.15453805832427106,1.4741368315812755,0.7825615540571857,0.07614633892237478,0.6315685973662747,0.07512647876077946,1.1783752473978044,-0.10924392967291743,-0.2480355537512965,-0.12293928289116308,2.4345137437707174,0.623742193391039
,0.1412375188974742,3.1393753579638086,0.15529258957980077,0.9589150603947042,0.17924208070560507,-0.11534643225969626,1.0720852836478236,0.24527168183608486,1.123453019179699,0.1831693175603798,-1.2077357033654155,-0.26502351080003694,-1.0443969419602543,9.65137067813244
,0.047701041932690535,1.6785579143233906,0.3006859591714444,0.1680865793155848,0.14834190408725967,-0.2740041516577994,0.40846487765308087,0.11804272670112347,0.26140703442183905,-0.8577781793370204,-1.4812169745159072,-0.2848068813472921,-4.710004470601901,5.340529277537031
,0.05601001947931448,0.318070190749038,0.25422523120007134,0.7256024038067642,0.7427907992498882,0.015705568492704484,0.22149962438854212,0.02163646763333114,-0.11924559120604492,-0.6725277903480384,-0.9265109999240778,-0.5780079628030449,-2.608684340787185,2.537352787903667
,0.37381728602460873,0.875268217533272,0.1492269991550213,0.2575235437321359,0.9555716679185808,0.43764006349283463,-0.01773368479816721,-0.1165391312391576,0.13014695399719334,-0.030123141532292973,-0.014539451456534071,-0.5231705608513321,-2.5066619774731165,-6.1521354646408275
,0.24299542278040753,-1.449309196136189,0.29363764717706536,1.4064590662832595,0.15873364902592849,-0.7435024452025791,-0.08146992792031599,-0.3638450707945079,0.31124575830008133,0.6473473695470953,0.4488176716747475,-0.1093267397103083,-1.3019147889214375,-8.254729608820472
,0.017763496015393256,-3.0130218750731093,0.7550139891062846,2.7708523867771895,-0.018400410277439046,-0.8340871821306856,0.6223187352560767,-0.028743346506920488,0.48127403890999426,1.6707205323215994,0.45140271078180744,0.08131449880186334,6.295698656307778,-12.071572593666087
,0.35275369847479876,-1.776827362897593,0.13287697164403225,1.5474921489912445,0.3769931140648122,-0.6824557981998952,0.08658478680020577,0.0380643375311636,0.4641598970285508,1.584122794176365,0.3009121480999667,0.3590027054217597,2.695535094444124,-15.801519453632817
,0.7460733828548969,-0.601138234220884,-0.08661197294521154,1.24848061742424,0.39566813944651424,-0.17945557659762135,0.6368142096962688,-0.06384868085631631,0.47709646554629875,0.526051974337518,-0.42016865068061277,-0.21708401402919017,-0.4454194660606454,-20.28786120288384
,1.0325166574742788,-0.667652016074739,0.059807405544412925,0.609268207442403,1.291777632839263,0.5019902250032023,0.8448328657803482,-0.07532944172142143,0.9114850418226355,0.7070338972356663,-0.5429441437231958,0.0077855203980489495,3.507188681391881,-25.22423507758501
,0.936796504818677,-4.384460992391644,-0.14757620232853302,1.6057741596145263,2.2650252818806105,0.7582012707093038,0.7214522766656114,-0.09581199203011348,0.4567149035767522,0.9531746818603153,-0.03211965016482117,-0.16156390268729873,9.275078308590274,-27.314759950804255
,0.6661573272453768,-6.268136843850235,-0.37244298645149015,0.6341575660064425,2.2044322204824445,0.5048478882392782,-0.057389853395655575,0.22793218998546264,0.6384890268862928,1.4958925805828875,-0.09159888932368457,-0.33920466581379366,8.269585195272212,-30.971986311628342
,0.3404461021323494,-4.817173705280852,0.10177557878236386,1.1147501664888553,0.7215869767736842,0.12553351159616216,0.2003165711362702,0.2848984728482334,0.49925798491959833,1.7788072875023018,0.2100305243206653,-0.5832795017082311,12.23943302758031,-26.650305731066165
,0.3211891191899512,-3.364442279329284,-0.2034352435181489,1.793007832127317,0.912918019911436,0.8857145216719844,0.31105347607873923,-0.2602519041714935,0.007177018416115014,1.264799420730143,0.28119303990158795,-0.23436029871757413,9.606129629840943,-13.17419771010015
,0.8276524352045032,-3.7825524026090913,-0.08279438877526224,1.3834635502577062,0.8414407601397803,0.8077960233672499,0.29951648140721027,-0.47361213622089,-0.1846624849808532,0.9254608957744169,-0.07080483062211256,-0.12934905059755125,8.884960018927522,-18.359001487031406
,0.36870352401775036,-5.584636520326502,0.036255720481042975,1.0322812301078537,1.0424562175808931,0.39102331748659636,0.22094381170719993,0.022179617904342416,0.8563267804799215,0.8249124377441256,-0.10266818658077784,-0.27141335252016674,11.322624816478168,-26.62365803902284
,0.18071872235331074,-4.626135238644625,0.3748639232966071,1.7776927322650595,0.5800884314905635,0.1594750181816553,0.7916288924985289,0.6442654238955912,1.5923614426086605,1.0695810566902442,0.18445609376794886,-0.33938197541888604,9.135946864612796,-11.892870361713358
,0.07748160957119599,-2.799545827713476,-0.005896474040996856,1.5157155466355012,0.47519621882347196,0.4227378802757955,0.5474424222399096,0.6006447302194631,0.23340291256155007,1.0814494259298697,0.4129396073682385,-0.16658001801507064,4.713451933953271,-9.077144787889665
,0.3977405811322916,-1.4064829421467393,-0.10405497180138062,1.763967252257535,0.29188112149855433,0.06144755363082806,0.17790084875169526,0.24209903989880704,0.0765381138476222,0.7833896179998193,0.6892292816685239,-0.010673099141525574,7.050940190788936,-6.323167358629213
,0.6095356969622175,-0.5202163095200587,0.24704272405200617,0.6945601368061952,0.8315519144299647,0.3723203274550533,0.6516168783972708,0.3183792047650405,0.17417536610788753,-0.007058610236073891,0.8526537384314786,0.2628077133895609,15.641705843647943,-7.264972434038935
,0.1591951287635111,0.12007305552938667,-0.07034949619531929,1.2814125710822788,1.1614158120852058,0.1612587441965936,0.28322427922515225,0.01325940071469479,0.4302621158678533,0.1852392083238234,0.7158869237156631,0.45607901369991843,11.353551628058568,-23.621224935175427
,0.6044499902641984,1.1896366406883945,-0.22986851130195937,1.3525442772976686,1.2418241160205081,0.16940578996849498,0.003018636633166002,0.07349405892740342,1.148134676447508,1.1697924341841819,0.2883244146979973,0.018374597705917126,8.894968940463622,-15.249710840578594
,0.5528118626705324,1.4367034062850665,-0.19315086959278147,0.4767910209390113,0.5423361097097648,0.20831970322656476,-0.14770794546501415,-0.04568698048231696,1.1245359205327785,1.0495796267765922,0.2912920949100469,-0.25937602050141767,4.751146304437965,-18.145516835260338
,-0.21904515921311424,0.461816641542135,-0.19073715948638909,1.8928885048496937,0.9387784203835357,-0.2617141718488813,0.41560495034237027,-0.14854614821499376,0.8990048056672943,0.4542074108796929,0.19970580286686251,-0.08057463367702743,1.6127480043920397,-21.670430365207032
,-0.15286329437667873,0.05421770929212254,0.15473469640207174,2.120671158391627,0.9912586237564791,0.032460962616656076,0.24331795540542767,-0.430184544229715,0.1590000371822725,0.39120326742486145,0.11986374438906684,-0.17383890494958282,0.5962822943327529,-19.07637316556645
,0.18989478668652526,1.0850990733673254,0.3228427522462426,1.2334198010873154,0.9225300312988322,0.18932425698641922,0.5311166719697494,-0.011807811358094732,0.11380625961687008,0.2809930454967853,0.08124001436541017,-0.06328996326578412,4.759622640715965,-10.439129191580655
,0.23688676789678764,1.8742891748215138,0.14107126352507265,0.31567167986875,0.8207863358202888,0.18764215896853814,0.3644895106192918,0.1200024705493008,0.4687968618888522,0.8110965883690535,-0.012323583029339688,-0.12234811322387878,8.160527034912194,-15.684415430991969
,0.5659342878486342,3.1726532066614164,-0.10085999211230054,0.8542752495356741,0.3927730951366815,0.040695047675250916,-0.26609698395964043,-0.42247461665852326,-0.013877165926560813,0.7812400187199717,-0.17230886704863266,-0.5378757777924332,8.327520426108594,-17.637894601635214
,0.09347558619840676,0.4964027691778093,-0.007816671434269113,-0.10538031231917741,0.37651121635007434,-0.10229538954619621,-0.3157362025039856,-0.6483399839998708,-0.23826948403533188,0.5781014993709188,-0.9491405507485978,-0.2870703338811334,3.094578118305719,-4.7680780597904695
,-0.04331537729577794,-0.3321003300486304,-0.0014094343881745621,-0.026699860661446268,0.3909674906912593,-0.00574398341342801,0.6858578934452426,0.21541475173701177,0.23322917084463882,0.3035096787688565,-0.8331723770036268,-0.011217223794394172,-0.9227530642047114,-7.607732033499631
,-0.0017167816575592817,-1.5773218955157444,0.002275171104554669,1.0417030477504192,0.5409383375575256,-0.30471017776692805,0.385287476521001,0.6655442835870312,0.4183553141322569,0.08070599019305527,-0.9687749553539243,0.1619069141815572,-3.7867462658423676,-12.579077193816689
,0.2771434277373834,1.0746609921797174,0.007704291710223551,0.692180183707204,0.8197304526017452,-0.581522510042529,0.006027437470720127,0.4025145863654682,0.4655647068621748,0.10204071377823028,-1.178793223831863,-0.07770452014167725,-4.271682085283423,-7.9489815371206065
,0.4320017076426763,0.9531387301858045,-0.09913955724202572,0.19685294120495675,0.6138479145280754,-0.07923998139756158,0.2308956759910774,0.26037526746514766,0.22623702956234282,0.950651309906678,-0.6074245188766787,-0.1534420144103139,-4.003978096922837,-9.351453030405725
,0.5094863657593415,0.41279167072839335,-0.132520187325154,0.5101219326530548,0.517862314348188,0.1008243410663039,0.3482908985546886,-0.30588526473060135,-0.09610995996426655,0.8543087131363242,0.15472288831922235,-0.16726983151401942,-0.8796786395779391,-16.380608389924316
,0.5539486586890648,1.0387650078108492,0.049395739712457476,1.3720944819569392,1.281890196214983,-0.01646888390799152,-0.017557023552110654,-0.43066013024227245,0.45226013267424603,0.9216203474557898,0.012730186220755817,-0.3560606079305389,-0.699853097859272,-8.925855368241736
,0.8111076221899567,-0.8082010453717962,-0.034337328314044756,2.858805069627771,0.2755929190062325,0.4596683517245651,-0.16158674892579092,-0.009675418388476523,0.8908194883635937,0.8924912266293793,0.14635569013853444,-0.4144733048058537,7.235384542134009,-15.747274623692093
,0.4676729533392699,-0.3982170111806546,0.08471095158511062,2.2710323805899972,0.43694577379526217,0.5292844833716635,0.3189595831507457,-0.11208575887312787,0.25842514403133093,0.45641276776982004,0.27632093179398365,-0.13457923313981468,2.6291066795518967,-23.224858760952205
,0.690486455224657,-0.2477936314043824,-0.04332250543680371,0.9513334372950049,0.2594127947711866,-0.055259961782198996,0.7390732042157325,-0.43120504769779316,-0.3486496529896323,-0.10445888676326885,-0.6019775286170452,-0.4572898130231642,-3.7320214236271805,-18.7253249626269
,0.48198105182696876,0.6681056162311045,-0.34767342043488836,-0.0840423871536165,-0.07776166517926335,-0.05655506120209746,0.5003360745771117,-0.2091560861175624,-0.571716200698801,-0.14109030096943312,-1.6511099194085375,-0.5906983103139586,-10.705483938943274,0.8962495244582049
,0.3402448777705939,-0.9654317793788505,-0.1449483249798352,1.071344817978026,0.34145249259812555,-0.22928268476517635,0.13663420566384357,-0.03706680794585005,0.17873357605986773,0.7564223318029368,-1.1145640098739649,-0.184829317030405,-3.6647019401526286,-7.257202673824726
,0.737651565012763,-4.7462797554182465,0.24077471753881943,1.5413364554854136,0.6096903959858783,-0.4180825386198601,0.006234352145190556,0.1612567807836687,0.6082437445901524,0.2841315168801761,0.207201638380615,0.23314224707387024,10.250125035942872,-15.67313959877005
,-0.39038070744214864,1.0746848555109247,-0.0952856807528696,-1.2887396166043816,0.27995059663757643,0.1256525156976069,0.4648839212535973,0.1368618454778557,0.18482225955082546,-0.7188614051823969,-1.1844688442537548,0.08902381623210852,1.0801390693122233,1.1578563731331117
,-1.5398051696968047,5.188241017112742,-0.6590338011153278,-3.28205623680772,-0.7362101450009318,-0.7088752218016223,0.9116895108112282,-0.5279347439272788,-0.6631656012315482,-1.6850953881854474,-2.1130324624246777,-0.45516357702736776,-9.342235618565875,23.320408331090167
,-1.006141946647882,4.017458257595275,-0.26182558187873733,-2.5637335081149075,-0.41117407726191135,-0.7531537951191623,0.33536135092181957,-0.6622549201810753,-0.4901073595582559,-1.2452974903666196,-1.937761263604089,-0.2815349169572162,-4.631661831027959,12.393397091693544
,-0.2730688236330012,1.9585157370400208,0.17127623506354006,-1.6003920039328372,-0.7031594144994532,0.1123564239449452,0.03959502814992576,-0.02732697985084672,-0.5368180995944093,-0.09416135221743556,-0.8550239640757115,-0.13934429142728003,-2.4215311314152843,4.923904754709368
,0.2973685679040102,-1.0357280847246613,0.06886657923314869,-0.18855727851533383,-0.2342247631114223,-0.3940666732951311,-0.08799446439123126,0.01578361462441588,-0.16170921481529424,1.10447104057001,-0.14793578443405453,-0.2669165098911923,1.001922699875531,-0.6022958873150105
,0.0367939024084225,2.743828048790787,0.20589897804523666,-0.9014895316181908,0.855515392567288,-0.500135889997757,0.02570165281431264,-0.35579259216951287,0.07295803009404868,0.676066634915095,-0.5049002599559761,0.0575398504386917,1.5455651835703936,-5.499789990189048
,-0.1692907962339314,3.1008296547748007,0.26662764074466744,-1.527714456397114,0.85844139357369,-0.08770799086233015,0.3223316645939393,-0.10027838250844157,0.791989731554961,0.14206669974250574,-0.6700996545031617,-0.202801212529503,-5.992519690566298,4.749902960666733
,-0.03942552235527145,0.45879920336042135,0.057612353214925756,-0.9366430970562866,0.2101669673482524,0.42968302412172144,0.27388323323494373,-0.06397819746372867,0.6410197700983365,-0.07768871410424902,-0.260700936794129,-0.1536874933199536,-7.012799280296236,0.4225652418847675
,0.19288242468566363,-0.3655225665983956,0.013333607366606742,-0.2696421162832425,0.2540020284111756,0.3984770550416964,-0.20434231404917738,-0.37401079303320595,0.4360229801449638,-0.3651967224143118,-0.43524432750030345,-0.17582738002628695,-1.0516070032301839,-4.251809838841745
,0.03671540188754562,0.9027608195670241,0.01984520444073054,-0.2904863050375234,0.39196375947672385,0.16343931510224394,-0.3548338422730599,-0.535093405912054,0.10247349595681755,-0.43495954571602136,-0.9056128133681673,-0.015222389054857647,3.958839646404833,-5.053391285546737
,-0.48830350461971445,1.6445121158979337,-0.34471687446525484,-0.14933007389804404,-0.7003939836005755,-0.22919581750912355,-0.21022425622657254,-0.26561018602791797,-0.30376300261612205,0.2914363284321239,-1.3565271297846884,-0.3897177613651835,-14.775228677221062,-7.653923438947467
,-0.6342523245855516,1.2271374139218543,-0.2588699740409705,0.24052536770695915,-0.6583365895781813,-0.4004502589514277,-0.28776424252097865,-0.1773003002276165,-0.31095569783323596,0.2886783411085626,-1.4971142953129124,-0.6745602511509785,-16.875583894775502,-0.5398099459900148
,-1.1028836442700434,4.818369192160233,-0.13659400343522768,-0.5200768983841597,0.33704119688962264,-0.22993803203557822,-0.4577871176146815,-0.5701745087082523,-0.3286061676068484,-0.5417029683990174,-1.8302469007142446,-0.7011049592054415,-18.911931265308976,19.1956922666553
,-1.3993625100451215,6.457615886730166,-0.2646926588465252,-2.1034769189500757,-0.3786409902627432,-0.3129915061396793,-0.5819687019867796,-0.23567078850318796,0.25337758602846516,-0.341611058095752,-1.9296892798636944,-0.6425250765116053,-17.260097654409165,24.32591554064954
,-1.2170775137670389,4.979745515457909,0.28523174241504695,-1.5574471032643562,-0.27248212299750635,-0.18089810987784527,-0.14562769454055624,-0.3920863848530265,-0.026510723574823328,0.1362844610142813,-1.125058643753705,0.09789212075361134,-4.9955964773452655,15.993864792466297
,-1.501339847815395,4.084738423465846,-0.28733754984297794,-1.3654253972284958,0.05996527433854994,-0.2506097461859336,-0.2742087538430089,-0.3445861617342671,-0.49437345338491245,-1.0925727595125398,-1.4221999509955943,0.37131570955332743,-11.787755160761101,17.652209782202846
,-1.0601422816630737,5.2499978873716255,-0.23514751606457102,-2.5050595763257912,-0.7271671213587076,-0.2207632960901693,-0.39878884071238613,-0.335087665885769,-0.5192954626083648,-1.3495417099521474,-1.2889124427804584,0.06536092051103497,-9.071624743926144,12.455116950651759
,-0.7612592194379396,7.204161756968824,-0.2992929349253579,-3.2542919010027465,-0.7946059838164682,-0.6546067016502609,0.15948273411884104,-0.3539327174173855,-0.5719298066244409,-1.4914695814518313,-1.9247298729838933,-0.21345534419485254,-13.440330400693458,28.380204762739645
,-1.6367541553230078,7.181384036430694,-0.6086185447609634,-2.7043446503094044,-0.49038776823760166,-0.8356214769024175,-0.32016770710950015,-0.19339204976782867,-0.06422239873628464,-1.6869618563656985,-2.579206014685019,-0.6450635897607405,-23.705009782264028,39.702456358298875
,-0.8447613408321595,3.805477550547856,-0.1783878738060072,-2.0201091945741565,-0.3695789713236836,-0.3728980068795684,-0.32215038125202117,-0.19205296756737283,0.49855155805730705,-0.7713666435421003,-1.7901892405502433,-0.3239261249301893,-16.62268566077542,18.028922994033007
,-0.055823032435590454,1.204985059580574,0.08297419114917831,-0.8468908961307143,-1.1305994124382115,0.0980123738346823,0.10025183164667997,-0.11451443387269031,0.36119550206673323,0.39024388593125964,-0.551779352538052,-0.28168594724571683,0.8082031283285258,1.419509701278132
,-0.6797902195370575,4.0677808517217615,-0.2517496123239213,-0.4162497348521084,-1.0718871911788466,0.0010941854047099827,-0.09229063375588709,0.029922408395727056,-0.009842324394087453,-0.39044122759890754,-0.6748513553583619,-0.32894892395491165,0.2379173185675272,6.84581362060866
,-0.6616721253683827,6.181997688440112,-0.04984285029866065,-0.49079448096677375,-0.20472431061405288,-0.1853159136744128,0.43334250606756874,0.14900943026067398,0.21436748023052685,0.22560628280536404,-0.3882228491274637,-0.14080698365477703,-0.17878023715705407,9.536159800727006
,-1.3425695210250619,7.32996068237814,0.03251224019496316,-2.0543771267200146,-0.6888587057296813,-0.5018341452332475,-0.25478158548502366,-0.09713716809565065,0.11890799022251346,-0.7179573725055165,-0.9348383026238324,-0.32255499303398977,-4.844490923818729,27.749912916442216
,-1.2129917993082087,6.866679356711161,-0.2376913569954903,-1.9151338071819661,-0.2424033103528927,-0.42526372159534326,-0.4961494696519149,-0.18546245313676807,-0.012695597403185958,-0.5689448039837912,-1.1868093240012223,-0.46620922907391055,-5.157708706202321,21.831499061016004
,-0.8608170124666428,7.7593989184672285,-0.4547025647461636,-2.4055041707881566,0.14369330230027516,-0.46393396263477266,-0.6043205510866778,-0.3153528404976967,-0.18521163061697446,-0.582090022903153,-1.2746668479744367,-0.4693181833780154,-9.194211136295602,8.558011633011454
,-1.1207046831603025,2.3167117515757907,-0.2570720823304515,-2.547091236235586,-0.4544459421871558,-0.5469833145741964,-0.40011899412328833,-0.7196500597192503,-0.4111689630027291,-1.0395237697172046,-0.9479571051862521,0.09811912215937761,-3.9365210896789966,17.993696486028444
,-1.46544270395541,1.6662489921283485,-0.09852941869020428,-1.8689088137570116,-0.4198092868888452,-0.4966330506220241,-0.28293164177926045,-0.3519981645115124,-0.6679467889193551,-0.9916044284621601,-1.0014819553184435,-0.17599045678114353,-5.333306825543533,26.91854610037094
,-1.63859749187097,4.93640091792887,-0.08456854696490808,-1.9556284773475405,-0.2711369521042303,-0.18167710341644505,-0.3111163578280982,-0.09650934529518099,-0.595835125946295,-1.0105291024006742,-0.933127026344404,-0.25948398858050137,-1.991213591698862,28.908035972618126
,-1.0566264142759856,4.862686415449773,-0.1485922783328857,-1.9768506845572613,-0.10665452795225369,0.14709215725141464,-0.6376005059925314,-0.05946489034021865,-0.11182968783277308,-0.23348388300380069,-0.5535339709712525,0.08275819940750326,-6.227907364599883,18.7828943522711
,-0.6513600269596398,5.28041733916882,-0.1881108092314491,-2.1269932474265287,-0.0460821328611551,-0.08259736833937298,-0.2675166046739451,-0.06743371625618069,-0.22127454104043173,0.7316296137317558,-1.0893235918108832,0.3828419973785134,-7.708759151149246,11.687615164086989
,-0.7468815848886907,7.5143128477370755,-0.19758278445387065,-3.6655368731949203,-0.3711205084173392,0.25171378912217474,-0.10460299334642632,-0.21168053334823986,-0.3318938886599511,-0.09804328536998613,-1.2958107609913925,0.1703219170644958,-8.12811234443245,20.623563614125423
,-1.1589436065223473,7.236332067663997,-0.4806701139488093,-3.7628687971177426,-0.49348615720136807,-0.26939071882892385,0.11494168367020684,-0.3213251177293219,-0.6970120663309196,-0.8945501319364696,-1.3266019410777414,-0.22396194014375123,-5.672945717242449,21.059881369114475
,-1.4822028302871317,6.228346360763444,-0.6722923812865611,-3.3214028246181835,-0.832976156826743,-0.8611301761202645,-0.10502031374288158,-0.575404870838773,-1.0650809807053139,-1.1266465819775686,-1.3882309320986095,-0.4012539078638844,-6.026043256995862,23.57550942103929
,-1.5206582428926607,3.5473357528398317,-0.6407189362008215,-1.4610203161457291,-0.20219340589583532,-0.7592031236892174,-0.5407706239934726,-0.29762800977477566,-0.8296148945438062,-0.9235009896798614,-1.4812190697739498,-0.08109640537646326,-3.6828304531118343,28.535956906552727
,-1.5402373484797922,5.846244462542576,-0.5542613052906306,-2.1507062604943648,-0.3034792149866232,-0.3854598939766504,-0.5625158457345218,-0.28987900548838813,-0.5961992114387208,-1.4606364136670154,-1.3379478751311615,-0.4753255321814166,-6.8408256419522635,28.718744095911983
,-0.9620638902944407,6.97736739605796,-0.24504612700998374,-3.304757544357655,0.11631468552591322,-0.18286719200626989,-0.8661828711445549,-0.2185339266727172,0.4169451653752234,-0.7119883347282496,-1.4729505572450512,-0.6562551698332095,-9.849318839538256,25.121911352569068
,-1.2833078420836903,5.51615556029601,-0.1306286722021455,-2.9314624438545565,0.02243720374165911,0.09967700278385418,-0.7937890548316243,-0.6038519736898855,-0.005173701750922893,-0.8041550333678709,-1.5378850553367356,-0.5194388572150876,-9.60076732171435,25.38240592393886
,-1.5997097438035475,3.9030048525601755,-0.41111657009967356,-3.2258220875642762,0.06176875243628157,-0.1556228955199982,-0.30416764028836335,-0.6729809234479851,-1.1124806494204278,-1.5197170731693637,-1.156739445633005,-0.4160832709196174,-7.031389794155296,22.52610095431102
,-1.305693406239469,5.541882924694054,-0.4408162695520404,-2.714650713803373,0.5011639950806553,0.1900776716476568,0.6753283058425533,-0.36091134570170685,-1.2849721731349721,-1.0960896778265101,-0.48630369702080983,-0.21589259492801044,-4.900859144598083,14.25170551438762
,-0.6844981300205095,3.713958435162882,0.029774132611416475,-1.7902884953178262,0.3398285900137588,0.49638109944838393,0.4600942369173088,-0.2451594969694659,-0.6280269531440915,-0.602149933558719,-0.33648184740150405,0.13380523185477028,5.056277749376233,7.848411844951807
,-0.4954438361220978,2.4963797277918225,0.2809171421778115,-2.09342630336581,0.3884606219764189,0.40037254092421504,0.04062831704979993,-0.20376576078499092,-0.32488902176357964,-0.50860006503739,-0.08868113432224047,0.1987378835720327,3.5498532973495327,5.0373010120155985
,-0.5784552526363733,4.105016907031679,0.1616355501683994,-1.9762020375584741,0.11935514926048922,-0.03598329989611662,-0.29676545524409115,-0.2522526515046858,-0.6473430075554113,0.7603101857642112,-0.31982272618018925,-0.070076720995391,2.5154674267207993,8.829060225142236
,-0.2701648423321713,3.8800140482358367,-0.09121823901448534,-1.7712381717043055,-0.0992544024150601,-0.5343907156206978,-0.31881214110499845,0.07654703623474475,-0.040976747046988074,0.6823003852075846,-0.6162572957197044,-0.011867631630863157,1.9500808305043678,8.386261337903287
,-0.49270624194351265,2.382665935059637,-0.12760189331535896,-1.707987871605889,-0.14993990224805182,-0.19723579030410857,-0.4531133449046285,0.2681871197221966,0.3704111030539262,0.05885706461109776,-0.16843689984420815,-0.3607866735706163,2.58637732477767,6.917953855211514
,-0.2885510973119289,2.925792183462618,-0.07374218933290526,-1.5173918859480735,-0.14651837551618865,0.45546587566610786,-0.38680072990031417,-0.36173087400216286,0.4015583939030137,1.1898968588079815,0.46375578053469463,-0.581119398697871,2.208690757990594,12.143026231107344
,0.017092434493528888,1.356120391555988,0.1868254702896632,-1.6094579673979972,-0.22180636631391482,0.08704287121109913,-0.4400874341888455,-0.2845128685992744,0.6834538372085843,0.5723294252926638,0.6220685296000139,-0.3590562582072229,1.9708193104155571,9.46721991467806
,0.10383442698691336,1.83570923774399,0.583258707246863,-1.0630920499655163,-0.36714314314993574,-0.029193242835551074,-0.43295142981434503,0.27619010285904716,1.0419500784768998,-0.30852387803258496,-0.29279202898483775,0.4013559106791545,-3.9642011100751953,3.404046524296756
,0.18058310386872167,3.4913608040426944,0.08980597092299052,-0.5022154044722439,0.12495905334372692,0.11999385846188612,-0.40774444044428587,0.7618830534892661,0.0803155186177183,0.32122375327515285,-0.7297287092284649,0.340256915788197,0.6529125862780805,-5.771670414377758
,0.1140823545747185,1.5199608266675106,0.20958261399294079,0.2529344741660729,1.6347849469120086,0.44597312348799995,0.20380553479016056,0.924876130635143,-0.11024510060985993,0.438361753307628,-0.7473545112267553,-0.004159296998295911,4.071288042737315,-9.830466060364529
,-0.597916265770356,1.1015944217291487,0.011601615237546707,-1.0913902591863671,0.5803917911257709,0.1158752724328351,0.20583678126583627,0.6889856635616607,0.3047792426422826,1.0131039442981513,-0.5210406741648499,-0.229804717050028,-3.5597275189208655,7.485524064485896
,-0.5599824067292862,3.9839626742510914,-0.16168446816513649,-1.5169836640305665,0.18300964155846552,0.4025818467943831,0.370870752096897,-0.013519756515014254,-0.1337507259407502,0.3411728087692692,-0.6586559278310049,-0.24153555349059125,-1.7677405672399233,13.435182292362608
,-0.6058900178201011,4.22322905506551,0.15542389407774468,-1.1711090367849597,0.5376271666256726,0.8067397724724307,0.36110386344196604,-0.42204951153304204,-0.5246349880685246,-0.26270353801777413,-0.8259725236477635,0.0223245615922797,6.657473612348313,16.78605392911735
,-0.7530259853763334,-1.4875687654413339,0.04183450613357062,-0.1304356929660444,-0.5333273049538367,0.326841808494476,0.21096656903278993,-0.09465567298737444,0.40251618508129505,-0.04687193679126582,-0.4451590646543745,-0.18133006126462664,-0.8577085577689632,6.485972321621129
,-0.39610556530061564,2.1788027015731752,0.09461296545292155,-0.029944631410417002,-0.3334793579268097,0.19627557706062754,-0.008960249129005681,-0.08919383649608166,0.21158641854074395,0.18344700680473588,-0.2867284415244051,-0.049039603861966666,-1.8387907545544537,6.061697906413265
,-0.3163930038378059,4.209938525092661,0.2525218852397717,-0.395738653861873,0.33378050442670776,0.3709314789551922,0.19211417070660092,-0.12200913512186243,-0.5751220318227133,0.1432117433595137,-0.9332949156940931,0.050697359647696234,-3.537814986125815,9.393642183182337
,-0.6160345426383593,6.365787482093596,-0.3145477239855052,-2.0045435313227564,-0.4965325812393611,0.0005537111969855828,0.6556580318567322,-0.0684831352123966,-0.7120490088245525,-0.4530874244920721,-1.5433397462707539,-0.059599165074442836,-7.489753874037976,12.256121290453384
,-0.7556537557629593,6.916431428732086,-0.37278758585630256,-2.481358705990425,-0.5101133186556374,-0.4917238889078661,0.3996895238601838,0.3614390946343612,-0.4794136804890591,-0.5958485448536726,-1.5395991643033604,-0.09343212987166911,-10.498562192800998,19.359629026377178
,-1.252485819467604,3.867288211954972,-0.14923121795860017,-1.1212512823858276,-1.208737470923261,-0.5117995931106464,-0.29551059467829927,-0.3775864125866235,-0.7919845936145434,-0.9092857430274451,-0.7245129179878596,-0.3308659960568239,-3.28323365973745,20.505339974341997
,-1.805989074662395,4.349375629811578,-0.326082784749692,-0.9639533710778267,-2.0877905518706514,-0.9280371998283846,-0.9702788654195088,-0.45567048268526567,-0.41758531529285636,-0.7856843689693802,-0.8999364629843847,-0.6566991179541299,4.36171298444987,31.879610608515648
,-1.245453375971758,3.6721249920219297,-0.23222338848365764,0.4748802325185494,-1.1662166872395259,-0.5234041302382222,-0.20431759486301465,0.40167872946319255,0.11249721464637766,0.20598615318513233,-0.4106927254871021,-0.39731603431593576,0.1963875040722182,22.32108273191187
,-0.627227469944223,3.9499933871578987,0.0028693016498118457,0.36635159269784756,0.3743999399922889,-0.32483585169929075,0.36808795451947507,0.38957446774153504,-0.069358669421362,0.746826931865462,-0.7512992279972087,-0.1851189497174711,2.3015883728500928,11.649994666283344
,-0.817675009116053,1.8094222754781206,0.05865319162029031,1.219907337144613,0.2433210821357101,-0.6227554163388758,-0.2394060621502957,0.294762875509137,-0.0010755230282104495,0.7095200570849862,-1.0707040086313395,-0.3731070985049904,4.231497574259769,13.110996480919079
,-0.43563149601403023,2.3780217259847176,-0.034198696266620726,0.7504746517625944,0.27304176750549175,-0.09431802302613095,0.30241508972187264,0.5702532406138561,0.3366304206501834,0.36624205614581595,-0.2767496785733093,-0.19423458000024096,1.4962933612257898,5.243619172955979
,-0.1374348796886231,3.8088463066749814,0.05950323643027812,0.6149329024263582,-0.15256205663631586,0.4824836096599569,0.9066038746699044,0.3959444457055318,-0.4231076836201446,-0.7414607318129167,-0.37830897123162754,0.298448803198427,3.7494232278094577,0.8262136167859183
,0.4075257465785364,3.7445310550968625,0.3989299458938344,0.22931592908598813,-0.46272613269010165,0.032535052928903505,0.6214662458384891,-0.08098710535273364,-0.8575253870426099,-1.1638191537018652,-0.26838045653381215,0.411097925814056,-1.667661450399473,-6.0287834682938115
,0.19208218996121207,1.186639802302204,0.24567582825757278,-0.18281656926673165,-1.2936673479071854,-0.5397493767283608,0.41136735458544277,-0.3393884990897478,-0.35718475150302514,-0.6202467278838121,0.1378593854736785,0.08963334156253382,0.15702673945157333,-6.934909846206359
,0.10616392162493135,-2.0681386215376225,0.06025507273661423,-0.6426607323595542,-0.789537408042763,0.03907911077756857,0.08272326690016506,-0.10645515487658659,-0.07385471136734423,-0.45038566093495147,-0.19550323438141692,-0.09486733687261047,9.868046408239435,-11.25149305637616
,0.46917220533327797,0.833192572128233,0.0889299392327511,-0.18706172826548914,0.25866777938971675,0.5219323232910844,0.1420620613427882,0.5459253323348234,0.23710586983734808,-0.19915628274032157,0.14609752406651672,0.0779720689874297,7.146646873979363,-7.608857169341447
,0.3697160168045559,0.7655241215196752,0.26173371759368014,-0.7292240154512929,0.4215387166751901,0.5715038780877546,0.8720614949718305,0.4709870761533942,0.18058237772088606,0.32241053952409054,-0.16810651755409545,0.1817689968704373,2.1536990745650613,-7.257692669868548
,0.2712183150347778,1.5367739913764065,0.0514227162593618,0.48220754273277805,-0.3722571682616713,0.14906698627324333,0.5450076298874249,0.27486648678604275,0.44268224371747694,1.1274196337630826,-0.12564066184014552,-0.3431512600702683,2.857682541133184,-8.10886388026539
,-0.13763343148299761,3.1226075722885565,-0.21473218421550638,1.0027790743955503,0.20641215933963789,0.0077694887087638945,-0.18265424783142686,0.04212866330521205,0.014106055097544253,1.180310265123097,-0.2946992131750151,-0.36711342404831615,3.3587745895961962,3.1219120565713263
,-0.334643743393161,2.281655682319632,0.08141505842834962,0.6707033741053681,1.4591139039032235,-0.1103358009378088,-0.46112185419605833,0.08643114914703146,-0.4848930993978733,0.49115792302237016,-0.39159794074894255,-0.07306494671953247,3.9424973761857904,3.1211582088731586
,0.07272327024695253,2.0090113553276554,0.28781066934503424,-0.9288422667946434,1.7729474418613234,-0.05632237578107324,0.040176549796045465,0.0884024461780246,-0.11307797259688745,0.28780512438312156,-0.27681381831148477,-0.22283771999798366,7.394527438558724,3.5728975062769845
,0.061353608222177336,1.2798726862782681,0.29450242688820694,-0.9785388688871034,1.1254198544994902,0.06512437172798381,0.33187708366826785,0.03257353532386452,0.8552447113021651,0.7577744987090175,0.30373696306946285,0.00013188227154309538,13.533156767524549,-5.209571895948681
,-0.18113792501248852,-1.0869395845630783,-0.048038269404377734,-0.25552271983082764,-0.03572213669083061,0.03654995464938696,0.6697455891412546,0.28299464248802897,0.3476797214101152,0.9584418891399125,0.8937514610131597,-0.03381852296508551,3.8990733203027865,-4.462481612327371
,-0.04443082581987439,-1.4108762456444544,-0.038872325731237674,0.18052493165955086,-0.6401188271495801,0.0783116165427421,0.3276828707998929,0.03402446796606719,-0.15730798120217834,0.5048169976486669,0.2622027397718786,0.24937705759092346,1.7883090322345605,-4.994998428692783
,0.13538752936869483,-1.7455542463705735,-0.020924675015452105,-0.2536304849252631,-0.42729364671823417,0.23167147829756518,0.3560102295667797,0.1197035120452236,-0.8314552151877569,0.7100893195001978,-0.10290105135101049,0.3145602684404121,3.5290670884681004,-8.583394561296442
,0.4054971137468145,-0.530339693432422,-0.017809495865177397,0.8084058400266446,0.36198267285068686,0.6108225807507888,0.6964339247293877,0.16073151349560383,-0.70036068027458,0.760147315867085,0.38028668661134896,0.07196283366969418,4.669084803788969,-5.860172761102306
,0.5294905119785807,-0.23467959077261957,-0.34334346966447943,0.5158131966094849,0.8516593782942798,-0.07337520370346257,-0.32044801654142663,0.23481285516208023,0.33860056855607545,0.5715525158131982,0.22970883999241268,-0.26965866086049844,1.2002342220024895,-0.5006529126316154
,0.34274671776030075,-1.5112495208983177,-0.16536815992947956,0.5489013715037361,1.0203195880137466,-0.353334580250038,-0.41168728177056946,-0.10353159314637299,0.21804730121166888,0.7736562983045294,0.4218669945926313,0.036644172079265035,1.4022009815261407,-4.078336764323594
,-0.06927405287930623,-2.0996578921651,-0.009581285504652868,-0.2103476548561584,0.9432496962728351,-0.37219718942030355,0.5954379018685122,-0.12167312753923323,-0.38382083017147767,0.09902101702633652,0.44490530741821915,-0.2026368612895665,5.299470497378113,-0.30528927757889707
,-0.12290437231132012,-1.3006378354012111,0.14152001974411887,0.012715261974378056,0.7778015717671252,0.5469229753440752,1.1115002222986432,0.40556539135438024,-0.26175123251355453,0.6543729197922252,-0.3396839236814703,0.022245004163940728,8.097258458616508,-8.287275549205798
,0.09125331261063727,0.02125889951558243,0.4669750965159377,-0.2904479844186107,0.24803330473556068,0.5871847192992216,0.17315367236409748,0.3733241729316651,0.11441824305297826,0.8437942950643028,-0.22773323059864253,0.1796394856810765,1.5174848342593958,1.285029322386128
,0.39113795218237596,0.8796023787867052,0.5412322077463069,-0.8291393618326998,-0.30931490509678555,0.27424961016740435,-0.28082911577405145,-0.061412505053944515,-0.060344672376892526,0.37774948672972936,-0.18213561828724967,0.29001509476500426,1.1987942870138613,7.707126845908935
,0.30391362906731945,1.6868494489337538,-0.12940893110068474,-1.1000110902427445,-0.8071740651679841,0.06014518957005185,0.6343504644306425,0.06442014675695476,-0.29268286260392806,0.1647081595487101,-0.4268314879595523,0.17979655056929555,9.12685402172784,4.179665947440797
,0.1620756251493637,0.6650125319861249,-0.22252823322071222,1.0728509654387806,-0.03970792939713311,0.13547871718154214,-0.014669055163940124,0.33255030056651985,0.3987402444612329,1.00261823883403,-0.027293346651002446,0.21566955567210247,8.848602735003073,-0.20790509807714225
,0.08424398929764222,-1.0048561899035404,-0.11073257552099552,2.2429787045196004,0.09614682665014485,0.3081162413374902,-0.017556406574312716,0.331462178028548,0.6642942615624561,1.5736560228266774,0.3169561974536939,0.07468994464230155,9.113433545736136,0.8726289705984854
,-0.1197446177537933,-0.12879638166166787,0.027490102015966165,1.776572719227268,-0.35359480553138817,-0.11913479425381138,0.44692277171642675,-0.02466253593715957,0.1899906882701418,0.6920834233809267,-0.3094252582356482,0.08562217379180048,5.459544998653827,6.306421318390372
,0.1498900310580083,-0.037659430821401094,-0.005575469918275634,2.017882336961301,0.11527514590371969,0.12486578133337327,0.9306158252225518,-0.18159910789478922,0.3637720434037347,0.5329766696074161,0.05584353638817796,0.1170586104279512,3.180008669723732,0.37737738501275947
,0.4305437116035732,-1.1573853283024778,-0.09151204823133653,1.2694591220102813,0.7186310172925999,0.4965424454096487,1.0850077569799081,-0.036601228305504566,0.38392832304904945,0.1515634339670368,0.6251744281737073,-0.1841212203257694,4.394960777579514,-7.291806488265112
,0.27491016542273505,-0.260673999918769,-0.010688050713079544,1.4414245714691705,0.22120408117082158,0.5111285443984349,-0.05305991837538391,-0.5202392415970661,-0.48091234139158,0.3415271581005655,0.7268993597312065,-0.307812714932753,3.2263853800782156,-6.905916901675566
,0.10525927439952008,-2.5166051130333496,-0.21148712752951004,1.5713731215990743,-0.02010532349351833,0.25397623749421905,-0.32028985443354685,-0.8840985987476161,-0.7469236725118009,1.0289993766566479,0.917634909981851,0.0990600969163173,2.7019826104015823,-7.750885751945714
,0.4678853298099958,-3.7364591359977632,-0.19971857216214603,1.5883946336513668,0.16363949922701185,0.5709970025602328,-0.16608186760062685,0.06411186469370474,0.09698945409871097,1.6140574081938555,1.1317348226779569,0.6022763599346729,7.51686472899094,-3.0287392880991564
,0.28834281497942993,-2.8203272046516004,0.32031908542644594,1.9605884456175735,0.6289436531175311,0.6179394701437521,0.234298928236464,0.6232940782194851,0.261219394017578,2.041777568501244,0.7569387363972879,0.21066058421257872,12.731867870427182,-1.957800646719518
,-0.48912035319779434,1.3310090367793055,0.20954946143994427,-0.19679423377003924,0.10393721208810185,1.034435423575304,0.2700080826217662,0.25909141254509316,0.18865243275725224,1.0750067469651001,-1.0110646989455483,0.14132970813520004,-4.423245764277043,0.48465534360815227
,-1.6948398645777665,4.484667178917082,-0.12098006883282231,-1.196023549380202,-0.8947590801297588,-0.2392045651929845,-0.391736030798695,-0.25872135201615903,-0.33496491784884397,-0.016152928342066948,-2.101408402859026,-0.25209089151245156,-13.78755963275662,19.854341843578098
,-1.2666508113276531,1.6493801367168708,-0.13033956136378078,-0.9597778036567889,-0.9425861062083317,-0.6408504162894131,-0.659692361373453,-0.07795551871484187,-0.3243798388021124,-0.04076625388580212,-1.4922473311618638,-0.32819372110021966,-7.712044219040486,14.497428792051306
,-0.7516155414126651,-1.2171581055107057,0.10186645996660243,-0.6432384465722625,-0.2163745018333112,-0.4212760524967007,-0.19192835093570945,0.5241067336639296,0.38281577616720514,0.47309527272948054,0.13633265118869495,0.13080144502650135,-1.1596186684564105,5.725324822193037
,-0.6586715056567835,1.5967988996868925,0.23148495303187627,-0.7503747989954453,0.8780570502469858,-0.15741416919809798,1.0998967429706439,0.5456233338734248,-0.6113494438579056,0.20608602924580943,0.09946231042912713,0.42024640396145607,0.3950699297972558,5.440125444861015
,-1.0689944157483657,2.5575561974628784,0.26667805249364945,-0.7485645252541396,-0.01734891730877118,-0.6377822008832196,-0.26034694021109656,0.14438888763468485,-2.3304623606085015,0.11164146514262398,-0.5927727888549175,0.0739143489458983,3.3573733478231955,10.055348583059832
,-1.3609427800980858,4.100137838982721,-0.1517103571861107,-1.1716706420406224,-0.8263792347624155,-0.987487454650764,-1.0680513807137284,-0.6222451509745547,-1.9664431366994397,-0.9406902818859176,-0.928583475517737,-0.17453076508603,0.8244829831194481,17.56285246309379
,-1.6467608737879331,5.398165261065671,-0.2636392286451482,-1.3958855789508358,-0.5533229463685911,-0.795409850236191,-0.9410080265615599,-0.7058623168315618,-0.4875165776836722,-0.941504967355464,-0.8931062156221805,-0.25402041114744517,-1.2993681714358771,24.02192163982153
,-1.0133105575228711,4.356036867447956,-0.15852412523649015,0.33048154474054525,-0.9512802315841878,-0.8061921687938409,-0.40177506027226584,-0.5645487009905703,-0.29027391264515234,-0.627599527934387,-0.9240436842451818,-0.10184981288006119,-2.1190705361878166,14.870009088132406
,-0.6781427489619742,4.596186110939561,-0.03932727886722146,-0.39395513690847284,-0.18443158548273883,-0.710021333024508,-0.49663444955704383,-0.3961193923666716,-0.06372404328282764,-0.6671016864979079,-0.7330504387086857,-0.38943492092210796,0.09377697528754556,8.133139420299836
,-1.0518700285739193,4.45841280974695,-0.03408234876385319,-1.1357385052286468,0.7092667531778885,-0.2974578071534153,-0.6832750085160822,-0.01813888213537117,0.17247841419028434,-0.42482024540337204,0.0918476640390686,-0.3964238965974534,-0.33966481248263264,18.426907512524064
,-0.9211780827170756,2.397516596379851,-0.16440863454061283,-1.2085660540932286,0.45485184583001753,-0.32024183308745013,-0.6922550175303892,-0.46221997284394506,-0.45437616323156005,-0.5011993740352224,0.24754316745823587,-0.1901037338083878,-3.5258091236753444,18.02909251593494
IR,-1.4676624121379551,2.6193482323799104,-0.4832191574455473,-2.123883966376524,-0.028913892911762634,-0.47547753569637274,-0.6600235597973712,-1.1549214363094917,-1.2141700167037732,-1.2456982863797688,-0.31306199407737545,-0.2515002616411815,-6.64225719491741,27.89821867831446
,-1.5592200345930094,3.0303217229187305,-0.430925691605259,-1.353578732713649,-0.21494004355583418,-0.21520720096024293,-0.707428869870638,-0.9988659771642588,-0.7958643072190091,-1.4255714591954658,-0.5388590878702776,-0.19063509451735747,-2.665092637466592,28.641448180008705
,-1.198809848105447,0.4472861695897118,-0.4653007395869243,-1.5022888928208837,0.3378990695204417,0.23895015637963218,-0.5200953773565969,-0.7739635958916754,-0.12926151646655812,-0.8192813865292233,-0.5134199800415709,-0.15680647320061722,0.8384224473518594,15.164744127992778
,-0.8047161782286254,2.7562674251343244,-0.1841516646769432,-1.8092754547941932,-0.4059521884125917,0.1265322198571519,-0.39484521360289737,-0.673660320078841,-0.4886923316803474,0.01519550283393506,-1.103638453198112,-0.4555445282404244,-2.824989483447803,9.582191843952636
,-0.8476686851172981,1.2468405163764287,0.05571562876789461,-1.238414453563876,-0.3841881717248179,-0.05720250533707114,-0.2691549883408832,-0.213264550542962,-0.6522716042029072,-0.16993519743229585,-1.076886636496849,-0.28977503372961927,-4.79269224742861,14.506554764718251
,-0.47053718131546757,1.9769864926862066,-0.046965169708152975,0.12485719712377369,-0.17148764504387545,-0.3287727855365945,-0.23793400957315905,0.01640043688424256,-0.4258731315711089,-0.3151242829697722,-0.32527182325193016,0.20164216564220513,-4.955749522365549,7.907106523932282
,0.0011216252631251905,2.6692031757898396,0.2609550777052916,0.809788321980266,-0.06494560929745166,0.12681332525247077,-0.1314306779398725,0.08908789581485746,-0.3623687512647978,0.6819794171256339,0.2779300196567585,-0.041990109864580724,4.897902550055918,-0.830603712041908
,0.4072738110184071,2.1931065856465954,0.018279519501102817,0.911883260838488,-0.23237959283372556,0.2861031130320604,-0.2794342188866924,-0.14791867534783554,-0.4529174500189159,-0.40305839113211916,0.4325815254189681,-0.1634228933157449,11.4053602029233,5.898370841859318
,0.250690667024637,1.710700930578312,-0.09725560403640164,0.09709006666182798,0.9065628347041712,-0.09242895016755948,0.6023291066750782,0.0809719580675716,-0.39042184861405776,-1.0616420849498749,1.0088785421519841,-0.11581800381195942,5.87046469312049,7.069523185068828
,-0.12626168048479341,1.1390847225734904,-0.0034822904028635917,-0.23070356194571123,-0.34248657738035104,-0.04620099312371344,0.25981229804001027,-0.10317946202122806,-0.1699401932534839,-0.4330765160075415,0.4034956469961678,-0.1603614726757151,2.179071824117709,10.443808249943563
,-0.9940432340625633,5.3968349047715884,-0.4166177687990401,-2.060378492734974,-0.7934953344753509,-0.7404497160771737,-1.0749912391013972,-0.5542501217891773,-0.5612630441731148,-0.8306186199346737,-1.4724628726488524,-0.28334479010126307,-11.843389901088262,16.65232280143313
,-1.3427739045637663,7.836815357214407,-0.6322698139360344,-3.7681143650227957,-0.009270003426449847,-0.621232235351882,-0.8948462586020727,-0.758159255935584,-0.38506851051858015,-1.5880218285003862,-1.8089328873294976,-0.6250887729047829,-15.937752740951108,24.921276917869854
,-1.2549614619197507,4.360842298904436,-0.15294191883954347,-2.7327688347072647,-0.10973500178321133,0.05405056047245898,-0.12067522194672066,-0.3747376967402623,-0.4352629908273005,-1.2721132925824923,-1.0608811066523336,-0.2614506673520901,-7.768336623121558,22.24511058218109
,-1.4121708988675603,1.5655156405748523,0.07087782438062355,-1.1949091390082165,0.06844298389599004,-0.42116198218912,-0.3442960454678434,-0.28255537225131294,-0.29691108192232246,-0.5507686616989632,-0.5391817316395604,-0.21157547800991075,-7.609742008867261,20.00823977931002
,-0.7748508748547472,1.646684623632719,0.28301908269160453,-0.8431747101406754,-0.19208608852888834,-0.28926047815246275,-0.3263235357418874,-0.20869347915714578,0.24728620950102329,0.04828439084990766,-0.22738838471892794,-0.10925264647319623,-4.442566308033091,12.342033677704997
,-0.7967335645621226,0.004555012231711031,0.10579283330704854,-0.6498508721625148,0.18918341784284365,-0.2831979563429703,-0.4724574601564156,-0.5133613972173993,-0.620115034601172,-0.8332662453559981,-0.2876664508532048,0.06821728813211221,-2.9259371964117116,8.258033370837095
,0.15680216115852566,-1.470091959931604,-0.14652719386800708,-0.2121340436826021,0.47643678513240306,-0.7360765777825853,-0.7020414906669098,-0.5313367569942689,-0.5758603646330954,-0.6017556763505605,-0.17345892115104442,0.24657325796204102,-3.0172558660666766,1.0676578278532902
,1.2337043341464102,-1.0782759510546334,-0.018220271240127,0.6164821342555767,0.11843010403961109,-0.17169234589238214,-0.3347801115412369,0.32351545179444446,0.05170416305564305,0.7851030233265146,0.518526233935698,0.13795155910015913,4.652592282908582,-9.2263217518923
,0.04882955083660862,-1.9420568687432789,0.17691039726720137,0.6473869670593597,-0.03282347453405789,1.068143357332081,0.5458406983992946,0.7315618296136989,0.11545700046589331,0.0259379321216079,0.2374476600040016,-0.08074088944510832,11.701455406372329,-8.389396196503535
,-0.09035565082628208,-1.7154367080264394,0.31792142241385923,0.25753676088119615,-0.19623121803855062,0.6210267999895521,1.2000559633011458,0.19661684328851609,0.3440684485561467,0.1326150953520339,0.06621335955758045,0.07487209939032627,8.220666632200441,-3.0397628132727315
,0.8505451974403941,-1.8643453817015205,0.2328100804302918,0.4293406643678891,-0.515694563389168,0.14825957549023341,0.805359152123977,0.11454992565644143,0.42898206730730826,0.2667465451469907,0.6320528151514218,0.3080474122050169,1.6185719613583482,-12.175335972264234
,0.47052105401132327,-2.1070281228588454,0.10214868740880124,1.3973840335691519,-0.8669818444377217,-0.7420374294827321,-0.03956182899074435,0.12452427715267982,-0.266719164964672,-0.2006190733251947,0.3017457919113439,-0.06566951843146311,4.9218377266579685,-16.657438877236924
,0.09455591957575876,3.1159108555181785,-0.23392249128412054,-0.3705877904527001,-0.7548636121021508,-0.214919185423994,0.30472154556480235,-0.4015439928798511,-0.7809942440763263,-0.4798705210443629,-0.15482587411880874,-0.09383281002061901,-0.1324903476892236,-0.7071605523165082
,0.02963855167000814,3.1598412290318203,-0.1204667647838098,-0.7738053668134482,0.06820319478670095,0.30021005133304424,0.4513312056423683,-0.3757651660595399,-0.8344793318360878,-0.32713812936933256,-0.39020593382183255,-0.03202813138664707,1.6746923372059916,0.5086948666884183
,-0.02431304547281047,0.8779869895147028,0.022462797678031242,0.049551221801459745,1.006309283194134,0.2903496560537464,-0.1354634987121252,0.2547383532525534,-0.10198705522667811,0.07181599952674206,-0.279956910769877,-0.17963827979745367,2.8205294430571066,1.529158877138636
,0.05128872915150982,0.8898703300981514,-0.274223566561104,1.6699586247823288,1.0460862287047554,0.5552919380482345,-0.03960034744462918,0.4879399428037346,0.9517408281419397,0.4126537066825156,0.12243053502535295,-0.017702564641267206,-2.109679464194813,1.4510214360888398
,0.700171776590685,-1.57934381145032,-0.14869718922435038,0.5815650407298599,0.6269216957436692,0.10554449695406644,-0.41470770986364774,0.1814726610121951,0.49554823310158497,2.037035584188048,0.49275837136827555,0.10071177200092048,3.601974134780494,-3.7359996768588837
,0.6433913825525766,-3.3942723413338918,0.05775508695695246,-0.021215003481218565,0.01769152978118673,-0.056329830812510216,-0.7027617879657885,0.0008294067300831975,-0.24476172898909013,0.7651914762813236,0.7427452679105453,0.4401698176942074,0.4695247379905921,-11.931658048860859
,0.49088195691575054,-1.7931674233868973,0.18399905283619197,1.0969694876516844,-0.0362267173107067,0.4236365944551981,0.051696385026118924,0.4817987189206457,0.13574101389826818,0.2231616141183176,0.5905043955841062,0.12188965781928164,3.4899999128641612,-3.7496131944356788
,0.28029100094727744,-0.9043994651189505,0.15972575548993698,1.2448486391504958,-0.5691633431013277,0.26975610124264615,0.4371312477472249,0.3173774659748402,1.1388667208091736,0.30556139948003885,0.5247337134679094,0.053069102137619,-0.41451412983481833,-3.499456471910998
,0.6455377860702093,-5.609604303114598,0.013846188876549521,2.575536551222437,-0.3346293564690643,-0.3003611099406228,0.7313790992950926,0.2312282410355347,0.6327648227583464,0.7794466611532511,0.69334005713885,0.12547779202085393,1.1864301097742478,-19.21908378011958
R,0.6935408903665722,-6.8597422279926565,0.18502225867780595,2.0822980545736174,0.6776423682800229,-1.3215277585820364,-0.03269920463120559,-0.1447275890610204,0.058735966918287065,0.44538088338816956,0.5426945404555829,-0.005346019218804368,2.3381822595408983,-10.845000081968951
,0.1664427203212004,-5.225945956621765,0.26392678489154625,0.3021339689905886,0.46421309367080027,-0.8426979972602591,-0.24251015278118335,-0.3650743357640196,-0.199336930236853,-0.6582325897801973,0.02341447560286198,0.19684178143304595,-4.922732490750561,-9.86166091570106
,-0.11766203240244154,-0.4645092661295736,-0.02701484003389577,0.01708642186307032,-0.5619811761955655,-0.1504136687206898,-0.26501064907949906,-0.7278691140575004,-0.8616417883622022,-1.0230675131821336,-0.2423927525699793,-0.4379359949026656,-8.187603737775754,-10.735883527131442
,-1.1293243300612466,4.720560596341795,-0.6251694839550334,-1.3897096333965406,-0.9621252764004274,0.18253573934754377,-0.5109282750476688,-1.1274380209029415,-0.8558613881666568,-0.7854720413179809,-0.7122386140209281,-0.6730629587035324,-6.502040654210188,11.999315154892294
,-0.9194507794708561,7.411959027217579,-0.6340696600062569,-3.011114923934658,-0.21971979139896866,-0.19595719179950546,-0.3511317369640723,-0.988927392499333,-0.49870808567181346,-1.5026321221592518,-1.007054947107777,-0.5513426462133331,-13.682264674531607,12.0131658162371
,-1.4037543959990966,7.62543389593747,-0.5798857611803858,-2.2080919102842613,0.31651784780924014,-1.1004234839659799,-1.026004121860125,-1.0017881989573076,-0.9975473090775272,-1.4964374689444309,-1.4546910491308673,-0.7337399513872818,-21.71070222679431,-0.3067151788338626
,-1.0446478048861476,3.876830647322354,-0.07392508740056743,-0.33411312176778063,-0.40471676885254726,-0.6423395356062929,-0.5035317025872889,-1.164932662313029,-1.1950793098086563,-0.09940223231411204,-1.1056171234282308,-0.4719751416957624,-15.422930987953796,-12.72800429221058
,-0.25998045254642993,-0.33978642923645097,0.2214483963401133,0.12091141107248718,-0.18481624968303087,-0.32873238239380675,0.03135232323848993,-0.9140080489366695,-0.8481269793472275,0.9820936094291771,0.10102038085553973,-0.30422605260972096,-4.173983553938692,-12.107263654261727
,-0.9428709850184168,1.5489901819710037,-0.15722706415637644,-0.6660352080109725,0.5136459504305226,-0.39360968204592794,-0.6285679692048157,0.09746139429561855,0.5518190176933101,-0.015141835625523323,-0.9640715954177865,-0.46543796359235295,-11.269337781011709,-1.429451650044565
,-1.4914249569882874,3.6837651151823327,-0.23816134003339734,-2.1673957627632223,-0.44881914591231414,-1.2329820023941676,-1.3294639785094453,-0.06855644767607344,0.1880412638532053,-0.7401852721891533,-1.5657769734570897,-0.678569407027923,-19.136706161899443,17.49240138965971
,-1.5669214283421906,5.4090834318849765,-0.12561696724600757,-1.9743688738986542,-1.4015564183080593,-1.80031799908452,-1.1711989987706035,-0.40878472301376173,-0.9638886168027773,-1.0779539055660985,-1.850606529584068,-0.6995121670296487,-16.147795911229057,21.745531455010553
,-1.6127436493299192,6.476924185368442,-0.17394771222716782,-1.0180604527950872,-0.9090570563750556,-1.3343929621636659,-0.9244359596687781,-0.20637059014649417,-1.1594069318119133,-1.2160235926407472,-1.8043038165694256,-0.7045522594301187,-10.411295132958688,14.407631716829883
,-1.088395689650005,5.994588209661346,-0.03301051848234362,-0.3547071858226301,-0.15342714633154655,-0.823131100299118,-1.2472169265067616,-0.5089663450293331,-1.0435995263095237,-0.4100363567496392,-1.5054709864258884,-0.4712358416952086,-6.570221419753193,10.963703527399561
,-0.3486369916661733,2.540328460098975,0.21239903569114157,-0.23930955497901518,-0.3464260640425737,-0.8078484135443498,-1.2498600595104696,-0.5154157187146929,-1.1907694387041414,-0.4875392847721219,-1.054131653233478,-0.512636425193508,-9.405659232148837,5.079853248720401
,-0.11779438857095154,2.039795835257061,-0.08704212527942215,-0.14840201406365836,-0.4518113554956252,-0.728859555084258,-0.6899558010116074,-1.0882434829308676,-1.3446220439678662,-0.8092034540443698,-0.4864117394181432,-0.5155540671374206,-7.617712575079102,-1.6593671570983448
,-0.5352704866578485,0.6219351721614916,-0.27044071116583157,0.05287168877315917,0.5614187206243227,-0.7626492752502205,-1.230618907966897,-1.028589475856276,-1.0233732423442852,-0.838254919597155,-0.5148568759006574,-0.16519094292112013,-8.078964033535328,0.2805893739440039
,-0.3286233321069557,1.3695405664562963,-0.35149940802528373,1.0433956305166476,0.5377948704612764,-0.13173097427035135,-1.0322491123514745,-0.237926129365079,-0.36939482731265577,-1.1304616177649587,-0.6731268765007828,0.22116732741736841,-5.337452488859634,6.51847013608099
,-0.31324578347912607,3.7920442775559042,-0.49504725633292707,0.23295979118899776,-0.5415424228353112,-0.854924409414499,-0.6210113198681955,0.12468500589987852,-0.08783702828980156,-1.1462808662693307,-0.5775922003661556,0.3593391907686457,-0.9602725947321739,10.878856573614003
,-0.3219887819334296,2.5698843820983486,-0.2726943004541726,0.41892884409420744,-0.5266039677715325,-1.0408232394813361,-1.1240119448614974,0.14961878407856846,0.3947648034228629,-0.4661950012643582,-0.8445972580384375,-0.25741445190454965,-2.9813021743524977,-3.286027286940493
,-0.37689895735838647,2.7489189366862457,-0.475857717770822,-0.12436960532416728,-0.3483424225844116,-1.3752021158733778,-1.7755279833681108,-0.0391887150620038,-0.06962807861578102,-0.911601276844344,-1.0261274267278244,-0.4874474675842468,-1.8235080050330599,8.281078808435607
,-0.7328219480305483,3.0311939406324515,-0.38878254446013294,-0.2880665594484889,-0.3251872789185773,-1.36821337695825,-1.5224070932902947,-0.5127273036298718,-0.197969303704912,-1.734629022442157,-0.828774355794017,-0.3188828688125804,-3.4089210667617413,16.242644943506992
,-1.0541967073344105,5.422614960184108,-0.24260885941811833,-0.5603693603218479,-0.9003224006777929,-0.9008209940720103,-1.5283989677475134,-0.24629754984162897,-0.31979072391902774,-1.3139416487302693,-0.8521455169162909,-0.2775195551436729,-8.160829097811112,11.525162931544713
,-0.5684848363915135,5.457700830371692,-0.1210524221186878,-0.7834547302571558,-0.20821086613647546,-1.0115346539319823,-1.4249415927145819,0.03884643143337835,-0.5631162274291593,-1.5742988002465583,-0.7304386658758442,-0.5368450508057278,-10.887011089969779,4.385924027060525
,0.7029666303740275,1.7474859771298323,0.10845016695706372,0.6240580540095865,-0.4005321736028331,-0.6778501745911791,-0.22938371867577415,-0.9004363352996586,-1.2367467777882286,-1.1347322591513533,-0.4046312041075783,-0.5526624355075483,-5.795992740644475,-1.1201343847998695
,0.321540823003666,0.06938242595753497,0.05400926947626982,-0.73065416260481,-0.6183234196707639,-1.0502994199261715,-0.13837991651753245,-1.2625567570534242,-0.5226351940379069,-0.6869633217759347,-0.8184562248423359,-0.09432419440627611,-10.169327730526271,1.4682784986451074
,0.2546988732629956,0.6527038453868425,0.11689331393340158,-0.8901410308229907,-0.29101189255271936,-1.132602297044234,-0.7347729740253913,-1.3407703479127389,-0.6703803740081948,-0.28223022242489526,-0.7994382945642052,-0.36922222719739045,-8.541472508687402,1.143336421148162
,0.1794467370945847,-0.9873667982249862,0.06971810615769458,-0.5630144165023823,-0.25749180665103516,-0.6160062142874517,-0.5404374862863573,-0.7107357238467662,-0.8621784520256041,-0.6959565494246566,-0.44762880562602825,-0.2571547475269682,-4.407122404704816,-2.2694101589294857
,-0.1852299604855718,-1.4772959858175827,-0.21107527604400156,-1.268168267327169,-0.09574983035276831,-0.746761578030456,-0.17718027889747087,-0.38258609699228624,-0.4235245438850952,-0.8055376476604984,-0.32171853807425577,-0.03038919055595899,-4.592921057738129,-7.905018318294818
,-1.079707943906054,3.7417561464045703,-0.4721891489320482,-2.0280007425105646,-0.19507843725286325,-0.7286629060423507,-0.18659827318627087,-0.5741363397608737,0.00941018962684017,-1.3302040069595344,-1.9930286084593185,-0.242030151455872,-16.093777916666575,9.774332361839706
,-1.5906678292008647,6.72678672011841,-0.5927421911350065,-2.955801910680543,-0.9172312777579613,-0.8223333508156725,-0.23587540586110492,-1.159571057802711,-1.0675649726666134,-1.0379234219512354,-2.529671332487746,-0.648166324878136,-19.2022355370731,11.56809356439789
,-1.2856208036524415,4.1814684010850875,-0.20264222149210243,-1.7642491296126912,-0.12965510426037596,-0.5759855715797869,-0.8251919571403502,-0.8918645564439741,-1.102893637762993,-1.1490587098880647,-2.2124654343350705,-0.777793511892145,-13.693520872164248,6.742432696419461
,-0.7165453198475809,2.9737782000172714,0.3038114188958951,-0.9661092630021709,0.19476939069956714,-0.49806820649270833,-0.9304562364814746,-0.35300535897113045,-0.9903623605713998,-0.5783258772111264,-1.3102334892469565,-0.5354252053472951,-8.953229047000711,8.081485387215508
,-0.1466166488273082,2.9937306048791887,0.1913138838021811,-1.3830166084209001,-0.4903895675760228,-0.6532327822442017,-0.825994890485028,0.322680085752367,-0.46687358118885053,-0.061729875633354386,-0.2953962277422512,-0.4151809773760874,-5.274762734221339,8.4399676892118
,-1.1950901342308358,3.990543164103535,0.11246604841425818,-1.1725621346303394,-0.340679133040595,-0.7438720100684346,-0.797313321971659,-0.3055490373926401,0.663152673567295,0.5060671015538295,-0.6395560857578065,-0.05027585137081177,-9.75808381397184,13.896913904390454
,-1.8049167752243127,5.841183437857699,-0.03267904182734904,-0.4391817857828379,-0.9173786825398619,-0.9416061546969307,-0.5304816989159807,-0.15112806628643524,0.8684910275005446,-0.4803559314431018,-1.4605019714892196,0.04043828092158385,-15.558281497342893,21.266413161218274
,-1.4239394179406633,4.822532838770229,-0.07893895297142836,-0.5835278261158614,-1.3848300534971871,-0.9050927299714735,-0.46103034659045433,-0.04228518707032431,-0.057596575878125104,-1.0258529725314578,-1.7834607397375979,-0.4837258804295813,-13.447808247596432,10.940763075158507
,-0.8217299173186549,5.186002073112116,-0.22365429409850476,-1.9741120322121362,-0.9063355105736519,-0.5826112168828229,-0.7660096616704906,0.0032200071513117366,-0.7536546159131541,-0.3203711594636096,-1.6764855450169098,-0.4205980926887192,-8.026805986380676,5.398863037402308
,-0.6718717522328252,3.748210469623146,-0.11555622302599966,-1.9348085962197192,-0.7203983276236341,-0.19532546251297125,-0.8969111601778579,-0.3911059432706786,-1.1229443025892232,-0.5902704744901682,-1.009541374923474,-0.2803339404156844,-6.891122591047133,-0.9442800560867676
,-0.9729555041551136,3.051593997535449,-0.33677665325870204,-2.3103084665277036,-1.1812670032342791,-1.524875180112709,-0.6808295859318175,-0.7751702116607332,-0.018241521541644875,-0.9172136167704394,-1.5183612018699932,-0.27127069161174944,-3.1313470748813614,17.076803147330754
,-1.6725475790826063,4.005491108589309,-0.5212748032987864,-2.7789176743853745,-1.438297112600419,-1.4702958990958157,-0.675109616075682,-0.5980731427184953,0.013878560044112455,-1.1195539712041247,-2.2233499719884784,-0.676342778187772,-13.78711210907414,29.399613069795514
,-1.7579315644211448,5.01645628998448,-0.45249001444008313,-2.897966676664691,-1.1200135371899773,-0.67132280539476,-1.7113891144611788,-0.07375836275106307,-1.126528933953467,-0.4966238708449703,-2.0182150208016756,-0.638536339216028,-13.486532085839984,12.403349465029635
,-0.9999817333739426,3.437291610587661,-0.1625340054831105,-1.4989968731681524,-0.534635628900721,-0.8707221562467885,-2.6883773042513255,-0.2636289343189882,-1.3462057335224786,-0.4695012630497027,-1.0789406089597893,-0.1287315391400774,-14.296917105498343,4.860957198723447
,-0.7659554217267419,1.5095156924138107,-0.042798333582096885,-1.3355363832818112,-1.0048570162655726,-0.7259843688366618,-1.8036548992889343,-0.8873505950218339,-1.0330396437587501,-0.7137613421637247,-1.3550648644658674,-0.15162744410741372,-15.914245278632302,16.85421797925391
,-0.9524941528794987,3.3532471460476194,-0.3803800003537809,-1.4605910311857873,-1.0660111084391466,-0.9871460351985168,-1.0337211963972948,-1.2258213888911063,-0.7964027660405026,-1.1763715468924747,-1.6572359858424421,-0.3207557486736166,-13.929735361757743,27.393203359853494
,-0.8626665991751921,4.178872595690069,-0.0030736982496943283,-0.9990382961268758,-0.5088181116736697,-1.122767127592423,-0.23961453504545688,-1.0547594807142042,-0.7039032740426755,-0.7910971777475392,-1.6370326224011855,-0.3341185639729771,-5.2435089429256365,12.634548583042124
,-0.8371674826189366,4.203896463822768,0.21556564864495276,1.1312489060449014,-0.8954574895772505,-0.5259170130492508,-1.0985984642633508,-1.3949886005544105,-0.686051633723458,-1.1481080095591019,-1.4682088629493657,-0.09098324543885548,-7.972985074957874,9.625964172517524
,-1.0415049284422306,1.995235793874229,-0.13324313266757823,-0.20610338515909837,-1.070577402121341,-0.43021487113080825,-1.6177083364970275,-1.5116519164231008,-0.5844481782928389,-1.5607148422129984,-1.5184228296254039,-0.0027852380653169417,-12.916309685962528,10.322780112386535
,-1.2462654306690062,1.355101111625018,-0.4698954886611503,-0.5799587279351752,0.06750156256564306,-0.8213481991906089,-1.231072127964377,-0.8860432553615128,0.059612578626827284,-0.07635848853300702,-1.5780816130467812,-0.14633609834437344,-11.094978445131128,-2.8231778723038787
,-0.4844563793203573,0.2953232598534955,-0.38079452832780053,-1.2444922677522339,0.25084679088499945,-1.2087687370392093,-0.40261856901268905,-0.5438810857360662,0.3872676921751462,1.4579539657027203,-1.1465851563301062,-0.32038228041848427,-0.8586723376878849,-2.6490936017151454
,0.2852057742909482,0.2580628231032859,-0.24477025953515963,-1.031571465448578,-1.2179464844898036,-1.642165950668593,-0.7055894782470633,-0.5480698390965071,-0.12205825247694634,-0.0387947670333301,-0.3010605716273047,-0.4139846913998771,-3.3045530594092916,3.795691205804763
,-0.31065180550343136,2.5063074088200588,-0.2900943301669448,-0.8323947826475321,-0.8658374642680923,-1.930371247951204,-1.0836568369070085,-0.9317138952738574,-0.6687785665302327,-1.008560160379369,-0.744131204416525,-0.461052582418047,-4.613685226202491,8.583996997666143
,-0.5806157326421493,2.8338389603988663,-0.25349041887603724,-0.0920224663013441,-0.6921930084305643,-1.6028470838689357,-1.5164110197264042,-0.4682555856805705,-0.41342817341388644,-0.52598481592565,-1.4908905939075245,-0.0821879805301354,-1.218313034996341,2.0230317649944465
,-0.8100853256832492,3.850914216689384,-0.19477150511703584,-0.32153444418305827,-0.46723419813616823,-0.8320227845907265,-1.4996526669681112,0.08755544734709059,-0.6439424711209426,0.8499734840254444,-1.5602234035928018,0.2154205882941618,-0.31163878132435646,8.703842558160215
,-0.7817774388835164,2.0087549096985216,-0.07298440929297402,0.5461863832796083,-0.21762235348563164,-0.6180320951566707,-0.46002301390317135,-0.33472759226827586,-0.3577308174405566,0.7954863843582711,-1.1454876760120851,-0.17358080887925648,5.20031480607493,5.531367120918036
,-0.06340586537067511,0.9779714134897414,0.27818696549726757,1.4176486005159707,-0.7110166712173752,-0.7504461265786906,-0.7586653680103993,-0.3844420737122858,-0.6410905547457814,0.12780930188462078,-0.636186032094781,-0.20782074930120145,4.024655822293951,7.681540348712802
,0.5738763917658529,3.4661834329995855,-0.058569261660132474,0.637649068068381,-0.7147115503269235,-0.763972733637079,-0.9251495435759682,-0.5675560817524531,-0.8192292202696008,0.7869227997814293,-1.1541069319816113,-0.3004039646569938,0.6914161121619447,4.940820377108368
,-0.14739658093949173,1.8040960699776076,-0.21710763293962612,0.09785256383980045,0.31500134141538827,-0.48354527556857474,-1.0303383312721908,-0.5830775494832258,-0.3976565421776522,0.7616713332024391,-1.3950624949169101,-0.3378279527546123,-2.5347852891680853,2.809493226957295
,-0.7077755282755053,-1.100231826285286,-0.12102577411849473,-0.3687072624679665,0.027565531641235437,-0.21204649836703499,-1.2189386722566398,-0.852559020264509,0.17154901692296162,-0.5081709055269119,-0.926319994144054,-0.2742941945700528,-3.9291256962165795,10.113024251037382
,-0.5008771175285034,0.27118271974252545,0.07749632065997006,-0.6521523051356048,-0.40826012516053894,0.16575553258751932,-0.7444937067253139,-1.2291879251197313,0.4197545761066629,-0.05740446509454027,-0.4588058094857673,-0.3528193757387173,-3.5492501559837493,14.611964710880384
,-0.20129308044524344,-1.0233196045333355,0.025912643649090853,-0.500954702818981,-1.1103407663923774,-0.9418091983692018,-0.2827412859691243,-0.8214612869270598,1.2416711672290783,-0.44111250849835654,-0.3778854319615138,0.029717104761646948,1.1894256878250637,10.53323383701332
,-0.7500728070689843,-1.4692495487561816,0.19931510163496216,0.31258913486030704,-0.883674190976245,-1.1103385325699575,-1.1160238652694068,-0.5871924935066422,0.31798172369002686,-0.676666256997548,-0.6294621138272075,-0.009760030243473489,-6.440050706420769,7.331923755914642
,-0.9578329169941272,-0.8327656561152678,-0.04377899668892432,0.4735928873508343,-1.1235969303010451,-1.0357867915913024,-1.0845672413576042,-0.6459579006190371,-0.21965979104577188,-0.15297559811352582,-0.7857610940761436,-0.08647380976353583,-9.70497155261572,7.856666277877918
,-0.5506372274579101,-1.421776790358452,-0.35308445149009504,-0.4253943387092091,-1.0359549062660771,-1.0793405444719195,-1.036391835284537,-0.3550810743288397,-1.1410593438058645,0.3719180932651441,-0.7978772975483757,-0.11023305850562264,-9.100544240269324,-1.5953602026081264
,0.0708547285239534,-2.892588368311978,0.0816121717930223,-0.21105970026619764,-0.5496132841193458,-0.8413089181519976,-1.893654515881611,-0.1553587058706122,-0.8849536689962467,0.08618268527488306,-0.36354305947581944,0.015066784295796765,-1.72219687517232,-18.002022674208586
,0.6576277608028436,-1.221220468800905,0.4353821980480797,-0.079751394197553,-0.043189606782534216,-0.1841822453256957,-1.3439201388969713,0.37496237295855195,-0.023043260134906457,1.0576722203803415,-0.39503956850351435,-0.06222271726396623,-2.05677747416307,-7.68696123103053
,0.14270325944684265,-1.7141494327745075,0.022100516348373143,-0.19591187064428844,-0.1190796610444662,0.006399709999327224,-0.012719411327257188,0.3610661227130458,-0.2620310731103998,0.5780255254617597,-0.4411757201861169,-0.23713916508344415,-3.8172858200734967,-13.068503010217448
,-0.8854722768441372,-1.8922029409579164,-0.13234145437339606,-1.0099666075281297,-0.46135771009385246,-0.5077395535005131,-0.6676469218913527,-0.8676995937751955,-0.5443681187510975,-0.38120007555613944,-0.5712495301755036,-0.2847580450914911,0.16879429794588208,-13.638024943053562
,-0.9618282375589902,-2.6925910080064184,-0.4194556481263564,-0.6868060714509608,-0.20937928342207157,-1.0780962960750475,-0.5270786322616309,-1.6415842847507975,-0.8107289596965285,-0.8560997972764212,-1.047731580910493,-0.6280166078703245,1.4714081773112204,-7.228757909017525
,-0.5240158755424461,-3.2233266887823433,-0.4098765892462807,0.5221616192411245,-0.2963751136795547,-0.8757322727164415,-0.6329684249506595,-1.371874726491094,-0.5340266092003513,-0.7370406973835989,-0.7206025366713089,-0.36702037440552704,4.430901848025889,0.0792264114081745
,0.05775551830864626,-2.9365763289253337,-0.04175936381445298,2.462618959015404,-0.5222807906817211,-0.9213835575511999,-1.4104387930412834,-0.7951753337788651,-0.11278606027643873,-0.6089461962801599,-0.7889717828403643,-0.13709570501485163,7.388076022067553,-9.38102282387038
,0.06196982164280094,-2.4263072057119297,-0.31198464212859855,2.6019642019398264,-1.159340717624168,-1.173442649306461,-1.7007580742714996,-0.5932086684535877,-0.08666817402319875,-0.13190610484828216,-0.7480418293324858,-0.1838552292106794,3.568799125109023,-15.826096188485387
,-0.11722035850232528,-3.7524926419242517,-0.2638707307783409,2.503483324290396,-0.17126615079227717,-1.0373934465703143,-0.7945662364185454,-0.5300457243586416,0.278465147683352,0.7062026022937208,-0.681095062574647,0.00971961848402469,-3.0099160943947143,-17.96785005477926
,0.19476867784426716,-3.0463986272309542,-0.252595631831518,1.3330863394428467,0.028439204946438312,-0.4547351622556253,-0.3100959387309726,-0.27881005273389925,0.6583036163036322,0.671183945712973,-1.1151069386682042,0.5381089493426957,-4.6143131478639,-22.057599126864265
,0.6893977597119996,-4.810300338547684,0.06839634993114803,0.3730595909586009,-0.41683757207657246,-0.1686743569164422,-0.6516056039677942,-0.04272585952196081,1.0785487427219655,0.6379411550866518,-0.7596822725692792,0.12741637297956654,-3.1596999486884623,-0.918116860286335
,0.4725659814558182,-4.524943146136571,0.16536457200000892,0.6948569449604074,-0.26470362164027816,-0.5488048478883383,-0.9024894881836357,-0.21688217580322294,0.9728230352407723,1.0080588704056446,-0.559515926170778,-0.2201067700504287,-5.231173761994996,3.1133115461442533
,-0.4885649168721201,-5.281609551987871,-0.019996975113610854,1.872292547636082,-0.45844625796414645,-0.2616500489987177,-1.4203533279403528,0.5656033497642526,-0.5714984489710152,1.175215924818553,-0.21875432780232182,-0.07221155565126863,1.6490971931189211,-5.296100868177337
,-0.449789676222688,-3.026090054418398,0.18872363561573763,1.0227894916901668,-0.10426471706849347,-0.42799923459723377,-2.3714376827588373,0.1538237823835682,-1.157993579202357,0.655960616564167,-0.6267619128254887,-0.1299483862541915,1.6307996292756415,-2.701246502116559
,-0.41899348942964476,-2.8932426356209855,0.2648429033350833,0.7832689469696611,-0.5514920502159435,-0.6720537266061624,-1.48677745097972,-0.5026909487499853,-0.0863246914814067,0.721270815243706,-0.5240823575183179,0.1689375377072464,-2.4615176088391153,-10.129925558779412
,-0.816698322977266,-0.9397055720326218,0.22041623745233335,0.6668515165412559,0.05428401617092132,-0.21351331835316759,-0.625065729558935,-0.029347451206534453,-0.09051164495610586,0.167268857157895,-0.2506049712399925,0.08866550369608278,0.3923939174074318,-9.233896176188313
,-0.3083490375612484,0.25887752840556916,0.4352989071746302,0.33671001954450175,-0.2735242846224904,-0.378057821037575,-1.2305282437581477,0.6835602166233556,0.13239034290412866,-0.3733090346982241,-0.42447897808909135,0.11983610260122389,0.917635746614414,-5.779452361109425
,0.17253634833702192,-0.9349990905570769,0.08481918039824766,0.15981075632047817,-0.2773118691269796,-0.10422583548588163,-0.8093594938188945,-0.16491706483658364,0.029922793821513763,0.2602739049015649,-0.7827297694586715,0.08680007956504249,2.055225192723096,-6.999519795471569
,0.22551491911826746,-3.176318219409249,-0.020515951616329804,-0.4551120109657462,-0.7323833962302175,-0.540833763435217,-0.8825145205940508,-0.4575761145609388,-0.14750350475370266,-0.003722065721760653,-0.9443799237561112,0.038970394876061895,3.221840502803926,-9.952554930210882
,0.2281927513191178,-2.4236683049287966,0.04175998977650331,0.0868425110693623,-0.8077392304338926,-0.6456670150149215,-1.5935906878008586,-0.4574904405773784,-0.22276388770096106,0.2712553297493801,-0.9534814949568455,-0.15959178975539043,3.8091369413614595,1.4140729676354815
,0.10061865508180982,-1.7702493547926423,0.09702489537862789,0.0030034591702697813,0.18848733446269791,-0.4527925211699763,-1.5888334254522025,-0.13271698447732505,0.2321693802858288,0.1081243915894439,-0.713854670211864,0.12309890226073696,1.435706426941125,1.357714315999402
,-0.4076447559347321,-1.2876923844429484,0.25578343721634483,0.28736503114746587,-0.5353892184894391,-0.12806807476464765,-0.369958515204951,-0.3433455726763124,-0.03083057704042981,0.5841289066475879,-0.5264619789348017,0.13996292770072286,1.0296301026840977,1.6055078243268053
,-0.4686664880273676,-0.3273713721207842,0.19248199447530157,1.7447128347474827,-0.41063904083622427,-0.27798399966836473,-0.2856224711709197,-0.3349447724894093,-0.01417604831019755,1.0446979630172497,-0.3143616562016999,0.0018741022354272427,3.096075215809173,-4.290841298332229
,-0.5401905219416255,-0.6038816908212393,-0.28064165230919125,2.2937891065369405,0.04256627536063438,-0.31512103685733245,-0.26104462030530984,0.11645521152209656,-0.03909474167671591,1.687535028610132,0.1857976390417406,-0.4240616832066945,-0.626376900894553,8.119843948879081
,-0.2315429653763897,-0.8028587323096973,-0.09285765776275946,1.9290428829556283,0.6312464360326663,-0.4785760120310839,-0.8423948357933684,-0.5167125763768387,0.5874790598563614,1.4064360080487435,-0.28731316898632553,-0.23083803304310976,1.3807275770070724,9.405424311999328
,-0.22724400338064016,-2.8624583219800366,0.25838261051169237,1.8220697393065406,0.7996728399912031,-0.5855145673482706,-1.466164400226225,-0.6119061086644765,0.7470756059302918,1.445874982390234,-0.6130306631471795,-0.08862921423323496,2.3566932906555302,6.375307499492892
,0.09773331343142402,-2.7039013175506295,-0.09061914781471107,1.2421039563438216,0.8063117804538963,-0.5413212114791948,-1.2174682819934133,-0.10490232005076329,0.09644000413767884,1.3234077730347606,-0.42821989816363437,-0.2658250428131651,1.257341544532177,-1.7886498365136336
,-0.056871928037006206,-0.7701151564125438,-0.13325334404258632,1.1238097511537448,0.0235242670629296,-0.36236614336379247,-0.37530566689831313,-0.3464506595879226,-0.04156474623711058,0.7304327236528911,-0.3324765505000815,-0.20103230332718505,5.758914751793899,-0.2843110694968315
,-0.3765069203333782,-0.4946785941595299,-0.1407124155610932,0.14490765237567177,0.1350910218146288,-0.5276257487488122,-0.16122504258388703,-0.10897719162432175,0.1737471942756594,1.2873670245637958,-0.4986063218516207,-0.0024029775285523925,2.5833502597577973,2.587791751293933
,-0.2707882970371724,-0.23175474559353185,0.013137384660079483,0.23200072403333022,0.5255371183764269,-0.4734645027694586,-0.22271831948862794,-0.1307854771157481,-0.07441651398853823,0.8201538668924196,-0.36597290206262123,-0.05903003405722539,0.6178465983245763,-4.291522517612604
,-0.443436423622039,-1.1137155351446022,-0.03618134155901705,1.8094408048514787,0.6226719237949202,-0.23836273204134822,0.09897198053650946,0.10250733788321498,-0.04008357870516148,0.8193163716776026,-0.58704220203169,0.011071475967290618,-0.6624822350928848,-0.1514273067220058
,-0.2355836134580684,-4.423454368117545,-0.2504150731902096,1.5420635956881215,1.446809434465212,-0.09175215573245202,0.40124956479340845,0.4555279808130665,0.2860005961790936,1.3108247472199712,-0.40625655347074674,0.12769537808359624,0.6737213154452157,3.007307997459047
,0.17488960814757804,-3.0808319246426197,0.006497031766515104,0.7884062451365706,1.745582256484951,0.3538900743282434,0.5874416007933011,0.29600368788067394,-0.014571042621709752,0.9773143278794864,-0.46550612185599777,-0.1841337123671281,1.8356623460307464,-1.462061796946929
,0.36713869287005596,-3.0091549697498357,0.13247853393145878,1.0543109934510364,0.6172086977531672,0.5332557315815695,0.45101779998154046,0.017637918702924884,0.2912412417918893,0.5452427397156513,-0.7032288647283981,-0.0072105449858755515,-2.089119530458718,3.1534171367337733
,0.4577320547785133,-2.2339539104647113,0.34610409721298724,2.4016590729175853,-0.2591365033876289,0.3270868715753059,0.6413224929577137,0.07229617860084525,0.3166117037831424,0.8132448538996675,0.0462326470698021,0.21656183700751822,1.3234946496315707,-1.3943027830137535
,-0.0524861796610832,-1.4336658895597585,0.3525867401250036,2.6576107986328097,0.3635293057991774,0.1588299159506501,0.2121682070579484,-0.29937110406331024,-0.1577741076683394,0.543417786377135,-0.01766011367833722,-0.1877458089067075,9.306443541963949,-3.1806124816599035
,-0.7617152085139849,0.5103673758204076,-0.17404312295020233,0.5314488256327854,0.34414983892065637,-0.06025039118025153,-0.6399723561777237,-0.28649611885225323,0.48849816653091455,-0.2350627263310794,-1.0968024296526229,-0.06263875184018686,-7.571076149824998,7.615501665601346
,-1.3616716913891287,2.9522985087612144,-0.5512446194363902,-0.508780989993141,-0.27531989996229617,-0.5888493856531981,-1.1694109843940819,0.13808502627457322,0.24920374799369752,-0.7525146330116986,-1.6317804543643006,-0.3409035762803479,-15.760970955390086,24.58960485585525
,-1.4233452990628082,6.949295882131379,-0.6245326732669281,-3.029907398647404,-0.9466838510423329,-1.0188485584919427,-1.3353659258173043,-0.15911111867850422,-0.5375017612458858,-1.3454089064524104,-1.9229491123884708,-0.5157608666842881,-16.592062982892184,26.870191409195353
,-0.7936694320650272,4.502245763271987,-0.2621812263482781,-2.935717370649178,-0.6948926170342599,-0.6428726066902004,-0.6335597884873937,-0.25014776624057283,-0.6187803020211763,-0.9475184697305218,-1.4128372712989612,-0.21923861164492817,-13.430466469555908,11.904850431149917
,-0.7936629301559239,-0.24143331052506622,-0.14986979675380888,-1.8376623635685143,0.40201670986099475,-0.6475601800568248,-0.7730677195502601,-0.5918150601085068,-0.46214830555361247,-0.5469722173666821,-0.940598614979337,0.11868760528637574,-4.462854865099784,14.494661061125727
,-1.2765569113938373,1.9816593383322636,-0.027712197713755337,-1.606086850902103,-0.3290091475742247,-1.6043653866044143,-1.0397057804281356,-0.546380566022744,-0.18696340750279672,-0.4292626718369247,-1.7863555480880564,-0.40480774778628703,-2.8312849584849595,24.023752987685707
,-1.087884758873411,3.253325980189926,0.187427862028663,-2.6566738809409913,-0.6975586046341474,-1.2031524917182221,-0.8019761154648498,-0.11498767944828027,0.3121611088464682,-0.4449009159805039,-1.8718787068968998,-0.5052594279667252,-3.8400797077111575,20.963555710703652
,-0.7628873507156164,5.356318179084287,0.40100453257683577,-2.2818047366377407,-0.6418556650444444,-1.1086221908713232,-1.0107230877817197,0.09941163984134635,-0.03158269122860513,-0.4082352582065505,-1.0438223029554692,-0.40201406786871957,-3.628775534392029,5.066491453315323
,-0.6437371815756352,5.805881858727132,-0.0926090919064126,-1.637650349598297,-0.33770206452700363,-0.9223618693701463,-1.6097180910739803,0.049110648106901744,-0.03421262619884648,-0.2832995416253168,-0.9091955755988884,-0.3742223199409919,-4.2237870622740665,15.923681056008432
,-1.2339192052427135,3.9755648505883783,-0.3810680184181584,-1.0805098551760026,0.24205896198913124,-1.0104593173554168,-2.5465032923579276,-0.3313799592942475,-0.5517147630212113,-0.2151297287583971,-0.6375485514253674,-0.4898569740566763,-4.628945778898837,21.17013225482975
,-1.041631259966746,1.8073926269608978,-0.2795027070726966,-1.4705074739476915,0.13424855716293618,-1.3632533473628643,-1.8436296694151926,-0.8538779553030627,-0.610438029378156,-0.366501632640095,-0.8224655407070307,-0.5173006170904533,-4.540808755724032,13.955800578075273
,-0.405713579657474,1.0725219442102352,-0.3717738396667601,-1.352637366292528,-0.9114991829109815,-1.3141275758206608,-0.9244393870818043,-0.5423085624847006,0.3997140486138522,0.11220979803825117,-0.9903593507199743,-0.7537528368832007,-2.7539341643286184,3.901744645133027
,-0.2633771602698368,-0.4767952151998008,-0.3415524102025556,-1.07468668624777,-0.42691712604236665,-0.5964136025046162,-0.5604000855238588,-0.5495432268807326,0.34293704064104846,0.283273403034675,-1.0945371141682887,-0.7365865677146847,0.03978847888108413,0.23637854870800395
,-0.1419470061429596,0.9806544879056549,-0.06590007295150287,-1.1045701987557655,-0.6546602200795267,-1.1888639944813384,-0.9915977675473111,-0.5541437626800962,0.02816519178253806,-0.05748475679682912,-0.6809483045289462,-0.36832373440643784,-0.5677832430046369,8.896313836252295
,0.04232031983645602,3.486503123286504,0.02173036654046626,-1.1897336376177177,-0.7009217049427544,-0.9832319176502985,-0.9130997633280039,-0.6824286436936442,0.3045941549923805,-0.0803951616459451,-0.31554603425314093,-0.2644105871880893,-1.520568581118308,-2.1030898940100236
,-0.16909991794309168,2.2439861522602778,0.05231311943997925,-0.36428506020204227,-0.37474745209322396,-0.2625997548279828,-1.0431084849526957,-0.5022982417079529,0.23283304668634272,0.030828360141438065,-0.5491140760240001,-0.28118620100622316,-1.0689919771144827,-4.04804699705411
,-0.5845764802458328,1.2960155853833633,-0.2797301349062607,-0.7557583818245394,-0.3283331820377638,-0.06918494213354355,-0.9364609343093192,-0.27322842750737486,-0.5895465168770323,-0.15618586531280332,-0.9435666650044372,-0.4674448163688173,-1.8317045299953818,11.608594140485069
,-1.038520705349074,0.5157113095511809,-0.45821568611228813,-1.0969710170966216,-0.0692417737500709,-0.4620875359581342,-0.9948134456407516,-0.501491521623987,-0.8385691579157539,0.12015734998678933,-0.5384957670613968,-0.27434462986122665,-4.920275505413914,22.709398888287996
,-0.968179022290746,0.6849606890387208,-0.3483823507963668,-0.9149307272061227,-0.30935911846576336,-1.0926285034983667,-1.1188793931966432,-1.1090836567783349,-0.6506878856468558,-0.38885293553058853,-0.933949551515441,-0.5858892246006113,-6.78296129696416,20.686237788420414
,-0.492855656301844,2.0332209803354573,0.053231123323036963,-0.286610941372096,-0.3248027830245181,-0.4468228179410615,-0.7659533094241069,-0.9572839246315467,-0.45619140756550514,-0.7950226352363378,-1.2434279472109084,-0.408110377611945,-4.140532428597883,8.72687421331737
,-0.7914820744995702,3.5183689300347023,-0.28506764370813914,-0.7082651387014941,-0.35910439660917226,0.5601241326550074,-0.8403794166823746,-0.4857234548656631,-0.35645146765215513,-0.9612030722685868,-1.2111437755312724,-0.24214286191299716,-5.112229248016475,7.2211392692030465
,-1.4695951559595628,2.134645346196466,-0.5109115693932197,-0.29264633331193773,-1.0633500001373857,0.16441979253715308,-0.9260142302915216,-0.362618380451953,-1.3298740478074624,-1.1747288482069411,-1.4241750899340504,-0.14970553401804226,-7.038625158421008,15.847064779424501
,-1.287240306444219,2.0738737455878575,-0.2317820680595286,-0.25657924090551393,-0.5812840534172624,-0.5354418319885463,-1.2609067032835006,-0.4028290807251196,-1.2288688712734284,-0.9819950923925788,-1.4620630426929149,-0.30601314160262943,-4.562832371383422,14.240028916032127
,-0.7938121034791629,0.6018018626275383,-0.001572263905875112,0.4545518755705429,-0.47104714897025113,-0.7548505223729418,-0.2978095805869657,-0.49607476015092866,-0.9943563710095643,-0.9210085097224905,-1.2830638233780327,-0.5183889181391612,-1.215521297348727,13.73396213619086
,-0.9238229866013913,0.9466363747430638,0.1536385726593816,0.06437707134906513,-0.7952707405212868,-0.8103250788953952,-0.168101732757223,-0.4699039058027106,-0.9035502195910131,-0.2809699684380315,-1.5972608110199684,-0.41218631830448665,-4.46801397017333,22.339838196676354
,-0.6994017820704101,3.3239223610635693,0.28421262392458824,-2.0750439626836465,-0.35985635734331284,-0.7145197421022056,0.06956321707661971,-0.4656413753489058,-0.37830207379273467,-0.08314509295947438,-0.9241345093237108,-0.04207620810117446,-4.07789799705932,3.9373176012810807
,-1.1117010804891736,5.311153665454039,-0.13230929776232037,-2.6454841217760654,-0.024220124881853405,-0.08387074724969992,-0.4664737146149977,-0.6690557869097288,-0.13395407706207194,-0.8831572616316451,-1.0089982348368864,-0.2352764011556782,-7.929920090465667,-4.017728324045833
,-0.9202656458570003,5.950602716362317,-0.10501219050663868,-2.235925902275403,-0.020788251077934156,-0.3488068087064276,-0.42588068145909375,-0.09761119467163214,0.1993497152587648,-0.641665451466573,-1.0433773734066984,-0.29682965202337963,-0.13526225296762234,-0.317249044490024
,-1.254743882603747,5.828482761637983,0.016343552799370664,-2.877691149472695,-0.6220458351630074,-1.0334452940240584,-0.7669260159723204,-0.5956552260831157,-0.5506021422178797,-0.1275097909287925,-1.021449466936899,-0.3736523390586584,-0.9484697037468546,15.21650420826653
,-1.2238688907669406,2.369957468946008,-0.18560146211917555,-1.1563171022075345,-0.5649799552354855,-1.2325499887638411,-0.7815414605919102,-0.3694791617277119,-0.3975225027810004,0.5650570941160281,-0.9808870847348117,-0.13625337653279224,-5.480657887023167,23.122132824149457
,-0.9513309917861771,3.366469779484967,-0.2670897795854787,-0.8194933906539569,-0.0898812754828779,-0.7884765544635505,-0.5285181809933311,-0.009625508075843368,-0.2997076616815398,0.14288194995150943,-0.9181438226730262,-0.07325895082405386,-4.853410759944026,12.880855287148766
,-0.9057342137590702,3.8490647486670104,-0.34408436463667647,-1.8981531286103264,-0.3186864086747494,-0.20301592056419,-1.2220848607517938,-0.23320930773933854,-0.18970719245613102,0.36666246402776376,-1.0555518318764305,-0.2051887418183309,0.022697090126545916,13.052581032959836
,-1.0051786832216547,3.28312223389675,-0.15516934832037238,-2.6058285236339214,-0.06647157054328579,0.1666048391765136,-0.8143962704919849,-0.47641130501413065,-0.26370448610442826,0.9004804379242488,-0.311534193989381,0.16824415310039678,1.1152818145829024,16.481991030459575
,-0.43815415599234947,3.3838670491183436,-0.08729518092550041,-1.7691272507499776,0.005572308597107294,0.6379677053563665,0.291381546742753,-0.5560145304523921,-0.4667449634927477,0.4933554443818955,-0.26727198343102054,-0.34005665333777196,0.04480280227419373,6.176872996002216
,0.13885825953346354,3.409900688272742,-0.20417356983230606,-1.1995771687776517,-0.09770141954296567,0.7866758339859401,-0.2916203554407061,-0.5526279571405919,-0.5072715613308911,-0.15004360044499043,-0.5334202606072828,-0.20133663082692338,-0.8368768291719066,-2.788485452232961
,-0.8671276774915984,2.0953517794332366,-0.210435957355739,-1.2274557382259812,-0.29885541149129546,0.011756457037908946,-0.36898220407336546,0.0032469573514693575,-0.557041152356814,0.02480020432892684,-0.4061425962684111,0.5297246081738977,-2.065718089310082,15.300883884418885
,-1.227624308824902,2.5100179625006893,-0.08266268403976715,-0.8687081221908522,-0.3733487425545875,-0.13181697889500643,0.03419626274894167,-0.11050271482166049,-0.8149189036591699,0.49205150304446765,-0.49992944683003,0.30883561659849973,0.27751417516914,20.85479142419156
,-0.776553201271296,2.3374367126379236,0.2058611113889734,-1.1703360820901803,0.38950393431369673,0.10880274725450326,-0.6753299694668365,-0.36503099765503205,-0.48572122967839276,0.4189069335659624,-0.9123730741344221,-0.0010227281994132497,1.5766846143096944,7.601569479105186
,-0.6966836913492112,-0.9962204760067073,0.19516719593574977,-2.4664218366498964,-0.37710776395038015,0.10428060453860037,0.08706297768634641,-0.5546500141852186,-0.32558648792853884,-0.9958761714158194,-0.862498164394949,-0.21328682219860973,-0.422240009629365,11.15505385241629
,-0.7666453662468784,-1.817571306478897,0.08972084410752487,-1.6826966076461014,-0.8100295973790549,0.03814452467316766,0.3488575972320944,-0.1840398570724086,-0.1518708372045112,-0.8658390327791564,-0.5485327627590223,-0.19595386557519962,2.7647356154664773,16.64204888141138
,-0.9414734449697827,1.2476249011194294,0.16450322163635886,-1.144907610656707,-0.388782725759991,-0.6452625272198833,-0.2932184572147675,-0.3385124790982388,0.024324897450109708,-0.08296240296614733,-0.443837499826372,0.023034778819030387,1.1544828585509361,12.328342180511727
,-0.8713020921722933,2.6031588772111043,0.013609295194425585,-1.2013985610540923,0.6495609958016899,-0.45073132577062974,-0.32892034383494256,-0.4131992275760921,-0.4505602497333056,-0.0458321258308656,-0.4287792617565178,0.1283675671239093,-3.012027533587677,21.776998457715482
,-1.0326441465862735,0.9932395830100327,0.23958955871856133,-0.041066344093164266,0.4109908796915808,-0.45428618002169874,-0.40834643659812314,-0.1258256522942427,-0.7160998178494733,0.1500153488661877,-0.5356505093729622,0.05763455210516642,-5.3269607346366215,23.804780635354533
,-0.9618936718433682,2.7287445645804955,0.18575373702792683,0.008752204919446612,0.7357146517759865,-0.2188561801708786,-0.6971413375028895,0.12809107447671012,-0.2438744109050943,0.01334041248548302,-0.8192665685917535,-0.204132063620807,-3.3923024023383497,11.879833031963342
,-0.973682297334276,3.437106871525532,-0.07214412204212371,-1.1279681404087871,0.42240461036898597,-0.5796057982645041,0.15484976598343936,0.022320733268658622,-0.2499994799209814,0.2401545645985905,-0.12269225028492593,0.12953374347706048,-0.03555561365532371,6.062725115102319
,-0.12465416951161326,1.8992150827433945,-0.3205130950514111,-1.5820402184143945,-0.13125828415666949,-0.9313514793346838,0.16818764522518542,0.16413163550068524,0.18678378518446595,0.3165825903286397,0.051866772762215615,-0.12330216941656093,-1.2593095560461516,6.659871881956302
,-0.30606367946936885,1.8598828115327632,-0.27033802743010915,-1.61232029417014,-0.3636020367472599,-0.6677147106230108,-0.03952726131947634,-0.14160016659161304,0.4277020933436697,-0.20147414028097213,-0.1708088417939912,-0.21830635876996599,-0.9941932269694481,9.367549997613303
,-0.9186606084892884,1.838121944258522,-0.01643498409175154,-1.5108352385015196,-0.045514195499892204,0.13576426253055426,-0.1599934372539035,-0.23343862405490254,0.4792356422038472,-0.0810779739855926,-0.5340590617500168,-0.07303996942347975,-2.995024087732628,14.409256604202321
,-0.45965165969709254,0.6339901034309094,-0.09988905191975533,-0.5568286101835564,0.759914293801625,0.17252359991409238,0.15573912624981978,0.22204302925386957,1.1193769146230115,0.5450378329353408,-0.33258963255901425,0.2051666240575637,-0.8404774771056689,6.147766376708729
,-0.11141820967274049,-1.6284423949564997,-0.19324244785989736,-0.11578406392102941,0.7080554579848286,-0.025933854281275138,0.2321100473817283,-0.15710312407823793,0.218593581910832,1.0271496034996608,-0.15445273862961428,0.16615254787374364,7.535914622948008,9.747697893073337
,-0.305968188911228,-0.042709573105279945,-0.19093092986070143,-0.6521669577369436,-0.20917296971935198,-0.13303122221081543,0.3301373948035469,-0.05505967512946586,-0.03808518912214877,0.6069734791794725,-0.3683773144881471,-0.04952174583963748,4.198748972325328,4.567331423728514
,-0.5546318961559603,1.2201014040523606,-0.23130059684309215,0.09381776799268879,-0.7016790624488963,-0.11484524758872523,0.4080194172119153,-0.2827186970073172,-0.12545361839013483,0.9642202629630251,-0.31933080532259467,-0.03382116672572033,4.581439072972334,-6.107341998535434
,-0.6799288795034374,0.8789588951229206,-0.21985167592755503,-1.1654339547402195,-0.1797236050030795,0.13949374570750203,-0.029262278947495852,-0.6789291472463281,-0.30071453009721466,1.0868664208199237,0.41725413428089203,0.07522100293675604,5.030702810608689,-4.269853381201371
,-0.6041616134315613,-0.7549287484249813,-0.26139189660587064,-1.398108705545081,-0.5111266711661804,-0.612552873616452,-0.46488713364800865,-0.47706206687704245,0.1306172566134603,0.9855389418488655,0.2514274568327432,-0.0056054109528731015,4.804117603552953,7.281686043654488
,-0.1569330741538314,0.7801037554080775,-0.48810061494911183,-1.2097678473247822,-1.362680971162641,-0.5845155085121916,0.5144421314720803,-0.4860596303598722,0.2572899372853474,0.610038322595211,0.35027463814678944,-0.23839374570663663,5.4335391960934,9.310326091773886
,-0.37157817393633913,1.0948306490118838,-0.38784593022030694,-0.23346306639160735,-0.7618848880884239,-0.2706992224301983,0.39060319586327835,-0.20096382428492052,-0.17155772770093375,0.35502689133377635,0.03453169123349044,0.23341978739200223,10.19184711281744,7.025467996525465
,-0.3456902474412126,-1.0246445211731103,-0.047954948745254355,-0.3272398909626114,0.04783717169163012,0.23806912186430487,-0.06345026680712038,-0.09383258902395905,-0.3050308412784844,0.2854526710423728,-0.20646454272250953,0.3067551048486516,14.747131310066294,0.9802394619634537
,0.24105361760145108,-1.5466112337030815,-0.113053526714593,-0.47038349380714795,0.20829436110199745,0.2869264683552014,-0.1598745820274207,-0.3589934536254519,0.18920472811855601,0.9160594936380277,-0.36136633493440223,-0.21051781334315042,5.015545589057759,-2.8563699933788
,0.10433348165105405,-0.5672692192833363,0.029051110509445595,-0.27645189288774147,0.8034773892155419,0.06222091965010402,0.4308784914130909,-0.23885032839637502,0.19337802956880043,1.312935236280885,-0.119142702898758,-0.04946467749657783,1.8575256917538137,6.8538903225227275
,-0.3399686614758443,-1.0238745924825574,-0.054599004516198715,-0.0208056289364039,0.5008402045072305,0.020379826240042948,0.25347379965855527,-0.19418964868624064,0.4141961676474099,1.262074742100674,0.12639296994635035,0.08785055097752281,7.783791298812771,2.095442702130088
,-0.3914774335694951,0.29283181835378463,-0.24969975522577642,0.3188677536501718,0.1380527407196682,-0.1447516528449957,-0.18234498812127764,-0.0038311646262040033,0.4477021453348497,0.8517001957314578,-0.07949990052288317,-0.1109084364745308,4.813470344766879,4.907627859763385
,-0.37920467599367436,0.6167015558946569,-0.26912881047535964,0.7976891064859348,-0.22670357532240826,-0.0431243286644104,0.007348717771811041,-0.14509644485728987,0.16119350927922763,0.27044455340547496,0.02435238251345041,-0.23763749234821965,4.980713908451355,8.12262229634755
,-0.2773651606112585,1.1019673284945142,-0.20132165254228349,0.6028184070848647,-0.3928109575737763,0.04415611476373959,-0.43540714011835224,0.10256970024864785,0.019559351422812985,0.8513253013673192,0.0441505432468734,0.03502882446802044,7.7592986818602325,6.755139961172664
,-0.02351921419698686,1.6853196781928979,-0.04201963435913246,-0.12829200212207503,0.21783047157591862,0.7333059820534278,0.3792938854554759,-0.03167380444323828,0.11208982929343192,1.3965252677553623,-0.04026195087909069,0.11945659698999923,10.359248996895975,10.32741740442678
,-0.4390649348557809,0.7278005531584829,-0.2057842385153891,0.6176996149062152,0.2700219825776768,0.8065808286754644,0.827429554956849,0.06207324783160529,0.023089976852907784,2.390321394372662,-0.007925174615399109,0.017185046406687193,7.455552322781626,6.359658399369304
,-0.32946035695504416,-0.4881733205350323,0.0035792824251114387,0.40817813524749813,0.8758217345584552,0.7104314358972671,0.39833596083705,0.22531885539142685,0.016780018425104657,1.7057250272434024,0.18821063324346682,0.1130994109499697,10.533963345042734,1.476398608453949
,-0.5766747420579386,-1.7712237653984662,0.24527620302501787,0.3460690223411153,1.6652383747998407,0.9313016627385408,-0.05422579855918672,0.11455105344494781,0.7421200785186325,1.199237150912898,0.14170053375311212,-0.1916333964920032,7.830514174411695,-5.069955914384548
,-0.2217135972553722,-1.8200350825063896,-0.02960735868573266,0.583336158010952,-0.12325649281508742,0.578222523723751,-0.24274648463476517,0.1316041940276428,0.1863125104917781,0.4069490868682441,0.3812216735667669,0.20653087439191553,7.350450056846834,-14.175363195256452
,-0.2612703021287582,-0.8466982382494089,-0.16088365328014845,0.46666195151103373,-0.5121761229940712,0.6625925304117771,-0.03333620459716229,0.19326053329034368,-0.25696065236748067,0.5088574199980472,0.23461624666265218,0.08819428717816864,10.078353688823217,-12.14625418550037
,-0.4354318477726025,0.5537207039661404,0.05479830989515896,1.013772414294492,-0.5813210047336127,0.19580762846645502,0.5412646065985892,0.43724066845655696,-0.19467396494943254,0.7494689984704426,-0.04434691493933569,-0.036495934085136024,9.07450393015758,-10.308879100761253
,0.14459369355210377,1.1739383374706869,0.2812931395545701,1.2861870877633748,-0.16044969534899542,0.09376865577189772,0.6492231083562953,0.5758135233075409,0.4884481483318392,0.7303585867196526,-0.254336999449918,0.10432803432615563,5.305300071092693,-7.37754982227736
,-0.07283963347451375,2.515910717436112,0.31496193329907807,0.9948409999741142,0.15052595330280247,0.26626053536160094,0.6425493997394275,0.2234904369525229,0.5190968794677573,0.6191444720292083,-0.2843879934856008,0.3158719874769364,3.8030302930520334,-11.529010907423533
,-0.9056924929327439,1.7858982967606623,0.00899551953963531,0.2806948631564319,-0.135927001575532,0.00019151997115871594,-0.2915713674931514,-0.31348942961243154,0.022529403029979085,0.05138425041374646,-0.4261334405699266,0.030610460687229692,-0.7594617014830837,5.745118583036772
,-1.6996850568165118,5.529609718126734,-0.7043198375881942,-1.5007201425825283,-0.35220305071698177,0.16674874947096285,-0.5601205872515576,-0.6025900502219995,-0.48907059010098636,-1.5511804864206424,-2.1663386281667507,-0.3310320425074997,-14.948331011768822,21.297593793523472
,-1.8504641284098862,7.258064848780317,-0.6114422957017168,-2.6807857232845276,0.41524497502876245,-0.23454078852692067,-0.6609628545519455,-0.34736335133173457,-0.25691587596339716,-1.3570401645551113,-2.5409039061063767,-0.37306024245687025,-17.145725766052948,22.66807116416556
,-1.8752229169606491,4.689712424140982,0.16906365886376817,-1.581539348617586,-0.25455214996195236,-0.12942204936067242,-0.6030587647255629,-0.26351629646399616,-0.5023902081984803,-0.05476024312182714,-1.74575775705762,-0.23512404188698657,-10.163134167348366,34.364918273842996
,-1.5007961715368872,2.2038291742100165,0.17114190781743957,-0.7572611643020412,-0.6620612938887773,0.11817353659750571,-0.36993772411044135,-0.29321210488006105,-0.280056633604586,0.04557675391814013,-1.1674779689505574,-0.05980721945904921,0.6601966757472685,32.462395699407516
,-0.40686350709929037,4.067225948040653,-0.10563852765598221,-0.6834368632131135,-0.6106445203067774,-0.24373351333250579,-0.2525874075023166,0.06440098183976023,0.16521844879449069,0.4752362054368949,-0.45592062283857115,0.2067603832282394,0.7803384876864754,5.652974004329386
,0.23933352204107702,1.9037105490202266,0.08966438954403726,-0.08555197981390662,-0.5286473627777675,-0.1222920904063376,0.05205041574747634,-0.10075470571773057,0.2699308263196925,0.7376381631052777,-0.7064619460743448,0.002938432066520982,0.6385557392516225,-3.718052475476169
,-0.15728955080385731,1.6045712278436193,0.07842287032828378,1.0324947353935063,0.47366800848582974,0.2660077906353396,0.37619140248034105,-0.2603996185511408,-0.08916999351001048,1.0668650424727466,-0.5461919967391415,0.20185497088347235,0.2890721327721013,0.9170874569717354
,-0.41925625083280665,0.38957940177695255,0.15023900384935554,1.0404103455062643,-0.6205188746316121,-0.3099066707080386,0.20877218051158888,0.23161786834370804,0.16281679655387182,1.0856811292684405,0.0438427060372847,-0.024393116029356437,-0.5757900487962839,6.904767176627385
,-0.5855193052923292,2.59824298881223,-0.22746161981589874,0.14192957646267979,-0.8030599307726518,-0.3632431224065663,-0.21444260150607633,0.5948243841397229,0.6094309373286689,0.17893994752853565,-0.017186434799313418,0.03562981178192095,0.18380032420688158,11.536866475822968
,-0.7088971099180692,1.833962279777922,-0.10701455283756688,0.4113557931732136,0.051406823941842504,-0.021952848214744945,-0.16864834610001594,0.07413609037690128,0.3674725241672205,-0.27338868559321877,-0.2851176619739894,0.13158044685631018,4.559998323690642,13.561994594193639
,-0.5547166068283642,0.11016278711419047,-0.12070794679749511,-0.10300424307111947,0.43245731221176936,0.01599542446436312,0.5329158330930129,-0.27643718910701087,0.07196489013254542,0.06507477648677672,-0.31307846850434534,-0.12501370355532943,6.407237286774122,7.853686110195523
,-0.3418297735989683,-0.713504035533551,0.16824209168763918,0.4394629967025583,0.5257260454156008,0.014692278504482842,0.34792950809270595,-0.16589442490197445,-0.0025961125549727325,0.7122438221411461,-0.7537343730773657,-0.031278551221070434,2.513377606061222,7.584767045382609
,-0.1209199689636985,0.424506883130301,0.4501338011261134,0.6497858995367345,1.1457313528093356,0.09812254934270108,0.11903377270307554,0.2665527322280076,0.4279879065132383,1.2162731289185231,-0.5396022158397237,0.2446633119435944,8.741426172859148,-3.318143614497066
,-0.43181203218210057,-0.6643266231960319,0.22945421914319505,0.6296828896554643,1.0882627093062602,-0.2186289929258613,0.563041406626842,0.030521271253847477,0.10635060337902905,0.88057350074847,0.04186345093411978,0.32435989321190406,13.6436575164843,3.5267007872261793
,-0.6481696693712735,-2.804168009276287,-0.019441127648371224,0.6173811058623648,0.5249466790790085,-0.3868740957828092,0.8813292908976665,0.1984517381018526,-0.0014424440971892883,0.6831373802158555,-0.09149004480533421,-0.06117710822107916,7.9264761447405085,0.9851256746646614
,-0.5666868039327966,-1.537072727315393,-0.08738313960052702,0.879390554176731,-0.11604949600221805,-0.36308049037433443,0.5972603531440305,-0.3728895800017904,-0.41226883547411486,0.6050613230020534,0.04933909512598502,-0.18273918885593132,6.03101579170538,3.1194747858726077
,-0.6617782162720682,-1.1847769175185145,-0.10322147789209628,1.0707973060790694,0.21290730159530255,0.4629471703074306,1.1611971915040555,-0.43494214129345127,-0.490132260857604,0.5955792999253896,0.10376413115451116,0.29808467575535075,6.595208832207397,17.544344238942497
,-0.45850797050508973,0.8718622532154477,-0.017093818497504465,-0.9464795757709643,0.6977702917870009,0.23352806778299973,0.4342722904936874,0.039915192757096485,0.29459561169142656,0.20391689580016134,-0.07949869209790149,0.1616622576592382,4.0896133589257495,11.929907984236232
,-0.28866774568537285,3.3088528501481664,0.022251100946857727,-1.0485523794925635,0.6981307425216297,0.20694661419731136,0.3441977944431133,-0.07469387918366333,0.44855348941844286,1.2319497897971898,0.17762458206693016,-0.0478550106294886,9.550941305521372,7.682849625755445
,-0.6149977814897772,1.6086982565148977,-0.006542386499936305,-1.1660964244856311,0.029435059139830397,-0.038874925062021594,0.49775055673457663,-0.028322904845217968,0.5578051709963385,1.6687994566820603,0.41588327606409026,-0.16003352564368134,4.922142657506655,13.554967416865136
,-0.5553398477072983,0.011387781970859318,-0.13890223175818076,-1.4594264894115705,-0.3022583909992183,-0.03832204071982641,0.4478472194280518,-0.21225024160692071,0.23512658069317388,1.0141886201896788,0.0314999176358391,-0.3203149403004771,3.7097096912009704,13.586428663823789
,-0.3359082633187602,7.019901863404584,-0.3380184148769518,-3.151276918017044,0.010688049854133769,-0.4148839616561948,0.5310063087521649,-0.12565146747910053,-0.19017715564892523,-0.7030559385311668,-1.1026213645945109,-0.3504886768124853,-13.95702994101119,8.885843004407555
,-1.5829024384943646,7.794285530674314,-0.4417062550362756,-3.756770044684275,-0.8976752899871429,-0.9088671318047515,-0.35532801183828233,-0.47734162323468937,-0.7352574631327796,-1.6068151228384393,-2.199067689398803,-0.3836770444641854,-23.28217887338405,26.49576851163786
D1,-1.9575025698821324,1.672413910694971,-0.43715071741324557,-2.633698068661306,-0.5833909659740719,-0.7840309771885604,-0.23821044803582758,-0.9423417700892855,-1.310179695974184,-1.4606494085178094,-2.1313661432928246,-0.5157111988813854,-21.129530277273208,29.36505516229489
,-1.2618640092677698,1.5177502534158231,-0.28975022611315876,-1.2634166790920482,-0.5054126461193547,-1.118215892340002,-0.668946653384728,-0.795136433738239,-1.317670668900754,-1.1794695964184612,-1.4848501454653344,-0.5835140997205741,-16.214544062328766,15.740755168434083
,-0.7380447343903045,2.8425086785545552,-0.10358371099053543,-0.5426273418228159,-1.6463896000598566,-1.1414784730368144,-0.5578311967752114,-0.2536704330423148,-0.8997026183830049,-0.5438635700536036,-0.9033512584605563,-0.4605085332400136,-7.149868936244223,8.792598220794757
,-0.6699943509811785,1.6340505265073644,-0.08590031542402965,-1.0475423007576647,-0.9941325104471677,-0.5406663320262041,1.1219922644462528,-0.12001760898041265,-0.3982186123217565,0.07510666261230961,-0.6483279675324221,-0.1634405708778849,1.2149804358857443,6.3099848767249975
,-0.527350045086772,1.8870367257439065,-0.1478411883359225,0.2506241538341588,-0.3377959057094011,0.04806489300234193,1.0790589228258753,-0.5726154617573632,-0.14688042113997968,-0.40223111820235413,-0.623598663466458,0.32752962766458144,-4.396177191374364,14.125597471099981
,-0.8868766827925846,2.5035461243615975,-0.349955197988229,-0.25526059424123837,-0.004924787376401581,-0.04291954251070049,0.8381477880353662,-0.3864736200367371,0.09956275772777791,-0.06967085177342659,-0.8975748324952265,0.22023553619250766,-2.6715088596495273,13.680126721775487
,-0.1237072770726416,-0.14412582205531568,0.04919599495286396,-0.565199483712976,0.00218158110287681,-0.14555789193575844,0.07552665562622957,0.31528838571220213,0.39961399614217896,0.19251198142831752,-0.42707193625080037,-0.15505054271106192,0.6528179531842656,-8.323523274837163
,-0.28647466330756427,1.42954476436286,-0.04462659511682988,-0.5973218719919211,0.0324083693030613,-0.029394544109634498,0.015617860191377123,0.054131760118786176,0.2462057337406367,0.09793102858526977,-0.49858417021912077,-0.05296658110962219,-6.86051138232372,0.27726367158080745
,-0.2693863513048309,1.1182188609046675,-0.15589391413423215,-0.6441827782653101,-0.5380248383508061,-0.2636851448177992,-0.0682660425261719,0.31497830533014215,0.5070189944673964,-0.4525094689832151,-0.8399420580519872,0.03225347892790618,-7.518503585079399,4.8913261023870325
,-0.37701506095132653,2.087854198720956,-0.03229370969960316,-1.311921292387509,-0.8134920575563607,-0.5129873331961977,-0.48711473130328686,-0.04061059405552077,-0.08479037444677183,0.23569651746664816,-1.1012265176077913,-0.37687885786315717,-5.14975514591538,-0.6661486339262157
,-0.9035416569056477,1.876392168692268,-0.011043158848124542,-1.5354703777812688,-0.4713901563283364,-0.30107463694309006,-0.7555628466485653,-0.29944461551606305,-0.22836640971217842,0.2987214209532733,-1.388804464949415,-0.2814595269876959,-4.6585037259315225,7.226949604116593
,-1.2926362187516094,0.44491089162841485,0.04381381118351189,-1.5544028283692461,0.3550875655007973,-0.32361187257172946,-1.1043930794238317,-0.08392931022409532,-0.40509730621866047,-0.2924687448282359,-1.4794758273155246,-0.401579234018394,-7.562991604077415,18.254696565376893
,-0.5181400439783731,3.630633200377105,0.3732413988812983,-1.8107010074358805,0.038988214946113806,-0.338781131954203,-0.7474016034233624,-0.10950171796243566,-0.45082087351476086,-0.3537442010607354,-1.1033689472436152,-0.2845672964510892,-10.79777901935287,14.040951707925757
,-0.6977428793904593,3.064050524373687,0.19178073445023958,-1.385708194740954,0.35567748467987975,-0.37607251410561493,-1.0254121220916157,-0.12422353062405539,-0.9744599497360578,-0.6299698199604186,-1.325221236686297,-0.2360691154548047,-4.844429643822152,15.768005387005156
,-0.5487859187044817,0.45744883436830536,0.16832359519856613,-0.7884138844853263,0.6520530751794759,0.150393722021248,-0.4333058461172523,-0.35651149912816915,-0.8933094920775914,-0.4385751140784205,-1.3831408628862607,0.042202031637861605,-2.5864174929090225,14.14202020728789
,-0.26880576438560294,-0.39755846865961836,0.08209359120113716,0.5394040866250576,-0.18033953158508376,0.07076417416504466,-0.2389673884932964,-0.5639416049486972,0.14760097574377512,0.8547596497493797,-1.0845077854451406,-0.4901585830976568,-5.161658378880152,13.113046953272924
,-0.31451328378017984,0.8979650205955857,-0.21491939946644606,0.43546844429195586,-1.0163519328995725,-0.08197656643221242,-0.47401260759410435,-0.4675695764992023,-0.03719352665103931,1.139239991588041,-1.1616786211497994,-0.46046068605343415,-11.412974937336967,7.532487641605618
,-0.8410903906372781,2.7813562427099914,-0.20499693140430286,-0.5958992571413708,-1.0791015066984755,-0.7821033802606449,-0.6112009851503795,-0.6818800251406775,-0.8847176707555178,-0.23608601155247594,-1.2770584271253165,-0.16132771613468158,-14.045061885370213,14.808461944676067
,-0.31145551849601616,1.6098538821479647,-0.09116834159082371,-0.4246644696884617,-0.20164540787031882,-0.572933629823204,-0.2631939388635255,-0.5015241356709056,-0.46933023880611874,-0.10095032342677286,-1.1771384426840978,-0.2916123859070885,-6.273162422700299,-1.6986213336220328
,-0.013098960611599292,-0.7838251562875533,-0.18612397745037226,-0.11782326566693861,0.2913173550726081,-0.17388130258795528,-0.7751799344070303,-0.6971797714079322,-0.1788696107664656,0.7638839868173561,-0.8182170503722529,-0.36104072757479627,-3.8570519576057656,5.056502111850402
,-0.20959923625298396,1.3934320103136684,-0.16564145992323634,0.30657884670281604,-0.000822909336780223,-0.3603933025976323,-1.1893517424432012,-0.30534854278740386,0.27804992496299913,0.21013087387333287,-1.45403579339607,-0.4105610872821981,0.05679843122949097,6.508726544934135
,-0.319774852353024,1.7115514325556191,-0.27930093383950627,0.12149006404258493,-0.6855110581011018,-0.3935499585824611,-0.4807600000479429,-0.13410699636609122,0.7538242722704728,0.18397077262943382,-1.5685362641118217,-0.12969436115211613,0.45645823566272414,5.4080144615669195
,-0.922712527732985,1.5035916423859321,-0.003472927803508746,0.4127801532071347,-1.5827251837788607,-0.38130004302373993,0.016993268448200295,-0.2446066189774117,-0.33691608321790956,0.2605905107227228,-1.1672601740966575,-0.24139323116570224,2.730251829617415,1.860019157207627
,-1.34217026996647,1.585566154152819,-0.07956632578761572,-1.8281990239759671,-0.9914074042799239,-0.6643116458424242,-0.23194381468380618,-0.22339689229588353,-0.8206161135742764,0.2844149432733997,-1.0799884556394028,0.05303992829331683,3.5422363039696205,0.9260313890447911
,-1.1757262934363157,2.5260120252987526,-0.4704725701364535,-1.9134983954046472,-0.2070821590603286,-0.6904088689242202,-0.866327716969104,0.009540556075554376,0.036233051679494525,0.7565885344308095,-1.3025352637355738,-0.21263904493805233,-3.7763078651918014,15.137069497084934
,-1.202846606489564,2.233570770191693,-0.3960207874561141,-0.6663007161081687,-0.43878817603751685,-0.47870670111348995,-0.6712255285020116,-0.004037421220878687,-0.2549106886139549,1.593622485356741,-1.8112631331431481,-0.4995233086292655,-4.414879055183989,19.071525616615485
,-0.8804534507382935,0.6517151941443677,-0.25909719483267074,0.23809814844067226,-0.46621907525131595,-0.3218160151471739,-0.1444693139529531,-0.07488705701962389,-0.6045602300180895,1.2759080667678873,-1.4982034818495396,-0.2005494950237804,2.7302536742713364,7.484068951745568
,-1.1476119912931664,-1.5193121624435602,-0.10015044216408793,0.17343277318074812,0.33703506592415794,-0.02657545762599788,-0.6729682272314604,-0.516300373081906,-0.545411833544137,0.6887742057230125,-0.8859696182440184,-0.2573452334186486,-2.0208194216397137,12.419590166456842
,-0.8146824948160023,1.6813176717121627,-0.16328068058500297,-0.330657210878252,-0.06773005084488955,0.7262488241766818,-1.052644114256462,-0.7022827383768576,-0.1872399113051593,0.6492165416511533,-0.6362407155875801,-0.06630148550150229,0.23889745274089763,1.4890008429210408
,-0.7870396188862431,2.7978423706448066,0.007537307998944841,-0.9209747829120294,0.2127996936365312,0.46397535573062876,-0.4414518198991905,-0.47050901355274033,-0.16144556804570587,1.4438582576167975,-1.1124376991800795,0.23439160188816724,-4.583337955626421,4.78383912414369
,-0.3902946585139121,1.966662719450856,0.23372883085268556,-1.8222861268252069,-0.8230254823016047,-0.056382694485020625,-0.3786347532240257,-0.42806100531753827,0.2210232891384835,1.0140167755435034,-1.0573725212415395,0.3441643599483617,-1.5633707062146438,6.499885944863242
,-0.24558583225520408,1.5336460551207047,0.010755299259086562,-1.1388797861875604,-1.0072329408801306,-0.1350760325331702,0.4483724943449658,-0.21831811780134738,-0.004126338854950191,-0.24713998280314106,-1.0891707788451621,0.07736375312272085,1.5808195807570375,0.6989157088073278
,-0.7704476157033858,1.6746644605744547,-0.001510186312120758,-0.7318333956856787,-0.3324365025355292,0.18267582525470105,0.222423272819566,-0.7981661486112726,-0.24785431455319087,-0.13894772025281096,-0.8459406107596603,-0.022333968470357006,3.0358108445563063,8.22423670924747
,-1.0512829027379254,1.523959365376921,0.0754378899755513,-1.0729905547481695,-0.6342344534544616,-0.06321473822493462,-0.5900642374629934,-0.08347628403140578,0.7858874359980341,0.4312843092244182,-0.1250217694044881,-0.05243267690804384,2.4310806274984187,11.995710439468029
,-0.4844714883935513,1.6576823588608727,0.17522088655995058,-0.5935539868503975,0.05316122236621447,-0.24151719147045267,-0.2855611627353619,0.28603878839070385,0.8691652770519666,1.1832675814012648,-0.6901114328764147,-0.25014110078033475,-1.1432533795229787,-1.437341490282273
,-0.29461760152291333,0.9544247878459378,-0.3611285016357294,-1.0130128153808031,0.19900186684926163,-0.25028982468087135,0.15185479437267163,-0.10900591648442025,0.32394131853850594,1.4458828906980543,-1.3390774831402688,-0.059949352323674196,-1.5027704964763338,0.1969013201758126
,0.1905031958661818,-1.4142168139666587,-0.28422809196790066,0.5331789626487456,-0.07145456857191636,-0.14829097915592454,0.2703085813115234,0.007253862492752489,-0.2765698876790159,1.0403126588973968,-0.7927875089488212,-0.07709384530571324,3.250928578324487,-0.9402508824183461
,-0.14787949305781128,-2.521670765481341,0.4523894511384216,0.44473772329993383,-0.13681627623675544,-0.45693326328170913,-0.1551216946884129,-0.10847928994209187,0.43255736164294406,1.0006342594199225,-0.03147041663311459,0.03554541333134343,4.809161239863348,3.1350956198233777
,-0.08130060919916103,-0.9603897654102144,0.5144349617855573,-0.8676730516177243,-0.5499924877399066,-0.3347666489358429,0.10382297729640312,-0.19723412771472132,0.3130267631334393,1.2012835166011866,0.008117223510239033,0.014876355368822362,7.532070751807451,3.7956080392375444
,0.05306917389081325,1.4934069499486249,0.34535246921117363,-0.20126927046088816,-0.32461375412570365,0.3565229454755627,0.7045209504687671,-0.08825370741550673,0.2931531119500184,1.0797756971007417,0.09646495169664783,0.049306134053493565,5.959135055814632,6.614754453111738
,-0.6224288257427354,0.07856218422878745,0.26963168565582507,0.007482790922454359,0.41308373718388164,-0.3474684423389528,0.21937941952177156,-0.7118204154155797,-0.009226908781630811,1.5744566479281839,-0.6056358219479223,-0.06911643438689714,4.207270839367922,9.899381636411533
,-0.15132974238738112,-1.4335123939583314,0.3067151285203476,-0.5953258917107508,0.0496476664923212,-0.23415889158100414,0.14794414922594626,-0.5830690569697639,0.3218146335952159,1.1040506367228844,-1.108743000220819,0.03469132022389808,5.210710210568574,1.1115776025078716
,0.3731945906588923,-0.9168283671264615,0.1505336815982287,-0.45622884104475664,0.05242665737504527,0.14967994834169068,0.3003897616566658,0.25931015907112964,0.32724605454715194,0.4119888753375563,-0.5918760916716835,0.12556754777654638,2.2854266788607753,-2.1914373290918516
,-0.19244352495835762,1.229489421053767,0.26437223348392275,0.4065033670243456,0.17588611790706013,-0.26851741727769846,-0.30947699097053316,-0.19347096871584532,0.058784886495706304,0.9314859960329076,-0.37185490080440814,-0.2424211764041521,-1.1479439701712015,1.748588169022947
,-0.6637773860662561,2.9623945299245924,-0.3467861478944611,-0.6387359620783774,-0.06020085718101509,-0.4408385478659273,-0.3680677433408661,-0.4310368575388727,-0.49074647650448594,1.1069129459798335,-0.38858482516746257,-0.37023060186753937,-9.696041571092527,6.223000992123385
,-0.4649897859843238,0.5661284870058331,-0.482777903798525,-0.535084836453628,-0.3296583675067001,-0.20863454696411976,-0.01643788742060354,-0.6887445478823376,-0.09679886844798127,0.6274495751327568,-0.36522334294569503,-0.036019100342640276,-6.685625712044331,-1.0597363655623127
,-0.3134989592641906,-0.9352475174795369,-0.15741633183529757,-0.6634024170240034,0.5399759316977151,-0.1853474258312348,-0.3097809616690073,-0.6048666923512992,-0.43307263342267655,0.5006515476350604,-0.17630938006013022,0.14811592870882032,5.798586992631232,-10.799977125052319
,-0.42355547065596627,1.983438110804021,-0.1555479159058095,0.047929871548333024,1.1307880361324283,0.026156909342063682,-0.45844242703651333,-0.22716745273973127,-0.14698617714054096,1.0297624696936338,-0.1353649859496261,-0.302723527106041,6.630622313702476,2.2005386842978267
,-0.46154337601490636,4.167758337995376,-0.18630007502348184,-0.18021789591509885,0.3725119086652783,0.3059924990006352,0.45398957675086105,0.025195574382797136,0.46539666660815016,1.280043308686127,-0.8336016528882978,0.039995951286516285,6.7300891550957465,7.006651205229864
,-0.20809332615132492,3.542093948480528,-0.2648772261557428,0.6440765261631953,-0.15385129562114266,-1.2765331971498637,-0.09206368054471743,-0.18142629331657562,0.025916447132715965,1.2828044256843814,-0.8174950320091866,-0.05442580857183766,3.3748282041325557,1.6734795177487065
,-0.04163105374849896,-0.5298326583892418,-0.007410348411189664,0.6668417635448249,-0.10381254492594269,-2.1938960716911553,0.21831088864970968,0.06882080417296552,0.4099434316693032,1.5384199311224676,-0.2921547261251162,-0.3517308008425058,2.672533755945428,2.13598243330312
,0.13551876699675278,-0.3797524317733346,0.1572807086431914,0.8702072348359315,0.10963929196579346,-2.149281789563701,0.9535757087459384,-0.04726873368266929,0.8543523131392565,1.2982464778224314,-0.32027366503914007,-0.034221128075208634,-1.2551859053515984,1.1397835536693768
,0.34270447674271437,0.9269487757040188,0.477741495059402,0.0840345650644928,0.001041073247650264,-1.4042154436279406,0.8276723252192573,0.1728354679638249,0.28438515947274534,0.7550816817915474,-0.12955637942835652,0.09087988081218813,3.914590142617755,-0.20427955216876953
,-0.10719845510657931,2.048695454371836,-0.040583938062653514,0.1709299454569307,-0.5581161270681051,-0.3056936367235619,0.4941035195366734,0.14687601179533938,0.06628966915348032,1.1455296669713637,-0.21368674510792046,0.00896980257437428,9.60658445199722,11.151121626505207
,-0.3144066651780002,1.1537514510583367,-0.45761811012111003,1.3895485722851602,-0.4869504205396168,-0.5235487941964093,0.2348853072915202,0.4653378173214105,0.4939458972599404,1.403076850020502,-0.7619822582124683,0.3209002244300448,6.199643481043289,9.193546951312479
,-0.11093611054872404,0.4401198708742074,-0.3840286166892893,0.04551617714919832,-0.2907447433412136,-0.22200851574334354,0.4429328837220305,0.6146822830447034,0.48585265579265674,1.605784451702803,-0.3526414206857567,0.18999114756350743,4.820052349739866,-1.8830747991136711
