event,eeg.af3,eeg.f7,eeg.f3,eeg.fc5,eeg.t7,eeg.p7,eeg.o1,eeg.o2,eeg.p8,eeg.t8,eeg.fc6,eeg.f4,eeg.f8,eeg.af4
,-2.8987719198882287,0.09953019730438029,0.0734024267261108,-1.3523806974743293,0.34610934699514,-0.1279379805030807,-0.12323683168949905,-0.5802112434945397,0.4911052294693723,-0.3197430446079398,-0.15160120026743415,0.04019206381938523,3.8124492354275987,0.9662347245659595
,-2.2527946414120006,0.2175748904525111,-0.034951816052686865,-1.4103075609038473,0.17550641339823364,-0.5536479692322288,-0.32949433376020926,-0.2508854078636423,0.8768041582271262,-0.21148688552767533,-2.6677821601803386,0.32808340617467235,8.379755441542553,0.22531412435033013
,-0.2548379290892463,0.12838363154506768,0.2460156989490806,-0.8305369224526018,-0.3519428326420936,-1.4385568699636497,-0.19987581454679834,0.0797911650833712,-0.11026157517122125,-0.11180656977712482,-1.9319314891236572,-0.19428887104178047,0.8338800700808442,-0.13211913128528227
,0.8488083168838386,0.4580092379343088,0.18263581513227575,0.2813802990581166,0.6081754776945854,-1.3311506961004678,-0.0874293148938916,0.16505117591187576,-0.32728007671932885,-0.4725578751398835,0.15839994414713246,-0.5622551030196605,-1.184630363391218,-0.18205179979843122
,2.5353604088607615,-0.14941700132920438,0.05613387207627868,-0.8406925919202797,-0.026427323985831818,-0.49014952866109024,0.3224147031538591,0.2844208804231388,0.0035816463132823484,0.7564042451331983,1.194807849089475,0.15762443396719847,4.679121659945295,-0.6104525913808351
,-0.2741828357072691,-0.17067113804562778,-0.47664827813996846,-0.27342826171835866,-0.16672603354445611,-0.5405906282077662,0.4030154110364672,0.24944733303901365,-0.08362771549639252,0.7312120175788264,0.5279996523010823,-0.22674423945342978,9.685623606705517,-0.06970504944391645
,0.32312968485328464,0.1384241491883399,-0.23399633847576087,-1.0024630250377127,-0.21697772765764997,-0.4331575899638833,0.47837986233193974,0.9371401288437279,1.5735602732544292,0.8451780157137804,0.5138566783273943,-0.1405238386981338,5.168548398772591,0.006126760823183598
,1.533706799472438,-0.09951079733039778,0.32946821178291047,-1.5765393029435744,0.3450787700514837,-0.14231965439192695,-0.23681174967721513,1.4583074815964951,1.5471571856695185,-0.13713373639040985,2.785023300405744,-0.141527442135031,-1.1254657645617545,-0.9898088890930574
,1.3673460437505032,-0.5321343856611349,-0.16797270397912858,-1.8362999367411044,1.63237587376005,-0.764027622072148,0.056230481297630114,0.318542853301512,1.21042042632464,0.37358455544827035,2.7771621814831646,-0.09303382494963111,-2.873536521054854,-0.4731825816940755
,0.9667640978157138,-1.3346651096561584,-0.1798909494400933,-1.0347054405918263,1.850958316000882,-0.3397347413309237,0.606167577584173,-0.19170940187296806,1.0012712725549386,0.902708575099104,3.784437131142448,0.2216838695142304,-8.33645174798968,-0.7562745565029543
,5.1423563180436505,-1.8910212834369053,0.3479761615783939,-2.477790342309733,1.8223013116308178,0.48106352884912446,0.8438738820041742,0.12402841522664983,0.6138183416142977,1.280783961258145,6.331209663976805,0.31435026678873434,-11.51025695404471,-2.2143645656600093
,6.038292721919612,-1.7086296514835169,0.11682262995889495,-3.684641436775168,1.3283630786030072,0.18888595789175525,0.16611654943596893,-0.20282295774276698,-0.30351844542601725,1.356136633111805,6.355488406881181,0.4760069106107162,-6.015258375002626,-2.5165877404333767
,4.290216116831007,-0.6059408724257789,-0.19579770569888255,-2.8890380426613014,1.3356019005569633,0.2833999434935305,-0.45122290778581553,-0.6072412519694421,0.5222716719409869,1.2075207973287494,2.0043897269221382,0.4541162444745641,-2.892828675198427,-1.6012211241343426
,-0.368579754874473,-0.31165584635276233,0.11733416906172091,-2.0970442015626003,0.23574829621303034,0.5815944610163247,-0.8627510406321888,-0.8166551494533969,-0.3738992338475034,0.44001288285839124,0.25877973061451637,-0.2795642664931145,-5.371560925615366,-0.40334805692959863
,1.279765949270374,-0.6769484533277169,0.19418365392088793,-2.172246313296931,-0.19747988832616953,0.8088843883095149,-0.9288706656213062,-0.9237371457241288,-0.6293827927002832,0.49105943036422445,2.2723552307131634,-0.07670866920529504,-10.557343682436558,-0.9632857011954284
,6.289964024477091,-1.6260884301797158,0.30575621141233944,-4.36050591751405,0.7441672315711695,1.3949832613602575,0.33652799548089596,-0.9453874213945295,0.08286374911181361,0.4145006002224445,6.456602651799165,0.2624643253681642,-12.247827340831476,-1.5866805142323601
,6.6235706953785725,-2.173675735104401,0.45896403553263115,-4.632597819024212,1.06924213544448,1.1361715680590578,1.2679640736479154,-0.11075273752339151,0.9568076725283773,0.7023281936623313,7.717506569506131,0.8788209370128386,-9.247887237388882,-3.0760787914663235
,5.45871824522085,-2.026473535184782,0.1242930967105107,-3.7342438783206586,1.564143525904322,0.8321834515047415,1.4788772708661058,0.6369191507391907,1.5103074978934865,1.6146533342509701,7.206459941231902,0.9094336954309977,-7.48654245393699,-4.213379876213671
,4.251465394283807,-1.0651987234129772,0.20681741349454294,-2.5524480541644374,0.6667113143986292,1.3730289522679517,1.5556639159807772,0.8324239456705296,0.5706531721435375,2.1563391071578186,6.077250188612401,1.2230825617874899,-12.342645348253614,-2.885598974959679
,4.880111361326024,-0.5515927284718118,0.5940684598684786,-3.111347600343215,0.840425103266905,1.2422861130470157,0.901096726126652,0.39154682302046573,0.8334304801674954,2.9497344223602013,4.819426722518954,1.2047108558504085,-11.501368236185538,-2.06791388130181
,5.310967247021107,-1.1364097069470491,0.4299412723516726,-4.2093512293413715,0.16328501773672227,0.5650921951206884,1.0448525056720854,-0.26785210979579926,0.48953742543968565,1.3620181567020697,4.723805600993914,1.1493324723868135,-12.550432605463412,-2.1579196649210943
,5.983206224319915,-1.9279128574575646,0.25221262829477736,-1.949611006075349,-0.31075710452792615,0.14434652989163355,0.3470519608268393,-0.21724245531609712,0.5378612130128739,0.004673029707743852,4.8235481308851575,0.7773996811906672,-11.387510542775367,-1.5868896698406256
,2.9925546785839217,-1.4728052673451502,0.015674098064608115,-0.11400400945105355,0.7577933884537836,-0.1061628403793958,0.06715778717520608,0.02819270234074897,1.0269880654374455,-0.10430420586594702,2.092250656022193,0.5503558494834885,-5.602129922350904,-0.8690340805034071
,1.572488493887548,-0.818957614712417,-0.07645014002459415,-1.104501375338547,2.0119714963026394,0.2755735325912774,0.11779217362903531,0.14040854986079038,0.5178846636133951,0.2582863261447337,1.999431803151356,-0.1356977072615713,-6.2891821555452925,-1.0565636751339005
,3.1229262919731933,-1.1082155049649944,0.44148617762982684,-3.3290090029621267,2.823262408511018,1.1222059087649028,0.5846499770218848,0.15605860446423636,0.5720902510067489,-0.13354461261327766,3.517885993749309,-0.18421672120375598,-13.120575290931031,-1.4794273576278814
,2.5267754672828686,-1.3335155182041791,0.4394936862839273,-3.129910599981249,1.340653644601847,0.9518341926407742,0.12131074775319903,0.19552036230469175,1.0791055542176247,-0.06808938967897207,4.708917133732775,0.09185259654441127,-6.09004849548667,-1.0595271155137398
,5.389757172753654,-1.1893051009632514,0.2741196993251074,-2.9682451919567896,0.5384281814403875,0.731422057374361,0.06613253480243776,0.8030055237235055,1.687478365105279,0.691229118684135,4.626961371731991,0.3296232634115637,-3.388812205255051,-1.3164963391332223
,6.366104333300846,-1.0628512895209798,0.1633278035308213,-3.1666652171593683,1.0821499620356734,-0.27231229889509573,0.19883593005879208,0.6376774657802504,1.8861521309279607,1.3237104287195813,4.772534972021644,0.7683526927308126,-7.820165120077753,-1.5733280949763526
,4.822602274259435,-1.057067583766653,0.15407185351386798,-4.207265863984987,0.04682408866915829,-1.3177108500207253,-0.6782622596089193,0.18135295007399202,2.1750126370408296,-0.13145490808962393,3.4918344911817023,-0.08270491470642415,-7.932096723461138,-1.2873787669351713
,3.243207154237998,-1.0863872783146946,0.3705544523107946,-3.7439558527595183,-0.13385426987131935,-0.14003634285493444,0.08601965371481277,0.9178930625210635,1.4290086818004604,0.20072737267327265,3.817606436823083,0.014794788789398742,-14.671300664777535,-0.38330066351165437
,3.9743681996964986,-0.8695328208307213,0.3657842941975109,-3.063114975387432,-0.1361586101332953,1.131770068165779,1.8203720128258776,0.9865797250445473,1.767627059681107,-0.16418113619783786,5.235661916648911,0.4373187416318185,-14.990123622396553,-0.24285488296473168
,3.9314878346934914,-1.3819197557742113,0.02360215978764777,-2.5194835386334664,1.420138964272126,1.1400777532189592,1.4161831196615984,0.4465896284894093,1.212436046141019,-0.2060963665568315,4.038379541638292,0.7308322497890101,-11.350118475195421,-0.8244456279593173
,3.310588736952397,-1.6031247221595284,0.007554293423483359,-3.658713823241738,1.2224744408180288,1.2395749932666087,0.545067369058881,0.07808621411285546,0.47637350579681315,1.295867118350117,4.419042234500635,0.5237350043856484,-9.385483040329765,-1.889502235073126
,4.505172446944044,-1.6386759426191009,0.3856693597936746,-4.877138829317797,-0.8042660272643024,1.111437737391177,0.08257843790218697,0.7472429167810843,1.8887137996119858,1.1384537635418528,6.187009479905275,0.3838902260552486,-17.103277004792254,-2.0175893448843163
,4.7032100558145835,-1.4363949683945447,0.28829813836132107,-4.523288938398653,-0.9550416226115359,0.7007634231099028,0.27771388847043615,1.3241629443332403,1.3104811060228088,0.765599841119602,4.4023853178743275,0.5015052528306646,-20.800900937670594,-1.7660484461636201
,3.6970992242049077,-0.7928522114480973,0.08720859168845138,-5.835152667250414,-0.14239527160202545,1.2615861828361101,0.3226715253403792,0.7211402462944627,0.18769136819264007,0.9056430278062224,2.8672690981505546,0.4386196497032331,-12.093629061933528,-1.3216980297025522
,2.431053378584765,-0.31712642317101675,0.16600728938379397,-5.922812310743814,1.0069617248084133,0.9067785755187122,0.634597341103029,0.8261313278151946,0.6083613631045682,1.181121601376513,4.1566195280388225,0.1815029782759709,-9.450824971955889,-0.7221211118200342
,0.16254724745440904,-0.23155678852012435,0.008022746461176875,-2.5789634661785206,1.4398291123269449,0.6900213248651806,1.278704064192762,0.0249530812792343,0.4562336004408896,0.9438229469133449,5.793474789399646,-0.0036876652289754377,-5.495012568397495,-0.873523386995571
,-0.6069594315499633,-0.7866775184143294,0.0589109161933195,-0.6204381452266146,1.567722681856282,0.05394164665546392,0.7108135179413195,-0.3478694304392767,0.8224395400481556,0.4400574592806096,4.115090439622776,0.2058311052254466,-3.71472839850217,-0.20048760560521683
,2.2059831273548207,-0.6560728163702247,-0.1637583387653054,-1.1527890225477226,2.0896081941078832,-0.11562083753215632,1.4464454088112737,0.2335495507418202,1.0675477318491855,-0.17839267489674404,3.8078385580029983,0.25293389031607033,-11.540899780522098,-0.44087754775585436
,0.47846451357696784,0.2546472618570801,-0.1037012876978037,0.22059563228777468,0.97008728330057,0.16549846770348273,-0.16360434523674938,0.5270415391541584,0.05958107817100324,-0.11592425079848506,-0.6277517735302991,0.5126882111451019,-6.27207722801717,0.44273892261390907
,0.20684643609566547,0.13643496029709062,-0.2668997557353406,-0.19696001341985067,0.8777071013304715,0.2714939182783801,-0.8104009194142509,0.5325979225649119,0.4433913848942767,-0.05230156663822616,-1.7505107522956063,0.26001906251719414,3.8166690709723583,0.3621153099620834
,-1.896572027775886,0.4730272292644077,-0.494546801439057,0.5003721663864039,1.0315136790439663,1.0615786133260827,-0.5796256070649564,-0.535764131742967,0.5667678357514031,0.0962361641912704,1.1238025359876442,0.29999735637983704,11.97983219274447,0.15635913213093366
,-3.2290429228645303,0.6587967378660714,-0.5219396045713479,0.9540350916408484,1.2799166324975384,0.33002219175504455,-0.7509752759296943,-0.9815551320878042,0.7742914946924211,0.6283604373484032,-0.6325767245298635,-0.14726222471567763,8.434305163281016,0.6247047588362116
,-2.4253867621459198,0.7945018815257991,-0.08156903830573944,0.797047553780979,-0.1571217057828536,-0.28945203813853426,0.14239538130844834,-0.4797043133463398,1.0661373707899933,0.5862610211139444,-0.63027554610761,-0.20347082727696253,0.04581958895030439,0.836196313190434
,-2.9933887464670073,0.4273606888690616,0.006202523039277182,-0.524833178262022,-1.0297842489249551,-0.27967739873230885,-0.26583709036286945,-0.24999840244667007,0.02726658706852686,0.5277088867435038,-1.9216273979097478,-0.21124181803555853,11.267325268040912,1.1046160790814166
,-3.4997846418178646,1.3665091017959472,-0.2899922513117214,2.499728113306927,-0.24726079015042463,-0.8106495749752958,-1.3999771962146792,-0.46955017306753816,-0.71800823141002,-1.3223129283775101,-6.345422423634615,-0.6350082266336614,26.051658672729072,0.9175987054490162
,-2.8909363069149876,1.2496908042982686,-0.4141021415743674,2.1139918569151464,-0.1922629394105311,-1.0976330219895762,-0.6643817418284754,0.10071252362034022,-1.8671152070722614,-1.8298927369322424,-5.849565931573276,-0.5552278531423073,23.481677970166295,0.7576766882353246
,-1.8610106593288278,0.5489710861416415,-0.00651570750245662,1.2483956281811637,-0.3336606156170625,-0.5094645786258178,-0.021304523152228028,1.0563171737596895,-0.9894117734911678,-0.4951295801346555,-1.9609271457341086,-0.3102541208897765,5.448253634135304,1.1746591090523057
,-2.248982499586063,0.8748373377362098,-0.19361925061043198,2.4948255986499075,-1.3496832760355753,-1.7641109711722507,-1.6177214628638728,0.5131653419541503,-1.088328147540487,-0.46145052905297174,-1.152707538354535,-0.6448728863357165,5.49222967941185,1.0704818282595925
,-5.3610204107532775,0.977891167862235,-0.8642244365276109,1.7266122899911989,-1.4994342132465388,-2.0876633883042652,-1.397754346631895,-0.016695937797728433,-1.424913792168836,-1.25317058739645,-4.42591132842121,-1.2057050848653141,12.347448877290695,0.9245351627680137
,-6.417183094479226,0.9231657057271248,-0.7827606542146753,1.6954930832210173,-1.1293224358858032,-1.5734033513338648,-1.4287741242389178,-0.939377961321851,-1.4934087459747936,-1.0611922211238292,-5.673755732101373,-1.0544443700630786,14.371159070441303,0.9619016019587393
,-5.124703917805705,0.7544668317294032,-0.3728441116148546,1.443606323488583,-0.978853439710314,-1.1171949726239168,-1.6475255283218588,-0.7813774758102396,-1.315417851896265,-1.0119109430429662,-4.870029417617789,-0.8515472321818766,13.186536492730053,1.213016773821348
,-4.312845895686567,0.5802602576474917,-0.542036165635027,2.493593510040006,-0.5735895432982836,-0.6669715960741782,-1.398817245313767,-0.8068106312845107,-1.4886692212827666,-1.6301103977999503,-3.2945407753389038,-0.9894978295113531,20.327273456016695,0.8279120242109428
,-3.986900421047392,0.3025390518952624,-0.4027836942626485,2.0203169361745603,-0.00646306573227634,-0.9977431624539377,-0.9254690184068224,-0.8187912161351825,-0.6195951391273434,-1.609178081893554,-2.9068209294364276,-0.5994520161730164,20.709315509418314,0.5268365013978767
,-0.9601217673760598,-0.08465263185227256,0.10090492602530665,0.4579443540192275,0.49055319880324233,0.297291662794734,-0.41940314854300886,-0.4479489449345791,-0.07290904115062326,-1.23018091824759,-1.0567521815635075,-0.050365555704840394,9.555457749280588,-0.2643310796167336
,0.648232108913827,-0.10218800771644676,0.11234654196669981,-0.9774064985989466,-0.07878535213740172,0.27043197520231343,-0.17802374275383448,-0.4874190140945288,0.0006073937146935378,-0.635958731916925,0.5241929839548474,-0.039922358868989524,7.495679803850917,-0.06251687105653897
,0.6092752557106391,-0.023152892642243066,0.31232540334349274,-0.9210717148559384,0.05299958083296468,-0.4510458497230137,-0.7945192632883834,-0.05593539662263455,0.8201105474293963,-0.6345053963465745,-1.8264483485809457,-0.5400180379621163,5.445097603406687,0.4947695295607657
,-2.2137645733823623,-0.020845965398734644,0.24268435655140586,-0.24073267480326188,-0.8400704677403851,-1.1171170164855282,-1.2163100397461173,0.34817244543908515,0.3026282244937225,-1.2228925154051438,-3.244504279122677,-0.3871098473198641,4.237812387505484,0.9634239108171473
,-2.543619662772349,-0.2709138708182848,0.08183857366357751,0.046246479128960065,-0.7061001588680438,-0.7325331658939942,-0.629283752138568,0.011170375664195025,-0.1185328834781016,-1.1502831566357625,-0.9716334328371953,-0.17166751261317723,4.348862514915232,0.5541978092902868
,2.269455825962923,-0.3924346986912628,0.3784557712830386,0.2924901373427507,0.40052832120182186,0.06293380950185294,0.09187930441199921,-0.14473824279497324,0.45948999796691026,-0.7410958765053095,0.21080307876692664,-0.3981872511072388,0.8023576855571944,0.11821738685094708
,2.722308394654365,-0.5701908355411651,0.11052652526530221,-0.8327900287507664,0.9137296909024462,-0.3883775488523071,0.15242659185616755,0.05114617697041745,0.9608188403547997,-0.38186807612454093,1.999164653417821,-0.16233368773362825,-0.3671742667149787,-0.4240340613001135
,2.513683069933728,-0.28329360816374416,-0.383201189857182,0.2773745852157268,0.2789780193134588,-0.3467293969584569,-0.03121343272719025,-0.049095146362156374,0.32400253618796904,0.49924634752593955,1.0306511715717581,-0.5629519231610315,-0.8751520829031925,-0.9433112267045223
,1.3395362903672983,-0.2640071335134473,-0.41391222121678534,-0.28929367542442236,-0.5413513596023485,-0.812832054688593,-0.30324354150815624,-0.627616692299589,-0.030865843262810676,-0.0014674565019412395,0.8182904079204057,-0.4296301654343269,-4.85443178743662,-0.6874291349002618
,-0.2581996290125144,-0.24168009995039957,0.12381350043176001,-0.16382069810680888,-1.4412032631408231,-1.511469893284026,-1.1026600219382878,-0.8924850469644191,-0.2782321062157347,-0.14216470748624838,-0.2912631796048878,-0.284043422246127,-6.728516526290905,0.25920005963013554
,0.7077127037582329,-0.745679498751315,0.10206367244568958,-0.9904599434285354,-1.33212655057329,-1.3151252437627217,-1.0252768305580824,-0.14109972382830996,0.7087760455712426,0.10261112476067492,0.7426970643122839,-0.4355165062030575,-1.0292599893611143,-0.23924438308834267
,-0.14390740681682815,0.042340821825181424,-0.30841365888540834,0.8414649704638445,-0.8401951738060229,-1.1925792984402512,-1.1590962451816416,-0.03492272822349698,0.590680924780018,-0.12627430354176766,-0.026497708877231428,-0.5892644180278399,6.700994851482834,0.3471466995811611
,0.14444115997286316,0.11099710818974579,0.09029820972221604,-0.10058346603665011,-1.2570689136600195,-1.2513550534493703,-0.5218563115946757,0.07219156020357387,-0.2306177908630599,-0.2651837277553156,-0.5033130267816114,-0.3492176900183371,4.082611211177316,0.7969888591280749
,0.45109961639284163,0.13375983856837528,-0.0920687295025822,1.0304375136207606,-1.6656641122811153,-1.1358519809613026,1.1635461761217483,-0.09401161704187311,-0.6790646302719983,-1.5202932396517004,-2.283497825200642,-0.3579656668356249,13.750354230163266,0.3352503138163183
,0.35377925604286364,0.19929344586232603,-0.09084420035806662,1.4296420757769823,-1.412610861072972,0.1047914198192653,0.3620670699497967,0.02525762524253603,-0.07055231664027617,-1.5444672204379717,-1.9791719807018207,-0.21715823689363406,15.66333055670564,-0.49751882097026306
,2.4877541766220945,-0.03386826335140423,0.16898976587980769,0.4116709482242643,-0.11250724019152146,-0.36309913432420204,-0.5920571958829725,0.149727210466836,0.2822026040663163,0.9370756652485988,2.102860403291354,-0.5218322074571285,2.0783208052274778,-0.17113684461969686
,2.5577477579812506,0.55550162463293,0.19885825400042828,0.9796625444552645,0.6009051878074297,-0.6112801846587174,-0.7772915101920167,0.3474402047920016,0.7455477464868555,0.476392771454382,0.8674896118396258,-0.9329930403522958,5.208592635218494,-0.1577176999239825
,1.0653943829489914,0.1899461112578382,-0.0011638547970103,-0.7303062776045496,0.28314786650074836,0.006485946317081342,-0.5309466207266392,0.14343121202163334,1.399276958081659,0.9842396929111574,1.043900558771263,-0.8759635109789082,2.301284010246691,0.022381219123314162
,1.701511756799343,-0.971396978559184,0.011702899587781247,-2.2558717846735434,-0.15479307584118365,0.4643582225897146,0.47358934120053664,0.31815221369420643,1.9984681444098307,1.4905070881476172,0.9400189699283019,-0.12209296213394778,-4.096713137165208,-0.2891827919356429
,1.7742992387555954,-0.4250871673850399,0.3586226454526192,-1.449194124444657,-0.36293784950377983,0.38791926116417463,-0.2602618099796524,0.5895435197436066,1.7895117640508393,1.2307027765221294,-0.12640891365368295,-0.15832022038252677,-8.671771034927591,-0.25963517394523095
,0.1281106820269879,-0.3453391250977467,0.31086070737824395,-0.24050754286937495,-0.1511286536419805,0.07717575261284298,-0.21956023079808043,0.13797432479499397,0.5574632426214674,0.135047650745324,2.040750771975488,-0.07360674770140536,-8.647552640427225,0.2484086344934167
,1.3749584214011972,0.1904273271821967,0.05292901982862468,0.6379316150257528,0.1023179538948921,1.1586481118776182,0.5304054188886719,0.5692885093547003,-0.17141820277751935,-0.535995659942811,3.5646063643970636,-0.3388574759617419,-9.84733030613776,-0.5678018860079479
,-0.8165567632815605,0.3400374653741866,-0.21608289553588927,0.6686431340926132,-0.45794791885518416,0.9079086064803341,0.37091946323088115,0.3452976188403033,-0.5216318901138465,-1.2445293088160907,-1.4695121166071337,-0.4976699910642802,4.137924548130523,0.42030938429549425
,-2.1175516101000387,0.2012160490351683,-0.20959474260639843,-1.7672923628039718,-0.7858409831160591,0.03733870247893423,-0.036709847935968466,-0.014429013415361168,-0.33316532593050774,-1.1058112726821374,-3.6847683938200557,-0.634134317368484,8.351533804626461,1.059887896744224
,2.4297579395991473,-0.21792248791031363,0.55014150354221,-1.644839054929018,0.0722651446957355,0.35361805951190023,1.0631273102261798,0.49585633377760663,1.2522756221383837,0.6401892488105094,1.2716453193989756,0.035105475883135416,-6.462219584961068,-0.3392640111512915
,1.2181420242839798,-0.3562393875124711,0.14850904529820744,0.44739737895231574,-0.2535253037110232,0.15295866854156404,0.7133507024345082,1.1458736501279538,-0.009335215554610476,0.079686815904554,2.008979980564541,0.0831336886850377,-3.3187785312283036,-0.22792353003622123
,1.384673380759132,-0.04075722586267822,-0.04148741560325297,-1.716617045498399,0.8237154028461129,0.5414700126592964,-0.319017398846746,0.3450791558980942,-0.2740138097896773,-0.0017838319974473546,1.348324097804543,0.35435107655681164,1.2437068093392476,-0.36035797365430444
,2.5078633331844378,-0.3977332054502405,0.12885315791200216,-2.8741582865392195,1.314395930809667,0.3969340860353222,-0.7803118426784322,-0.05338697285781661,0.023093272668496985,0.6006217201449391,1.7087377610801158,0.25151490204537746,-1.8676738919223528,-0.48963003866569005
,2.3441724160437363,-1.0175509058817114,0.2897646076352793,-3.4394432183532326,0.17142161151092417,0.21990060144665052,0.08952504446871634,0.6509120615243826,0.8067273020955656,1.439142761540872,1.2486599614100107,0.13913526017514738,-13.424426584385273,-0.6312562170102322
,2.1148457726001975,-1.1912622522269702,0.33541966989903066,-3.8282599618957076,0.4916550988820284,0.5509407483801884,0.19245478192180107,0.5304225046779948,0.790058489478762,0.9292719759908216,4.418250059844113,0.32119873596199666,-7.182384118190819,-0.5857873303307743
,5.0669207750840455,-0.693663753999787,0.23065246611180015,-2.057750337759299,0.35230906253993866,1.4932762897121428,0.46831873508778527,0.3892383882311688,0.5900874263769877,0.9242334594941582,4.8168313423559095,0.19072929358905982,-10.327131109551527,-1.5063404718750302
,4.565798032232136,-0.6403972857010515,0.02125829538660194,-2.647436543355405,-0.11622942169811808,0.5635823203161813,0.7894841537119167,0.30392178448002605,0.7720112558218852,0.5395568819286043,4.0705363907445715,0.09092379795235117,-12.585396616851455,-1.076227019128823
,3.860307354108868,-1.1590862792258199,0.34531547445411626,-2.6628614470576575,-0.7301494162876715,0.26977610194552926,1.0142384433083864,0.28776341766780106,1.7173779790514008,0.48260135834378526,4.395389092367663,0.06097549380390539,-12.602778775535267,-0.5567318685700304
,1.5444149793215547,-0.5321401916401662,0.43518060237661926,-1.0018601396306976,-2.1044619369536774,0.6758511421138376,0.0359187568418797,-0.16127682933144258,1.2155056048140402,0.4626437783341023,3.2534841986004595,-0.14438092987442533,-6.355408068109243,0.4658040322107209
,-0.6952942052966429,-0.11611925394790967,0.5350867688591321,1.9151345743678865,-1.6183080579464777,0.26776372625671435,-0.28772837471165763,-0.29581124580239565,0.6866248756772857,-0.6647624459047373,1.0664547771108293,-0.18608925579708818,0.8782747351577739,0.40490711668293916
,-3.6175045857407846,0.054422477740151784,-0.029187276039898066,1.5781299303347354,0.019571309609603883,-0.19762208522154817,0.3090994250331989,-0.30131276934840295,-0.4326244453974323,-1.6908138464032751,-1.7043366054749247,-0.18215765818291363,7.159840925142239,0.7800859162406082
,-4.82949448294395,0.4997310334631979,-0.5189217446595797,2.7328296621858152,-0.3949776204301988,-0.4033537502717539,0.23746172084737718,-0.6264626173485216,-0.8190001068393882,-1.804027005090826,-3.1790107436838606,-0.04906657693583188,11.967269918328107,1.2754374286580887
,-2.8380099467459674,-0.1598807836258625,-0.32696748605147646,1.6359725862541699,-0.43967058416473537,0.07814410001622962,-0.14038892515557225,0.04862266733786773,0.19302314072990556,-1.0055088826117837,-1.3046532375087165,0.3905413853252056,10.369176573087728,0.7901001703028999
,-1.4027077444904377,-0.2295035992925526,-0.3157422655073285,1.2627322400324377,-0.8923942580581152,0.2087336752882027,-0.8115351823007981,0.40151062921473873,1.1311496385395168,-0.5471730465231439,-2.581813690850354,0.13961922539740013,3.0592324938226647,0.5538188665384578
,-0.9956743801324321,-0.41479308598714176,-0.10826323572892405,-1.8003053401056244,-1.547598307052883,-0.6578527402484479,-1.2581792101795506,-0.4851622449240013,0.4198476884098714,-0.47519542571468815,-1.2276575695868244,-0.594532035160054,-2.6177674146139687,0.2861887972036923
,1.196908813439844,-0.6392985603438953,0.07027034182864043,-2.5940249644795297,-1.0516848260478058,-0.500556329738341,-0.4746015263270822,-0.16943758077362775,0.4443310312890128,0.585437842105382,1.7996979123606842,-0.4810595832398398,-1.2435618320147734,-0.247088019852038
,1.5011395792650217,-0.4579750751532774,0.5165822724440537,-1.385100782750053,-0.39075902397963835,0.054598718559665325,0.5767479126149418,0.43826776847649396,1.7553797097837156,0.8871943485930336,2.1630947566108434,-0.24675700033975081,-0.6579805162884041,-1.176598502070347
,2.9243441196067774,-0.6217180865294032,0.408229359336913,-0.5694977954609691,-0.5130218217740677,-0.3923176356956313,0.2902263938919317,1.2691128121004334,2.8092950978488433,1.0714147836961718,2.4962534845567266,-0.26749267806448906,-8.809229277253777,-2.219203823679387
,3.5825193474218144,-0.238252097667912,0.2045232367517546,0.0731902612373685,-0.47193293949888204,0.30097678507724496,0.027450797771362695,0.8232978778172193,2.4875807899939537,0.6765381946349183,0.3598530109573444,-0.006517605978095812,-2.9322143408552517,-1.3643894679492579
,-2.8846817812188377,0.7836947979811807,-0.4576894490108668,1.19966916690836,-1.0199624691897717,-0.6516258071883461,-0.8831982420138075,0.06755524337054179,2.109290406509449,-1.496833291838386,-7.722309876343078,-0.9231573422237507,22.667479757568454,-0.02067487250139447
,-3.5066081240011973,0.6494068040603507,-0.48971118164729627,1.0672956586766054,-1.7049742961347036,-1.6872065748191942,-0.8006969540571095,-0.29979395579314205,0.8894702140963981,-1.7326521228856566,-7.404288534188894,-0.795947784395174,21.04271935808027,0.5428108382550664
,-1.0974107446408528,0.10698817163442692,0.05819869542973367,0.9592421062940713,-1.5787089273889818,-1.251397211396304,-0.13122526904460324,-0.06489575811530451,0.5618647593657748,-0.7496329212778408,-1.5698159118047004,0.4149402131544176,4.257786337336703,0.5670515098884077
,-0.5275699880466839,0.03893795569402921,0.26773604667581535,-0.34034792969113525,-0.5644727050752697,-0.32295868734270744,-0.5315869497987743,-0.42918286343145934,0.31583357503066084,0.2807567704892219,-1.174084538595444,0.024241038067968044,-0.6521079959637117,-0.0071845592044346126
,-2.9167353323880616,0.2542676992293215,0.00935047264534154,0.5735450527122177,0.8058453361838595,-0.2981811931296969,-0.9089582262334723,-0.7862965413387578,-0.698142541267376,-0.09728559356965216,-0.3074535473595777,-0.25061386125371576,0.030990471429506693,1.1325469539409492
,-2.9613471067949195,0.033806676422831215,-0.07643138340479648,-0.0987037420331807,0.27682070228288747,-0.2705120558360642,-0.7919078512036234,0.13961971793237374,-0.3689906990012775,-0.5987418252204998,-0.7908334513936116,-0.5114623796731524,0.3651820634772206,0.8948561011009956
,-1.4673288601612213,-0.026643298464303793,-0.33443245313204895,-0.23088961780159806,-0.10726668733389502,-0.6924817829244243,-0.3150192603237527,-0.7163664335372331,-0.6945379820978071,-0.4618408488744385,-2.1679629883873806,-0.4688361591205888,3.5501617132672525,-0.17042729704105064
,-1.701091153236848,0.08849686529258091,-0.29005892281907014,1.5429957185931962,0.42861715404831335,-0.22422254951185333,-0.5910080379812576,-1.0939192965136615,-1.142345772809619,-1.1051757275488492,-2.70378996227976,0.17244995013666783,9.672233782210169,-0.35911446998099406
,-1.7434208862269864,0.1809370223914928,-0.24341744374551644,0.42282564446266235,-0.2989401636613645,-0.2766333438387719,-0.7798173275630564,-0.9875940558509412,-1.8687346322205745,-1.016682906972077,-0.8127136797190098,0.37356232305569187,8.594499006227178,-0.09117038560449844
,-2.2333752965980964,0.2316980976040141,-0.15111150323107295,2.5862610135616713,-0.4747409259973056,0.06317578881257038,0.12493983062289689,-0.7346658078036181,-0.9460525422492904,-0.5103086325986378,-2.0257492857379744,-0.14176135103337023,14.210307781082967,0.06490562572726158
,-1.2313396537399224,0.5269322787581924,0.2763764037740879,3.4131521538871006,-0.46655182122664574,0.4982366803312136,0.6662551920449015,-0.5189808013826639,-0.924513947909184,-0.3218826244669531,-0.25146239815494376,0.04592413016237508,3.6907844091132076,-0.14591822045361572
,1.4070654421433522,0.3037176346399595,0.38131265832626066,1.4208851700985639,-0.2764612794355819,0.945786811826988,0.37026929340566883,-0.1495531197229365,-0.29017582898571803,0.20953465112144398,-0.046891820542745336,0.26273041157715815,-6.647064136078759,-0.0033077342322856786
,2.450217900419395,0.24043795461753845,-0.06700562422277972,0.7452094459826665,-0.0014607140230011866,0.27740975078685814,-0.05631214650253084,0.049274631242125354,1.3134448381590862,0.32186350656733376,0.6578075565061821,0.24141619407176085,-7.648388549189199,0.5077345994698341
,2.671682179445895,0.14507601829028158,-0.0005508199041474721,-0.05545390261190109,-0.13216958274988494,-0.23862786392923935,0.123524184242907,0.4548905150996237,0.3803032276095935,0.681138607300237,3.2432634365635575,0.6250341809379303,-1.4745703591638302,0.2455147802652495
,2.318652550822362,-0.2869774411260886,0.41293077587584437,-1.5370274242880533,0.30722754536554586,-0.20880117547117247,0.264834815897259,0.8166742834807422,0.5980513461812023,0.5845792890408207,1.4135800114670056,0.14539472192992856,2.187174474255474,-0.4747773899264061
,0.5871486951461751,-0.17744059108752838,0.04454607251800684,-2.3733552905262716,-0.7450709608728117,-0.17688765950747412,-0.24672367263008455,0.7634171609392482,1.7074197335839454,0.5566243675444611,0.9889314984159261,-0.20437441341612647,-0.3338906762022146,-0.48758719158933955
,2.7266066746514346,-0.7146521354386725,0.27869742628125593,-1.4477792888523096,-0.27630760501892354,-0.005167055284946071,0.4931057754304183,0.9206784565425051,2.0574546410841923,0.8055163428973878,1.1044657912978701,-0.26331092678495366,-9.727537648147162,-0.6828455361501884
,3.9260056726987203,-0.5899441543335199,0.30592294750753984,-1.9485554961056686,1.9110603027608755,0.3224688300768914,1.1987902904397596,0.7793814756314487,0.3097400208277777,0.13787840048929334,1.7291892529684603,-0.008262353995196172,-11.872446099541717,-0.4455975846025057
,2.56115280721448,-0.13613234406199742,0.13642049829319577,-2.5555158803929805,0.967602720020994,0.8000471303548657,0.6811993119811587,1.0218624608046694,0.39370400506921366,0.07595046605440424,2.3451442674285445,0.2901548093407449,-8.136225203526454,-0.3083945102209028
,1.151912787964295,-0.08080103476957959,-0.0071148977798043515,-1.46883873611478,0.15377531447056259,0.5465668802780533,0.512264498297902,1.1077834183044735,0.6164629363192415,0.4265302788585385,0.8963189807663788,-0.1130745308914385,-4.05450070120231,-0.7418278639456338
,-0.08103374994927194,-0.2744826391853104,-0.38820764003848696,-0.6335187621901466,0.07072016762801323,0.9293072887867798,0.5929375395328949,0.47738024574038607,0.5874638946010114,1.0856687951031603,0.19552298318534614,-0.2009617666220499,-0.3523224881961324,-0.17288530870903104
,-3.839791938723246,0.13577726389233175,-0.6131613090493581,1.025869765015874,0.00048213002260763353,-0.4171285830815647,-0.6755619906146079,-1.049507688021022,-1.9082490312908489,-0.3044903949373601,-0.7234661946241254,-0.4331902296440507,4.339933818811809,0.6784284812681858
R,-4.330477162468601,0.19445150031155092,-0.7730584815642577,1.5064688552887986,-0.7890311391028141,-1.773401694648863,-1.0511389834407172,-0.9680081693264553,-1.9940272403626391,-0.45996655767028594,-1.1478214853744924,-0.22986691769172043,-0.07468132135165773,0.4774900051249891
,-1.109176367534497,0.7187098905101368,-0.22041132981380915,2.157700466736714,-0.8325691983552879,-1.629927014817976,-0.4622543131372573,0.3509294595447676,-0.3575773408012646,-0.3324426218470021,-1.2178105006309505,0.06453208269272853,3.275690118761607,0.09954471855571217
,-1.7398494060022238,0.5169925835726356,-0.1437116989283182,1.9016234454501515,-1.4751578953166382,-1.1200360929618591,-0.3354795244506516,0.11657009706101883,-0.2677614822056712,-0.7144505246487544,-0.9916438824081879,0.41030119034062246,7.1834402581264944,-0.0030468824625328084
,-0.9861898598016144,0.23283248470713946,-0.29704092165486895,0.4695976115826213,-1.1870638905063584,-0.40741482341969004,0.41453663826702114,0.11094136386657165,0.18295066555075032,0.7770934367829633,0.9835585151694939,0.3939985236576158,-9.176146190096517,-0.5669863972266288
,1.8088212822778262,-0.2333243193765058,-0.013788925865497004,-1.1018589702402517,-1.3975856998786795,0.09948058353287652,0.8518788458357005,0.16442612103081677,0.5023738495571753,0.6051293359050884,0.45843715304640603,-0.07723710202756072,-12.348589538259837,-0.617113834764386
,3.2486415975284944,-0.9299826456808185,0.23869241746986308,-2.2157211368618213,-1.1831338005198766,-1.5773308789106235,0.44745320228332847,0.3741883244099151,0.6679716058814984,0.9395977772106336,2.4820896759049633,0.13617615250237228,-10.58032960313406,-0.39477095407031926
,3.1692390243704107,-1.1017379426563099,0.1575780176516092,-1.7568260639101012,-0.35623287530577336,-1.5428185042200973,0.3471892918975728,0.38561560499079917,0.7728403778501246,0.17644443656358405,1.5373435751875715,-0.006835962570984214,-10.92173902345387,-1.0947605200558181
,5.955224855827303,-1.1725400828876755,-0.044927239037582604,-4.275762468840257,-0.7183596082151494,-0.18276522473256326,0.4452740576693519,0.5295572087610873,-1.1582295657476744,-1.1179457395578998,0.3845345647271241,0.1710156929970073,-8.84424691826356,-2.321114303333992
,7.153086443443835,-1.3942504626921042,0.017086163902765076,-4.552467999938219,-0.22379756372185106,0.5751203445961369,0.1915498276413791,0.9241242606107398,-1.427021798053054,-0.8491013972167011,-1.6515904578717227,0.3424080929874335,-12.16904341152486,-1.952222776421302
,3.6967521020608602,-1.1993123648173696,0.05198316689793388,-3.03485946440949,1.2165765395893047,1.8842330022816491,-0.19993332586500337,0.8877447585146733,0.9257941139662826,0.4970169780107255,-1.4839616778338125,0.2200650199938073,-7.445212309871417,-1.699924612125939
,3.7444121817671308,-1.4785292946308042,-0.09899669226304457,-4.1040738585791745,0.6866794525504736,0.5441953050230679,0.07613389072203615,0.36738260218261987,1.7709262502025438,0.4456335533982576,2.2451559705954143,0.36074030426501286,-7.49110270654091,-1.889146736605703
,4.59675378977705,-1.4828280492618031,-0.2768413632563141,-3.094763182688124,-0.7311133103765177,-1.1218021871110706,0.10508107415231902,1.0100726504462998,-0.21787089385878475,-0.46955867435677806,0.979508529203452,0.0834781968825561,-7.832203683601286,-1.6213425236798626
,3.446774946906579,-1.53737033555388,-0.2677190938761929,-2.244279851650089,-0.6402072974811005,-1.0620690939977158,0.24462013134887725,0.6189243000756847,-0.09950723464848835,-0.7531788914441052,2.11314544779726,0.3558440213814885,-8.640573553006263,-2.2070406885227247
,0.49605757014894436,-1.6899637213237735,-0.4482294555957505,-2.3187855805867406,0.25443704057506444,-0.7624883463656786,1.0981499233286436,-0.14556561815249483,0.10676672166602316,0.2209649358268832,1.7956339104946577,0.40323505878551896,-10.706877455466378,-2.0054784020261898
,3.041025644816825,-1.563029296509992,0.0005270459133249685,-5.106004913532563,-0.30039931479392673,-0.2076142047356946,1.1760062590441605,0.3243541876625312,0.23421387383506628,1.8321499458734225,0.7657033051238746,0.4844581432305294,-14.640906173803799,-2.454165985958698
,5.193456378467463,-1.3018972911015472,0.3252313666793234,-5.061746395379678,0.2952572210321382,-0.14117920646896584,0.8080381598619307,0.1409966278661886,0.7292273664150442,1.4390809042197588,0.7375314007673713,0.12200710956427865,-4.084794678052263,-1.9151762887233823
,1.6943783219400907,-0.3552342400174897,0.18176747184545516,0.3239374351932624,-0.8109384998452566,0.5989279480224261,0.10434093479769216,0.6407768457815023,1.350827265010912,-0.7283917952668011,-0.8490332755222382,-0.2708436550895801,8.308645401737328,-0.8598660990820557
,0.17473676031250565,0.32756711145625855,-0.5824075974446096,3.880784161474245,-1.376718028672754,-0.6879046835351512,0.5138085276205783,0.3388164439145636,2.077330502066643,-1.2579580425089893,-1.447529634536649,-0.3230119976018385,8.410207909802251,-0.2462767767026183
,2.11418471230925,-0.2750445627060949,-0.6903969724615876,2.1765057391087548,-0.03568685222540333,-0.8122971361576241,-0.30302613175992055,0.43679578717279716,3.238768861419493,-0.4134388984893687,1.262376495405182,-0.4146426289353005,-0.427897811551278,-0.427009361218296
,2.386972346421633,-0.864312151246245,0.23016420931547316,-1.2275508658440597,1.2918119986330578,0.03889396933480904,0.09773513167203654,-0.3994821577971833,1.0691028586744462,-0.007185354710570203,3.5997830608624506,-0.399433443289979,-4.592062812331091,-0.5698614249319285
,2.0866193957462142,-1.0017424613008077,0.18107296727350494,-2.3205265723016217,1.0353203274833902,0.6980180570733728,0.5177296301965668,-0.3449320175864817,0.36379327991085364,0.2567367269051357,2.3434424117532995,-0.10852084523599018,-10.585840098565559,-0.9444653512525786
,5.743208425642659,-1.1548113392043906,0.1424576266897314,-2.528839875474125,1.248648522958937,0.4021284612154446,0.616250680169471,-0.5031914639232969,-0.4756034248076625,0.5024748245588433,2.783027964319982,0.10359449590973077,-2.7271384966883154,-1.783256762765434
,3.3266470697024753,-0.41746586829893867,0.6497630850962989,0.07621615894685294,1.4900457599041155,0.46774708382274444,1.1440206878776509,-0.6606972128375577,-0.15290745231704664,0.4697568367103437,4.38003629032318,0.05127984901900716,0.9755063311106944,-1.4859569651655642
,1.0585432584675865,-0.3963748351392679,0.4941213791787882,-0.426003545195523,0.7627594761571582,-0.11434278401884823,1.0018790212579796,0.1839113208354305,0.5693118678174485,0.7892561497579288,0.9178332210659129,0.3332855991246809,-4.0418672024603675,-0.9819878704331005
,0.2046874147021128,-0.7533413669624909,0.09863559055765865,-3.1996371272540944,0.4983415429218734,-0.054821896536933035,0.1939689441661356,0.6132710658374335,0.9941465122400857,0.2699184844209276,0.5295891175998968,-0.13610010881643314,-6.670268293656563,0.07372227773378609
,0.558484294324509,-0.7386181587972526,-0.04219348024717782,-3.0754790493388615,1.0662861259285363,0.29624983670710847,-0.3098561965283713,0.31905657695634804,0.7969959649377674,-0.7641361692943563,0.35433977239599307,-0.2853483994214768,-9.018630932626532,-0.28281790282253544
,-0.18017475214846124,-1.261746589649054,-0.1944631504342232,-5.521171174042818,0.7313970070552092,0.07537582620723328,-0.7208564052251185,-0.3875356343319373,0.13281641953520176,-0.3981471633087291,1.8696449054677484,-0.20631776075441097,-8.683556743525596,-0.6241682791523977
,-0.5606450983174612,-0.8916977477967376,0.192539927226421,-2.849080159036724,1.1741819070951376,0.21946400391679452,-0.8819160109477744,0.17954357839254353,0.7173281016821287,0.8947988242535018,1.120180541858981,-0.3485368224934073,-11.890557331500531,0.19285354281887124
,0.5313015146291901,-0.9838450644820657,0.3862547355332591,-2.588574550948131,0.29855478724904105,0.3870922215462088,-0.4550592040629167,0.599749173414601,1.1827576691293429,0.6095330667837393,3.016144712174636,-0.23536082880709033,-17.4502603549677,0.07232721219735005
,1.1730538024635233,-0.6223396497657964,0.19793077673784124,-2.0407249517462245,0.4563733858619612,0.901603320424823,-0.04241213278992498,0.41978682980560145,1.500410298167582,0.45088776069906644,1.3473543540944048,0.48598744571959407,-12.63627775698851,0.17825407369653842
,3.0319690498480436,-0.1847958971653669,-0.005162467878107153,-0.9243204317174701,1.0543261960845967,1.240210504096858,0.09027653992122502,0.5594090516914765,1.6330364819661947,0.7556739542640875,1.863901583385594,0.46927638411063544,-10.120819646590292,-0.2742885914693816
,0.4533891210789856,-0.4448124824358213,0.2217968375526347,-1.496084910111135,-0.41065858150122675,0.2740257353724347,0.5104120071955152,0.32663388975706875,1.6899883226992272,0.4295510362176681,1.4236485776061334,0.3430885651072226,-5.6113726734986695,-0.16438860871748548
,-0.3230082736537506,-0.9692523815359132,-0.05601134041572803,-1.809573887807604,-0.12686149296669844,-0.042439511668218396,0.40065277390668524,0.9123583382611894,1.0732464182530717,-0.5718315513688885,0.16156835040010176,-0.02473849234353901,-4.921145133216594,0.1793964784255552
,-0.21248209382972827,-0.5737762404406304,0.005335406907484323,-1.9050475922777206,0.4416360597396224,-0.8748819052953011,0.6655612839049686,0.6438802071766929,0.3083316629857203,0.007054702759124639,1.9522196510862468,0.0033560302016780058,-11.962703676686967,0.29889714088376
,0.6310487616456967,-0.6627521181962802,0.12566948965267927,-2.0112005115997222,0.6106098288531258,-0.38592823887131594,0.4058334895045868,0.2722969932081242,-0.7937357023120545,0.10677864242444099,3.162473693203758,-0.173816420283621,-14.070272246377026,-0.27270859950027343
,2.4520447680179176,-0.6169354597605582,0.28987855634184895,-1.9407684609400662,0.1861413663671389,0.30213633777222976,-0.733176487564242,0.03918474573692601,-0.18070279114403617,-0.060148629560167866,2.7636088661648337,-0.2991212184744064,-10.031131593533976,-0.5371466297212082
,2.913589305180117,-0.5484607479776107,0.04566952085574707,-3.079934278244898,-0.2706943308225847,0.14065966755839793,-0.8012646453804475,0.06444396430570104,0.8911401824690208,0.1560444814345169,1.464287159684299,0.037871355111296384,-7.125463397518658,-0.5214525157671147
,1.5692995796526792,-0.1400548689138993,0.23984229637292528,-2.3322780165147696,-1.2123914375265892,-0.46843763297224017,-0.38112924808332627,0.14426200807961645,1.040518169404814,0.46065294871961776,1.090886754253203,-0.36128099697397403,-7.815852757793835,-0.174496710496917
,0.24134666755968187,-0.009355420579852707,0.2593263935921098,-2.595693049288686,-0.5772674226940873,-0.8143930750029539,-0.4726870519459407,-0.3189189015663112,0.03847340214912525,0.47888826272711765,1.5828674741162143,0.0852874761319805,-2.296705419851096,0.03193531724918445
,1.394167806393717,-0.7585114952394002,0.22509438754439484,-3.336870936232759,1.7194487543403667,0.08430367266983045,0.328828575102618,0.08545997682504772,0.07430875675805214,0.9290101298980105,2.695504555534852,0.46330032604600585,-0.8773513018046725,-0.7361539529848657
,2.504107170738266,-0.6676922805458182,0.29348193864879857,-4.4010524003700695,1.4377811214368368,0.758359772530554,0.4203661271239519,1.0875058566344005,1.6452565905579113,0.7704432512290371,1.8964406122880233,-0.13528127281350394,-2.3753118497241394,-0.4917109617408973
,-3.853295787046745,-0.31695821961143467,-0.5490811660957858,0.8482206527600215,1.0575705196068088,-0.8123814067598111,-0.38552222660030344,-0.5787326572551025,0.03243139231855009,-0.37361312095021515,-2.546206133592576,-0.07029654095611652,10.655873349220798,0.9119666700461138
,-5.755912074592029,0.21211720261169106,-0.8604665803559037,2.434427454085887,0.8150145745818552,-0.9628300390177565,-0.5196164928192286,-1.393481764283303,-1.1013141163329732,-1.1205979729307378,-3.3414255376908715,-0.43640729974238834,12.304191538859623,1.0837053014254385
,-4.727789879970611,0.2889397003168242,-0.7392624567767565,2.4360630679993416,0.24433814961129133,-0.10912649717396884,-0.9508539278125766,-1.045942181992361,-0.9574685078400306,-1.2282922879071958,-0.17716174854897485,-0.4821626719353822,2.9658247751733016,1.124020982135421
,-5.292198952385506,1.1342903508537325,-0.7912528054106932,3.2854393749016535,-0.36867582322959447,-0.5595027452646103,-1.099689406614361,-1.2282823312845665,-1.3954243924123895,-1.4903006555769454,-1.4888524981716842,-0.20755801001294036,17.106435609601085,1.8505342218547656
,-3.3994279792137685,0.8598281497622625,-0.30607938659818384,1.3627188367324166,0.04042668879547981,-0.7710810114607081,-0.8573626213462956,-1.1362368400498595,-1.282824766865281,-0.5046050584628082,-3.707642391672696,-0.0008911751099336953,16.032849724536145,1.3734948155665718
,-2.593234677201231,-0.29803286854740263,-0.0001296396434996186,0.3678124130599884,-0.6384088624286588,-0.2387194936048987,-0.44660181841069563,-0.7019694545645455,-1.1479790805767254,-0.32951962371077975,-2.580545954652803,0.16387977817910893,11.599518459556544,1.0071765019923575
,0.2839938533623159,0.22157008628708938,-0.030421680131253393,0.22087102398793607,-1.3850455228474279,-0.32858979354794227,0.040151703093358936,0.6404174845281616,0.04032491497001938,-0.34261064959817844,0.6684995395678669,0.10565651628094566,3.9531774143935206,-0.08495257809613245
,-0.9586784479789525,0.3829352565758174,-0.27382900711598657,0.2219794339675408,-1.6741090709545376,-0.39442400812384437,0.15806876505950296,0.6320604481571205,0.45909268704514167,-0.4283051149141998,-0.21336317839386257,0.05706812015002556,0.6006434241052955,0.6983500533396884
,-3.6859411014966352,-0.41146411150946255,-0.3005125719651369,0.10765419223483592,-1.013519756244583,-0.5871249796406818,0.702073582596748,-0.16139847364228152,-0.46282706582400174,-1.1196744014282536,-0.34988782830707615,0.5353532364984842,-3.733799661950826,1.045347672870118
,-5.211716366647544,-0.6956925040669875,-0.2785723323337245,0.5427114796891657,-1.5764721848638883,-2.2670683986407023,-0.459728312850051,-0.5083909229575734,-1.0963619233336581,-1.370991493298813,1.3896727049693591,0.3360350697927446,2.9130044805032775,1.1140117308946131
,-5.8259862395282225,-0.29268669995650876,-0.289220582908062,-0.0036672657187507324,-3.6307816097078565,-2.7872161102021225,-0.7782361780085842,-0.6840141427900716,-0.4596273541626296,-1.403744439173981,-0.463746912053502,-0.015182132426886694,9.531668851975597,1.4114577967765372
,-3.8956044932174025,0.39733204434274527,-0.031922537925152795,-1.5508835324584758,-3.304666878709874,-2.6428131300510587,-0.39663934494824427,-0.4207013719951302,-0.4663966786842883,-1.738338273296115,-0.9151135806257453,-0.07679225336511099,7.318629935723496,1.1376164998772844
,-1.2315902815095388,0.33272903460494246,-0.030078681310838386,-2.0092600902045974,-1.2922105444111502,-1.6872021855405852,-0.3584356658955711,-0.04675205055695154,-0.33923029582061526,-1.3074824791999229,1.221231790268229,0.39723095692239296,-3.207138759358373,0.37016433018026584
,0.15403894317338523,-0.3773122088991177,-0.09877349787655632,0.06755126490404148,-1.592183352162243,-1.015851713830738,-1.0649304592711193,0.6557631696993327,0.8410896747731613,-0.8525373429347529,1.735523208321895,-0.10394501161001565,-0.7041314655115193,0.5561603544843216
,1.956112561956449,-0.5877240557720232,0.08185537258274413,-0.3394256943477699,-1.2309747204815207,-0.4179877170311132,-0.24211640858239558,0.6126100683030636,1.1651948681888635,-0.06593572875281666,2.5727449213896443,-0.22982673624373595,0.8948892097512312,0.32704845921307796
,3.2641162555466434,-0.33523311242024073,0.10175480530533529,-1.3234237968003644,-0.25040474547766417,0.6371865618720228,0.9251600067991385,0.670974047265794,1.0480612491446586,-0.13470998194231337,2.141466975308047,0.3313812989046452,-0.9704386182710779,-0.1895874794115949
,4.563904354470367,-0.10603440281787609,0.34233338552369724,-0.9775558736849166,-0.2675074994090898,0.37950700198566806,0.4626320496050683,0.9966629264339742,1.6547357768377522,-0.17919003072596645,4.037108896911095,0.545445345199459,-3.8898303109255186,-0.7040119489631167
,1.2689350347152533,-0.7258347790111412,0.8042318242552831,-1.318550469873132,0.057179928226825105,0.31463391114500383,0.42988269311681154,0.20112566525573913,2.5472244053466273,0.4187541840953276,5.925772135650774,0.27726593275056155,-9.532412359295503,-0.36179504689910924
,-1.9689936932688596,-0.36397333502143486,0.3370634478639801,-3.1217951746229327,0.18450202275763705,0.37378042372975245,0.13654445914914323,-0.11642760126776312,0.7823135967938865,0.1946575195959945,5.540557436324788,-0.026745544960424805,-8.249185709911083,0.34751348357214923
,-2.814862050804834,-0.47378066826644666,0.09549059083663061,-2.3045052688508356,-0.19207439251665348,-0.08078388309382283,-0.13228690144136745,-0.31642738118288466,0.0976570622669851,-0.39145353210918665,3.192086420290587,0.09340806777097237,-9.110042866206165,0.7730230617348758
,0.8729752027544084,-0.20595834254213552,-0.2378521524487248,-0.19120642537280064,-0.06212145752985189,-0.05115903508796934,-0.2761828122664632,-0.0569802830727683,0.9112259554713847,0.7757538916850533,4.399394150342304,0.5593624436914022,-4.882853703063297,0.06653123856143806
,1.1018909746564127,-0.046375027467541796,-0.3518565712014635,-1.6258901124237095,-0.0849281174360062,0.0753018187656978,0.4697873174011117,0.2612140812823442,0.4317025617218192,0.8937713922957955,4.941331782868053,0.5704944772977341,-5.274229656747329,-0.35577691551970525
,-0.8581493206970046,-0.29143825757962066,0.12338728455210472,-1.8615887226004089,-0.28500746374656777,-0.3079940678254619,0.7568569768606875,0.6156769278417028,0.18610575159342727,0.23435827766091502,2.949391626107566,0.32101849593898085,-5.413037151282172,0.18741288640487874
,-3.192895025084034,0.21330364661543239,0.4316194701277635,0.06101100634582957,-1.3654618406310102,-0.5388386420047069,0.17156369971392937,0.011982769312272743,0.39197806222451687,-0.1419739366730649,2.45025996794262,0.15924213616829003,1.7226334250282653,0.7820745592241273
,-3.4930655329868734,0.11078408089249145,0.06988426072087979,0.6222673585659088,-0.883015415588009,-0.8535079990208531,-0.12441947505588086,0.3115087930857795,1.4790306214428872,-0.23074769082726762,-0.959742863710977,0.29792403549843577,-0.09663354666590039,1.0674211854986941
,-3.3731791587424502,0.21019803774369222,-0.060642442986069675,0.1913477035175163,-0.5937362901399513,-1.4380078046670146,0.20850300435339889,0.20808079773620738,0.8042128171667656,-0.4078349000434396,-2.6246991443883148,0.23769229837062272,-3.3677026850275165,0.7845470497391916
,-0.24744786715935285,0.5129621132879985,-0.10694559618001646,0.6198731835506733,-0.7185291896130569,-2.1884527407397103,0.7155678472729606,0.5056911092139951,0.981927958478656,-0.19551422818065237,-2.90308010121699,-0.2908631054309243,-2.7453759014536585,0.7516200297716606
,-1.566401198655109,0.54769728693373,-0.23552996334484347,0.5071692972101138,-0.03555200608718947,-1.9364724551534758,1.0509840919443978,-0.6403298829227374,0.056531966843442485,-0.9320504242044199,-1.054793786918233,-0.057908262566391325,3.15001067962813,0.7080068171377072
,-2.272967034044836,0.05883142224293711,0.08282127841394231,0.1942220945882645,-1.1301799252065146,-1.4355377814954093,0.7028649400997147,-0.3338178218654557,-0.11886953251903151,-1.0278824898571222,-0.4298105774198596,0.25839617284779126,2.9858467755519036,0.7062159763807928
,-1.5631428517383998,-0.11973321493725923,0.2320464546896925,0.027069070188009425,-1.355787440279091,-1.90388060626284,0.11943833318140254,0.4381206464484389,-0.20447360559683148,-0.31420928919758534,0.46515662498115723,0.3112579118391951,-1.265109557735729,0.7448958980786569
,-4.2967795011669825,-0.00931542607579829,-0.394380493235159,-0.7848515694907303,-2.192256298187391,-1.727761117994306,0.20525735442661244,-1.1772412268551073,-0.7821062964231857,0.16119764284440632,-0.3418309641728743,0.14487581589540618,-5.744578210097264,0.8297971266384712
,-4.812734401842892,0.04353950236763089,-0.18146433235189452,-0.49486420038703044,-2.2681959101459856,-1.2426992222308901,0.02981345315306967,-1.2308272787486594,-0.4200518576102051,-0.21354784193982698,0.6716202039698322,-0.028027542937731444,-10.06731255195003,0.8153646867595807
,-2.1226416422557612,0.04177564410143754,0.1542685128794676,0.5307304669730355,-1.3103901458678486,-1.8968117150998987,-0.4191649950245377,-0.29918690982355334,0.6150338751785447,-0.22074310689926183,1.8282002474478294,0.4014591821344564,-11.339085176030476,0.5477188434181592
,-1.2017368717326218,-0.3838707792285822,0.12962364933425172,-1.9165451782073837,-0.7664147984599203,-1.9339481418254625,-0.7983285862551347,0.08678614587519906,0.07131808392548429,-0.5674432761390387,2.057904745656968,0.5132683754051126,-5.858197751393347,0.26543325692585307
,-3.8015381652991778,0.5478289751684929,-0.3804093765604087,0.20494371312438348,-2.0384588126113052,-2.3207733424089527,-1.319915295825074,-0.6387555336422215,-0.8358879178520499,-1.02337950735485,-1.7441811524258146,-0.073093608570827,1.9379909332621015,0.8143743144534376
,-5.1406361642216565,0.45238784136390625,-0.5507770185662331,0.6399967518646235,-2.133998287257805,-2.5562628613925846,-1.063814045070671,-0.42714163273442485,-0.34329321559413495,-1.1985290855193753,-1.1625983673185927,-0.42027788523170584,4.498333385921471,0.9846237811685776
,-3.3424540411834784,0.8732244519411224,-0.2548607052384223,2.3030661287576852,-2.28649937767818,-2.417822643804479,-0.1734374837688171,-0.14765823941515355,0.17348133834057913,-1.2578991402568382,1.5198419550182019,-0.000601267806289101,6.8362363670162125,0.8801200787943032
,-5.496508387079299,0.8831982612005777,-0.3841953974190365,2.9328881744941735,-2.389283102732824,-1.6744174937985377,0.2033748752354318,-0.7359897905832478,-0.26041111738756406,-1.9388727197015798,-0.6169200375523654,-0.15538084752092585,12.222172605752903,1.4255120726290753
,-6.441322072650581,0.18245358714436666,-0.6287776291150002,1.9934124382718377,-1.5931514735464414,-1.743064460442169,-0.3556412386514288,-0.7490500169960538,-1.2225784050000026,-2.3917008950278014,-1.8507534707558078,-0.5567272389548475,11.607878045430091,1.8646440546703569
,-6.893066866061695,0.8259844481236764,-0.8669672904909764,3.31692290074024,-1.2777515471306107,-1.58504220633019,0.008869082149904922,-0.7799837526157327,-2.4959130461945853,-2.9995122449816933,-3.691800558505908,-0.6433418159931067,10.456748681874739,2.2404000121282572
,-4.779766328841669,0.8241795683187387,-0.45302627382929106,3.4487127031423643,-1.9733884248387665,-0.8905185128806257,-0.11766576565870139,-0.3959089369698339,-1.1385390397779038,-2.1173421353150843,-2.007431759943638,-0.4762468272901893,2.882966528340111,1.5340212076560282
,-2.5017445506876435,0.23664960237576227,-0.26850641021127686,-0.061279502059225104,-1.3436337368153688,-0.04097314247239739,0.3653481387879741,0.009141139599191175,-0.9371940823988407,-1.2191286460091635,2.177391297571849,0.2553369923776514,-4.170934424188661,1.2479680459072937
,-2.238924893170678,0.06696556361399068,-0.21631823269584535,1.3053368486069352,-0.9088583051932352,-0.5215215633404079,0.37967943380027597,0.16967379649969583,-0.4648828258807986,-0.519806303451286,0.9976710226768065,1.0055487202841105,0.6010810456807647,1.2265985606940182
,-1.5671234572338626,0.30318030731224527,-0.015213898247268993,1.6379406328035053,-0.621009122277891,-0.5554779609245957,0.009014388467334034,-0.12335542946037155,0.2888907263174496,-0.3105151013337578,0.8558539105929235,1.0040171584229662,2.955808408032105,0.77739433838997
,-2.8079115211946237,0.04759557603260894,-0.14559606402269862,-0.5599589355903636,0.42335841506100397,-0.22181172352952253,0.2806313365689652,0.022814275983534176,0.031233541275928527,-0.5639046308028107,0.5024218894869382,0.7013912625818929,6.490783260380504,0.3659803447232661
,-2.98590143913219,-0.17497793669272566,-0.49678905179395233,-0.09885994539806298,0.3001781845679949,0.015013209444804065,0.2302542402400063,-0.6755800606231948,0.6463182390734263,-0.3711068511736143,2.3616266307571783,0.19402043339907282,1.0487019601342689,0.4815729197754189
,-2.3588130351103525,0.19723812428901116,-0.6154012895170102,0.7887281015263798,0.24771607798293138,-0.24171849439609233,0.14280548448997646,-0.5380599267657267,2.078242122911762,-0.20706408082188155,0.6020101163110689,0.038289613593939315,-0.264512536256043,0.8473095852840136
,-3.2987428711188,0.03875218353797693,-0.35651790308540093,-0.5437556649532428,-0.8204311399915687,0.19711864763006143,0.29104974810971684,0.09907579881779309,1.8240766317717076,0.021308047903930986,-1.3025839800867747,0.12627449758335005,3.3548388259458446,0.4725677347216152
,-5.5409849623937655,0.03802955223137321,-0.5187585858068875,-0.10992008121431378,-1.426836250422161,-0.5172600044837063,0.20359268381441847,0.19613291951367856,0.7708723109612834,-0.6010422239161074,-0.7355462681206575,-0.0866884200291194,-3.3359956722787816,1.0170280674175463
,-3.4972305177674765,-0.344002156768822,-0.21265928497146158,-1.428126364922206,-0.4678104930414769,-0.11520052641686226,0.12654216768705553,0.8209470654295342,1.4357506661584678,-0.02124573203332875,0.5750675046292875,0.35607432637741127,-6.90451322153797,0.3448696442638606
,0.8075324905174799,-0.8612800824846198,-0.1294693341295819,-2.66267177685043,-0.2272660213016232,-0.30569874947556347,-0.05339317782018702,0.34800186819718987,2.038607032752002,0.45633720114510584,3.6374375448783804,0.5363650604419232,-2.6402259119768243,-0.05661096565953054
,0.12183883464830438,-0.2957685699808795,0.03574199939633512,-1.2775523014477932,0.5512975297472058,-0.4619814970946039,0.0462206796424864,0.1783099862197904,2.4319863820955776,2.055279079011083,5.898543322399817,0.331591839370944,-1.1128381843089328,-0.17168397629511042
,-0.26567927983863693,-0.11238974541732215,0.13631297360678446,-1.8943545078970403,1.3183494924238646,-0.44371740421127853,0.14134575964611562,0.10254344638973184,1.682525276535077,1.693970469162605,7.460468619735023,-0.008428563980466703,-3.208154500407402,0.1627192942653271
,1.252694991358696,-0.19225449696842434,-0.002075403898606714,-1.3717520627323125,-0.15736073887841553,0.07251219409158934,0.010849250813477901,-0.25888428254163515,0.4082126083800302,1.08835163334821,6.314699232148526,0.0740324247716929,-14.406848883620794,-0.5398099645784995
,-0.5255242140351233,-0.07214805257449376,-0.104605297560178,-0.3294176479615177,-0.7749740802278549,-0.23029908440842828,0.10578100480674917,-0.8100482942371698,0.45526755732959906,1.7173119549157874,4.374507350725563,0.23964664872718464,-6.569534145359308,-0.1005656909819288
,0.2931677434332704,-0.07258729926789252,0.029491935133458876,-0.10825066389828042,0.5051279607777295,0.44022316280072843,0.759906460835292,-0.21364085302202135,0.7881218681999875,1.1247433662357285,4.138150067639007,0.4336000120920225,-4.586086726507166,-0.12434678797169804
,-0.5383029701540407,-0.1416838610166582,-0.07563655409731312,-2.7131949960910164,-0.7467629850287211,-0.23601495137677536,1.1475343617951115,0.5581528229357278,0.6251685302935155,-0.48002803316249915,2.883581990150149,0.23419433392461358,-6.391059490581798,0.05994529470953966
,0.14645745331732155,-0.10642815134236162,0.06083983308729736,-1.8918992357326505,-0.6394195604933265,-0.3487898999791041,1.659805234799932,0.2999727512792514,0.7626335978456578,0.4512313704771636,4.321909023285889,-0.15506445643617722,-0.6813384450078824,-0.209972048433702
,1.517101506808106,-0.4138577828551624,0.20006713433366713,-1.320925931953186,-0.846435391579466,-0.7493361284349455,0.8208016458280313,0.4566039407808618,0.7894204284896887,0.8205740314531215,2.7642905804755533,0.4151134543125683,-2.650332159342284,-0.3324574943346286
,3.440013370082675,-0.8927939957226066,0.03803249061887621,-1.092585214972702,-0.724993570704601,-0.3709179266414674,0.6320586669635004,0.3833863713147107,1.469768099432782,0.584663029486495,2.1014294560682916,0.7410960209220535,-9.363778481445259,-0.3936183826635798
,0.7035113489956986,-0.21680624272182641,0.029948816183409714,-1.0900894745803502,-0.33682924720897645,-0.13597066047799455,0.272334328560081,-0.09943891176440049,1.8207412915216414,1.347858734152518,1.9815318061872822,0.31076085835441414,-0.5030900877730873,0.1294393767812533
,-0.9985486374703166,0.13679283416023308,-0.14348147757158108,-2.4842280714284284,-0.44358472818357547,-0.39083460059426217,-0.22513189230989597,-0.3245042634304997,1.7246582638281192,0.6436220663716731,0.8020127724945503,0.6343324220907286,1.7803548679509782,0.8874709138817288
,1.555748764606439,-0.20887743797098948,0.15793156443754572,-2.7659574038240833,-0.5222730024202633,-0.0029269326721958967,0.2965821037683925,0.5361529400860345,1.7926738427584659,0.8158088942175099,1.3118220456391398,0.9498997831356344,-0.9232074713374774,-0.08456467281395218
,1.4965117188776036,-0.41549850630543517,0.5296973192320935,-1.764534609466138,-0.2910157042694551,-0.4123089974641223,0.008028191826938738,0.4481432823320823,2.029596731293829,1.7021057973357339,2.8831034934195356,0.47388797337018657,-2.5028605833738093,-0.43988920700637785
,0.039522850920824956,-0.4181453704624537,0.2502182256263603,-1.3891236770088455,-0.23009600793680174,-0.3062147713970818,0.041828180146734076,0.207466988523729,1.3963390179028359,1.422545739989063,0.6910874287393854,0.3116267991497572,-3.0284788326164302,-0.07923204520961329
,0.03041083412003594,-0.3795057049992255,0.10361464655398903,-1.9107895442739127,0.07906595943184797,0.531490274443187,0.5868874048103842,0.8212834253490482,1.3464763537812472,0.7816172615276065,1.0032395604825985,0.4807843395509104,-4.7694827520788685,-0.27574900064693836
,0.34796672568077774,-0.5633538894993687,0.13180119476785604,-1.8427240876312085,0.18839263200641368,-0.066667808975206,1.6184020461471105,0.5801627699093008,0.4868144385343888,0.34614287671572136,2.817076747513793,1.084817062744049,-3.3100272938613777,-0.39037759351974266
,1.6194039744396511,-0.9933108276663828,0.13218838068699568,-1.5224973501587336,0.6497012166888025,0.0495752702985661,2.21450157770425,0.8708078259806753,0.7564488150693958,0.1606096685919061,4.812789935234424,0.5867747246923491,-5.184248572474664,-0.28261828125361943
,1.8463618325166982,-0.5529084883476802,0.15006255977823918,-1.6525405605785373,1.021625578883481,0.523304025129556,1.0652569309872735,0.4266202899136479,0.3927426495072974,0.9476184989062941,3.883300199801332,0.5389326743471097,-14.135544627762593,-0.3291730940897926
,-0.33942875478972,-0.5562727107854484,0.2517403367251807,-1.4659743151680427,0.3136936092394218,1.4273458999031754,0.602424214747372,0.3960544346862202,0.8314184297126566,1.789243383553081,2.5892197013752654,0.4443925915685502,-5.178383407068491,-0.5442753305530953
,-0.1260985734590541,-0.39409290590384144,0.21116866735203563,-2.686771600069043,-0.7411278229653672,1.0776319240734589,0.9135971478378087,0.5138864448651949,0.8115304616479366,0.629010251007866,2.0090051149915773,0.2290226346016769,-0.3150616677859746,-0.22474322009728728
,0.6979167137295247,-0.21637834505175654,0.5636611697215386,-3.796774213146309,-0.0281347830178681,0.4833877587347884,1.0653613646978959,0.3484304626323932,1.2124678027642333,0.35142240433705124,2.633897029130251,0.4000180028584012,-7.836982259940561,-0.10988002989758888
,-0.7103478168013647,-0.6064421166595638,0.354446763404277,-1.9482039881342683,0.4755154646280661,0.5302077039318208,1.1969909025590848,1.0694094899723723,1.0381253661042487,0.6032563786932411,3.281108393468413,0.6299997142475072,-7.985059336651614,-0.4321409448533874
,-0.34069273099497427,-0.4731158600380088,0.2248037913299417,-0.05364607442377282,1.4250814266126994,0.35824568870081797,1.093607319747114,0.8517843915705677,0.23244927650801056,1.4484536930860488,2.169264989791232,0.5055834981099887,0.9364036572666374,-0.47314465912265496
,-3.161801641760565,-0.0680683433962735,-0.05229815602364996,0.6706517542844356,1.519768109200205,0.45670758727232674,1.1577039815750287,0.7502964117743205,0.442447411345672,0.6150476142881071,2.7528772979698317,0.3652368659158561,1.5442217147038535,0.2522288261170936
,-1.372117016324288,0.15458434208292973,-0.11912820360415054,-0.6535971344774862,2.7627935025841497,0.5881983066301109,1.0476956919478924,1.672521694255749,2.7416966090333634,0.2740412514764522,2.8174378783092875,0.22501442282954565,1.4983803780892466,0.07244061620432292
,0.2400182379758992,0.04920556590100533,-0.37803610492043277,-2.930203440602144,1.3653885661868503,-0.5076292549948886,0.11619055118488911,1.0842452863926888,1.6299177223213255,0.27089155015838107,2.3715501440474713,0.1925693558729523,8.077554982686815,0.06456750123338975
,-0.25761900354547046,-0.26654451685401503,-0.3530177964053966,-1.363237201196554,0.6959217839792056,-0.28098698015911144,0.11688757298996703,0.783985296199261,1.6543684503587748,0.7278132072326362,0.7118617736012611,0.49424719709982934,1.0156658566709655,-0.015768871045130126
,-0.04780854585116006,-0.21780792116736183,-0.09272675842473317,-0.0009869809694935782,-0.6930319870691865,-0.38130879086877123,0.15952622807359154,0.7197790502072,1.5733962348012571,1.1483248884639479,1.8829024882493999,0.5300851129130826,-10.501993154754722,0.2905491736247458
,-2.146018559225155,0.10808595669063263,-0.09576997273268019,2.800776476283823,-1.665305711938181,-0.6155252386420187,0.5180514746020043,0.37413814583082927,1.032588901548358,0.6955375180920146,1.2388542268322384,-0.2974218921562113,3.0974057212079464,0.378248634661257
,-2.056095002875669,-0.17926931295180523,-0.04934494998862938,2.5881720207871335,-1.1615771018962124,-0.5873535863458974,-0.501345098238192,-0.46959620264737456,0.31560497496001283,-0.3031697626363531,2.229195535185771,0.07201249439699513,3.54091665449175,0.6187771388622171
,-1.169385870923424,-0.38911726624574605,-0.1433812547319461,1.7525738343887003,0.4355596377990271,-0.6433641459204625,-0.20418307906128538,-0.3541780495158034,0.701750685621192,0.20828980292964094,1.7987130295279183,0.5711961533530553,1.9917770628383271,0.08374526387488047
,-0.38322512208560944,-0.4868705902621856,0.02262058748925293,0.7916943455957356,1.321269856271051,-0.18114863446955087,0.45827464260958445,0.3378926122751888,0.830564938720354,-0.059968558908895714,0.04273953069804603,0.27516765548055644,4.305967812021138,-0.015866686109130453
,1.1001208006250234,-0.4855661195193077,0.13496709816686406,-2.0580271117940865,0.6604935541436315,0.6610996372966732,-0.007507494619587807,1.5058701950627136,1.0319239926464525,-0.1802838632711726,3.540916793083459,0.21723050235473834,-1.776602001836428,-0.019417869650995803
,0.9590208644614381,-0.019737472726329176,-0.01859580426851196,-2.263965856536675,0.025763221952593646,0.5671624864773047,0.30529170955478896,0.9704069278369652,0.8639181090121232,-0.14679503913538997,3.8618497667064515,0.2914846958903757,-5.696994926120578,-0.5251197130532178
,1.3293963868363523,-0.17677807962389838,0.024462209337422405,-1.1818474428057764,-0.6796733321492283,-0.271980881850191,0.6383211155359086,0.8152621650815556,0.8972038175625354,0.42456476684199,3.447546108038243,0.3092850084167269,-5.811575348210948,-0.7925070246271423
,0.4390014134556262,-1.438280659987303,0.2642340646825703,-0.8842930017217693,-0.3505531356219812,-0.8164538084646947,0.4937848933457596,0.7767974619486442,1.1870786958924062,0.6909781382903961,2.7778772365407995,0.236868125976759,-4.67472013148058,-0.999807343350792
,0.6178003282743357,-1.303101872204334,0.14570575841217798,0.3863838877561491,0.3878821631356222,-0.20284710610788767,0.7363220262282995,0.4849277228061876,1.1034446480450486,0.6358075596136006,1.57994824687247,0.68010582522591,-2.8311369325890423,-1.076551405686211
,0.1664207198462332,-0.6988436095399925,0.29519153044837126,0.6106607728967977,1.08818774177969,-0.42016465583962664,0.47423526001428773,-0.2357660941485739,0.3448716542287614,0.3177132506884305,2.843928920128732,0.8690716479170143,-7.407886772657407,-0.07512735817006949
,-2.627173807200946,-0.5879865719280334,-0.1829161109734134,-0.6140021915625228,0.2729730089307059,-0.6346268150760679,0.7010961500142493,-0.5973320659886365,0.30461069782676864,1.559970463636539,3.0307577579071454,0.7411820580697142,-9.027871582176973,0.5135848020025406
,-1.7521591010673843,-0.9930570615583504,-0.17485243016405755,-1.8727621603277351,0.5086957500767674,-0.30167572622171224,0.8854725670782138,0.21657502630374603,0.48498914825974243,1.6505181211001103,2.2045397960878823,0.6833505696628861,-7.310889917880002,-0.24024767033311306
,-1.1505420995298492,-0.3592163781924648,0.2880387464575704,-1.5017597159570937,0.5726291461440824,-0.2991072415974306,0.14516198078205025,1.1596792379702652,1.3920129687796345,1.8352000026977429,3.2755993174307885,0.5293225961979616,-1.4191991955336414,0.08757364724979202
,-1.0300449790341555,-0.21606391324032456,0.2579377760359844,-2.6029935976286187,-0.5553819233347053,-1.040874393136931,-0.15900219826614426,0.13428445078351256,1.8648324723377034,1.0621679520868703,5.5115601941918335,0.7463106318224006,-3.8168117384106193,0.46549197512474966
,2.0330565685974773,-1.084240450726733,0.2000654445809149,-4.643277553525634,0.2997895388403506,-0.8434652340739047,0.42508073030537097,0.5365860853375646,1.9088683984348538,0.9352573388824764,3.092619366821572,0.8898090019169543,-4.250746753909316,-0.2831284667067069
,4.7678398345242945,-1.1626057960421252,0.49033219476231915,-4.209090617370761,0.6969092250814407,-0.32126050002667395,0.913637714440346,0.8147222805952956,1.3907995359700815,0.5896055932303451,1.9696581233537005,0.751268782079979,-6.925244752757499,-0.6199903265996097
,2.7624389402944587,-0.4761267626007847,0.3330009093024745,-3.2757497525913877,-0.1407086117577746,0.13770995619520954,1.13085118091187,0.2614180450694338,1.304351087707789,1.34164678263028,1.9463310656454453,0.796152185605114,-7.888412728431325,-0.4471583873064801
,-0.3250230411813858,-0.18526525554588696,0.0012340576954253167,-1.91573275920001,0.33430753342645475,0.13005734390767726,1.205618935536103,0.6505037993608745,1.6398487805900517,1.936889121758678,3.34556567432401,0.8558815109638168,-10.415823278370747,-0.33419683648292564
,-0.22038109233937594,-0.6167851787789542,-0.1590294886214134,-0.6515904872130588,0.7919316720976073,0.5932930862590005,1.1230141978062969,1.4208539228731993,1.4721084785285714,0.8714282241232347,3.9827988924067252,0.5512409083607289,-6.751159132644052,-0.11304765148192589
,1.263471081054024,-0.7771714477535341,-0.0875001213073294,-1.6069029721655144,0.7151389629796968,0.868355478341066,0.22292722929744097,1.3322738842218824,1.21787042336341,0.868324802767025,7.441968841198525,0.47000767824844775,-6.044276684808101,-0.782791389674729
,-0.23070486096412787,-1.1623088691214383,0.03332401671999306,-3.3926815542833024,-0.17214412741426208,0.08342494794052252,-0.4793115347906232,0.851251028338854,0.8883144550862861,1.894788507605201,6.603864621403315,0.30731854922133595,-10.573346012746924,-0.07636057865403058
,0.07616516755720078,-1.7546958392064111,0.23941234628738584,-3.3471745011634098,0.4363313856586781,-0.5860979467086368,-0.5027492030033416,1.0519873760654657,0.8819497064014895,2.233768558465876,4.555308423146273,0.12793384329542112,-7.408104649104422,-0.010631677506414182
,1.2007114673722796,-1.2148802658057316,0.22593426280025594,-2.9684131238668674,0.37859870658732003,-0.542910263866431,0.08569514209936613,1.3115194546341795,1.3912340144811466,1.5898569130637048,3.417059483762586,0.26718256374771043,-10.295846178168402,-0.0621238577314107
,1.0248423732669019,-0.8599003696719719,0.35950206601225543,-1.663428501996564,-0.47146181811986804,0.2670212093676709,1.076124366736504,0.6706278842478292,1.08748644178377,1.3342698535818895,4.026284454380097,0.557956333597253,-14.105149702052946,0.26389419668175407
,-0.7605892845029515,-1.1866791584152752,0.4301244234831019,-4.429385035740537,0.4265244819479897,0.5711829123621422,2.2446654716412175,0.31027684943630457,0.7320156747249532,0.879255734899615,4.018334097409709,0.43675324015343153,-6.64049191828381,0.4463762909168076
,-1.269302685713362,-0.7235925678257696,0.07616668861118832,-3.889041706015938,1.6722530760009577,0.16679681556882958,1.531935990513992,0.5443691540850337,0.6366682236624039,1.2523039238868048,6.532667811828621,0.5703134206846887,-4.547737511954983,-0.2288948314300704
,1.6154297864210188,-0.8720326093667821,-0.17251288309735513,-2.9697709247468675,1.0940016821757808,0.10095718666922479,1.2399130180581373,0.9478751674128728,0.7217798035695461,1.5144210785482473,8.34751001565508,0.44762532794831633,-6.857360908265505,-0.5546437501062023
,2.5043912017132577,-0.8995449487027058,-0.24141749529156964,-4.0312114767213725,0.6875973878550834,0.07895451867467346,1.6657489161873833,0.5559945390076066,1.0227630146906959,1.3546616991762115,4.7265419094523615,0.5526036963637101,-8.439083180894505,-0.38505419704857513
,4.529659231337621,-0.4784156080016318,0.05714944833420973,-2.8892840245898266,0.5280999802533214,-0.026647855724332932,1.4515973324028062,0.9177865776178538,1.5909501564371158,2.772228838932943,2.5192110300893087,0.4740587172644105,-5.1347679688000945,-0.5436663158822999
,2.758424401384213,0.09492634084360493,-0.002044366854172222,-2.0943477720439403,0.2635792408469218,1.10031783630406,1.336098356661145,1.0812954614994816,2.090680767694851,1.6450112572843252,4.433878869892898,0.23882389130758505,-6.692324185487382,-0.7371961591591174
,0.4333503347043722,-0.24321714576412892,0.16947705571046293,-1.6326835254249896,-0.174254060076477,-0.17574799253126763,-0.06738984565318698,0.3628911722203401,1.4342862050144605,1.6008136889443862,4.084195665503014,0.7643090861550536,-7.456260186747398,-0.24159524867336182
,1.027615427217035,-0.6009397126867766,-0.09038420748063593,-3.2523160171913106,-1.3507056910523472,-0.5883713168799897,-0.16434063365374757,-0.6802765507896105,-0.14183108005384246,1.8344563247128567,3.777359805476043,0.4651155464702389,-6.1090954251899605,-0.06957374467329137
,4.3758899100866975,-0.5665204490870188,-0.17020699459145477,-3.910201912970894,-1.9425239857436842,-0.913004480695002,0.5010947637235865,-0.4112018142424731,0.21143679268883317,0.49665375303201037,3.8806481180478003,0.5395355948354403,-7.411656701357174,-0.6733805201940534
,2.9561426882510586,-0.618728830418722,-0.1481399888491502,-5.204771294840406,-1.7559099005477572,-0.8381177985340145,1.0775906696828872,0.14354903583232598,1.5197235808084684,0.11435615675785285,3.3879129552289267,0.6244043463681967,0.021655624711107865,-0.9742272362331824
,1.5412027204147078,-0.9612638955539909,-0.17238620824121853,-3.346076576281679,-1.0647463479003958,-0.9827878321182906,1.2141716705722136,0.05552519250488513,2.519383494439957,0.2227289825818741,6.1368260461438515,0.467986917974604,-3.139911559270399,-0.3895385429350905
,1.7833193067943844,-1.122998572313115,0.10969413103823802,-0.7985362454215568,-0.7941569842095281,-1.432597944442963,1.0620493521793122,0.15152356077739504,2.5592361555691103,0.32711181060456274,6.959424611596444,0.5787454901033717,-2.8762009755241187,0.002065229259360916
,-0.177033680402823,-0.8991145853145969,-0.029089129730073274,-0.28670942471818256,-0.9439743976846654,-1.1431594725414904,0.30620143368283875,0.0433702522219951,1.7731164870170297,0.8778122837262543,5.335379158443273,-0.14384648428855662,-5.8841624823468965,0.3978020202052188
,-1.6107472251310282,-0.7782081717103715,0.06369479765181085,-2.5705083863038376,-1.2079645270996902,-1.587376798451208,-0.26386640064447464,0.12600727353589486,1.7083326500005982,0.8577309769812397,3.96470393362178,0.145933095891331,-8.589546709297448,0.7827395835454195
,0.17620164568588287,-0.1066528993561934,0.2917741108479444,-5.146264311277662,-0.12038561561251808,-1.0069736202987023,-0.08603303266559909,0.5899056102886459,1.7544992036575164,0.4704382302925167,3.7372294793364955,0.03954811155304373,-3.386988709683539,0.19042541431554494
,2.190599664052968,-0.42357374213300425,0.160579661011758,-6.037710143899017,0.7109181210313834,-0.9125384098930454,0.8073484394735628,0.8357818195899616,0.5384461393757437,-0.19864750113263308,3.993519748039697,-0.22009055392648597,0.48936541564604796,-0.7411769879242134
,1.1801289064234126,-0.7621708513462081,0.08594347165326668,-3.0318356720323734,0.03911062238722553,-1.062838855618512,0.531899818117903,0.22960024059980574,-0.3079247472178569,-1.1490668415090146,2.8551578624105685,0.4567781420866316,4.864672313086253,-1.086805735603243
,4.347755019006548,-0.6470854370813469,0.07789700390714911,-0.33019760222089206,-0.6278247638141152,-0.9357175422302576,-0.05727160297301447,-0.17207027975277403,-0.1932402411208127,-1.4709780255053624,3.091092662072259,0.20534507392117696,6.465143951076248,-0.6030794767758412
,2.0598461664149577,-0.8091053940433567,0.24023715016753083,-1.3212318321088365,-1.044856580078526,-1.1241066421716783,-0.047354829624257494,0.3548197362395421,-1.115536167549981,-1.4201006126574132,2.6563085567880806,0.28494449309626757,2.1282380286494473,-0.709219125367276
,1.752067227268207,-1.2181171090545242,0.09985115646103901,-4.080137390262725,-1.0472122804683293,-0.13158140078261918,-0.2575023824184633,0.22196461304530607,-0.7293717825296693,-0.9983284976179727,1.6877419375755358,1.1079289300704693,-6.342302435213186,-1.0695286424164216
,4.4503743470024615,-1.644382909405633,0.08811258440826837,-3.06458207472984,-0.39274151068737595,-0.09109125053337104,-0.28552516257258803,0.42505807451601985,-0.5147817023472954,-1.023187978105244,4.127379718231938,0.3867865833900056,-7.4900037538080735,-1.4697157963741994
,2.295174836100947,-1.8282805266290374,0.19802987719033255,-3.5167602536385307,-0.3406218973140972,0.0358060651855312,0.035977353910451045,1.293201977530997,0.01754861730157677,-0.6108866315159751,5.3738775427692,0.44255620058279593,-3.1442098405676253,-1.562915457436201
,1.7369299230467952,-1.3226328386352342,0.5933869354349286,-3.599764783721153,0.9227701367372318,1.1170296057420557,0.6822008240618456,0.5003739196780641,0.22351620414832146,-0.12994191660016702,4.336666327256412,0.37582636490193533,-6.547985782894877,-1.3444448552192458
,3.32792567407172,-0.8627191867541153,0.5257419133730953,-2.709775177008297,0.7177732205600021,0.9672356549121004,1.061591526154918,0.6775227453692267,1.000331392041869,-0.8218538894871871,4.451127817934109,0.20455532205958413,-9.995677853198655,-1.3638295706512984
,2.2466013287129307,-1.263861789704402,0.4488636351417771,-4.390735627543227,-0.25113123767557616,0.38694685224062186,0.28481299900707174,0.16161449236590902,1.2622019125143942,-0.33308855040652113,3.8700785077477655,0.22458206429708294,-8.505338592610228,-0.9378904265967333
,0.3116204338895963,-0.9480245812533479,0.4215284223589864,-5.178846876023932,0.21514056607353887,-0.4464009655058941,0.8752076736605786,0.17700258510704653,1.3057175190661507,0.9233338303238351,5.869166614062128,0.04778377297921804,-9.232258473648129,-0.019477060638565327
,0.9700063128870334,-0.8937256340003612,0.40915748359407406,-3.441720821087365,-1.2686735559099698,-0.398216203297011,1.4657750541814762,0.3363801175586993,1.298805820376748,0.7168954358308882,5.847528486407382,0.5193431671058157,-7.996093475654827,-0.05284072584553925
,-0.899571425360007,-1.1921071928668248,0.0038698008547324307,-4.636157854719698,-1.1957133700282154,-0.5608061488671935,0.14136695411159095,0.15657859783270162,0.15503112748121955,-0.4628536826322622,7.1431211117615865,1.4426823930542756,-7.0019325839108335,-0.2448160168165649
,-1.2051682582405832,-0.9879839288224183,-0.07677275918817743,-3.75247857215619,-0.08269768385900064,-0.6424224896183635,-0.00991537026533046,-0.4034221099113472,-0.3274881008273231,-0.7317083673458069,5.233526739461223,0.882623562173505,-10.309233737081684,0.21709542220431502
E,0.13007655492322706,-0.6212841598411998,0.16136044101747055,-1.5118462422595351,-0.5084314591871326,-0.5934687252054119,1.4306050393073764,-0.23781329607053164,-0.10678219865069123,-1.0041516215711843,-0.33874601338479,0.6662507553294906,5.407750108135731,-0.5461184912423213
,-6.099248446787137,0.2115767950776615,-0.4481288547896645,0.11042867095572237,-1.6264228578036208,-1.4297347047026392,-0.6788463840426385,-0.5198072844627344,-0.4210228192589048,-2.3502390583374053,-6.006283729581463,-0.9477742011487532,18.078594487919613,1.139722741822731
,-6.881082846945646,0.5731520100048868,-0.4402567677626603,0.5169183204315899,-1.3012875957212986,-1.2860564796044525,-0.9706026695863267,-0.1122166325360087,0.42329354366933986,-1.7398285432029177,-4.837395008524467,-0.8823062841615636,10.827658244663578,1.6828851224111685
,-3.6928786902435218,0.2945119031724802,-0.012963181129902393,0.021006993619718733,-0.07488221804611087,-0.7672271724722087,-0.03820140101697025,0.10527021036110164,0.39220376005992386,-0.23904834663544597,-1.6689036104890649,0.4921247384448743,5.616515403190809,0.8591894509143633
,-3.4838557187510895,-0.12990717974188243,-0.35531433455025185,-1.3036712881534058,-1.1525677727629988,-1.4453979438715108,0.38115566915413446,-0.3782751650912079,-0.680670918255514,-0.4719514701289686,2.686729471871764,0.35414100974168583,5.979881703789083,0.46187836473159083
,-3.9599014513402553,-0.08167401493926484,-0.5002323993146944,-2.7072101483966624,-0.6353235394197939,-1.4119635200362406,0.9499540084750331,0.559215485250167,0.022501544328927474,-0.7029227232886324,5.0964426668325515,-0.17368234286512887,-1.3063451981370358,0.8312096919354519
,-0.5124787266243641,-0.8078524943197799,0.06632315501138508,-3.127056460519043,-0.2182300820648686,-0.6088448817473429,0.9741134574082438,0.7829115998072441,0.4376779137393405,0.33261893328835496,3.994667168388096,-0.13783900486341086,-10.036934256817762,-0.04217747345246584
,0.46487016667364933,-1.1731885398739073,-0.15448196822865778,-2.125257777074062,-0.34508843463422106,-0.5872251304676345,0.16524212487545525,-0.04349685172723225,0.3267208933807598,1.1213415261444,2.549947814966861,-0.04606267969859014,-8.97431093484893,-0.1841350615049006
,1.5349032588824838,-0.665937734804664,-0.027988169844422598,-1.5343049826404,-1.26412430338189,-0.6608262225908013,0.478082588361673,0.4204239578985681,1.113409088599537,0.14504239568116864,3.3739805997340753,0.14887725105654234,0.2063781039509741,-0.5165436917685716
,1.0928976780728734,-0.6640349253237,0.1046886794873864,-2.087080165372644,-0.8011124187042138,-0.21512154012260004,0.4349731861522943,0.251595019992341,0.5181193629736635,-0.443026453047106,1.8319196907453141,0.10049849780563878,-5.649119880974395,-0.27639768512379365
,-1.0077745495641806,-1.0546470657096845,0.30097907133329876,-0.9391766707801671,-0.041829744322452886,0.3031063006697819,-0.10905314820564974,-0.0970395242458734,-0.6766995012313425,-0.2704116282313562,3.6504787277346895,0.337805920511342,-11.71009660379491,0.45548538581637266
,-0.7092825875684682,-0.9651617268275624,0.14584581569334348,-1.3603704466562327,0.5493876962302257,1.0627396582920956,0.0727705740681229,0.11756863317071418,0.030059638298919514,-0.7588381111752538,4.683989979597212,0.5175871055895529,-3.5254214396824013,0.4472322063414657
,0.5612485966344777,-0.841649652526837,-0.01561592326977336,-2.2610664600768042,-0.095241961266652,0.3591639772734073,-0.4111486519351085,0.17042316277959157,1.3356307718825469,-0.2952749105352273,1.8440342921776625,0.7385296057997993,1.9801464074498552,0.4439823408139557
,1.1411531607753032,-0.9094695756099495,0.018218058718107506,-2.3722452636632294,-0.3871593398890116,0.8171677658245293,0.7154543565755213,-0.007118035791438647,1.6873724746940881,0.13536518421846908,1.9697456210959683,0.37652173130418454,-0.09585028579809973,-0.11356283121469458
,1.336453340535475,-0.9118387509698124,-0.06008099984573896,-1.4466137003074682,-0.6578379441652221,1.1871952797681773,0.7475434391679152,-0.08658806869406536,0.2764032001097682,-0.01793536761684976,3.526656475809148,0.3823965272193577,-5.764140965483055,-0.6338721811151994
,3.1116601308661873,-1.2409898092461034,-0.0443034786158648,-3.9948265651727186,-0.9741752854268384,0.8132384551555484,0.28036096840815306,0.254002811327727,-0.679118259588671,-1.0135342166916053,4.810303284985106,0.14458028672183534,-2.5514912844341393,-1.2013981643587577
,4.713543437969053,-1.7914260788022989,0.2464614839047061,-4.290184790913885,-0.8830174952160834,0.5171955663731117,0.5571008440316566,-0.02179059617271203,-0.3105306077275109,-0.831960669046077,5.111511877890214,0.38311566059861507,-3.511724014422465,-1.2073136229411594
,0.4398570129851932,-1.2316413932444712,0.5784080158301507,-4.1378335171987795,-0.23852337074107186,-0.3340369075248102,0.24188292244632054,0.26385366023509893,0.8786102574244626,0.3230364537278058,2.691664836333187,0.6604793342902217,-4.554943041650213,0.035267825623927516
,-0.18420544534266137,-1.0345584469803175,0.2831126305475408,-4.246416017737723,-0.7967931962449739,-0.4568708580344353,0.9938589565082133,0.5276172732044192,1.8855091724706583,0.8496533317405099,2.633962527228176,0.3948416694493812,-3.0658408296608557,-0.17688179095145637
,3.416638153825268,-0.7254452153671664,0.34200505942162235,-3.784989541156521,-1.484827656789857,0.07749693775480548,1.1709690410948013,0.6336418002807025,1.6383744492320815,1.7433040391769017,4.071110894448894,0.5308274921603524,-5.807857817925556,-0.8170254891998434
,3.927966774164054,-0.8948271281262298,0.25589088536604865,-3.7631603180346973,-1.6337226221090777,0.7403452961081377,1.241096782518878,0.3286964124258043,-0.02768460423992019,1.1061099065105953,5.537094710710638,0.6034704121918647,-8.216560680543582,-0.9325039423685245
,2.1989505879056948,-0.5913200845584512,0.3908847363472816,-2.678389155501861,-0.488650152862329,1.5369886623078515,0.6148828404735712,-0.17380185292549208,-0.10487938629295249,0.2105499710994979,6.984515447061386,0.12729690965162135,-10.413550871832964,-0.5610883694902392
,1.2337394833511022,-0.7441355766183368,-0.020393371495304756,-2.0405001293461824,-0.24207503066820676,0.8237137143423451,0.33428799307750023,-0.1895886419290681,-0.22318617726987308,0.3591913696605852,4.508862315964283,0.2577317329197031,-6.997264235034573,-0.409883110474614
,0.23946566005267367,-1.0160842786853,-0.3075636648263664,-1.5472982031471858,-0.32211987599993563,0.29314159097313924,0.39661477214928637,-0.23968830076496922,0.3934353713717849,0.06477325994365754,3.7486613267168543,0.07833381804602453,-6.515185830485568,-0.4434610121680047
,-0.5356466934802631,-0.2891448781438335,-0.09856761059994824,-2.1747192310882806,0.3640697810264454,-0.06334643778448186,0.5693102645083046,-0.01996474386712776,0.5249563784519881,-0.4728501809988959,3.1468458077120185,0.17117810606386757,-4.643416090216219,0.17375255783259716
,-1.0037909159948941,-0.23598821627548394,-0.16268271508981041,-2.8841422939124923,0.5554575374182866,-0.37571159333760046,0.3946899359247814,0.12064446158271326,0.3743550817482827,-0.27159081113925515,3.0185795715955326,0.8063322682931262,-7.095461162389968,0.7020367784739852
,0.8747726982058599,-0.7280364563885126,0.2949265315202243,-2.8647282441498603,0.1431472688146673,-0.2576359936000392,0.5176575319651822,0.22326386530919018,0.8744425971876695,0.1732456092068797,4.286760716834709,0.8584202048449318,-8.560548624828524,0.061139812558619167
,1.190530509373378,-1.1018908800945937,0.35540732156205096,-1.4937635841005632,-0.5231266361159416,-0.43763832710687506,0.04715786451430469,-0.14235563398712384,0.47966723794316807,-0.6494448574143766,3.9712256770934053,0.49457579116006717,-2.7336333716873376,-0.7784521623028822
,0.5050794812179072,-0.9368928558061794,-0.0027105727233168136,-1.4175973826620925,-0.6176460195274571,0.009747816959413888,0.017335849764146562,-0.3960964105430858,0.08487256405515219,-0.7138499889950154,2.3809618893115325,0.569315057996095,-7.828415622581803,-0.3863022058465784
,-0.8895736698027217,-0.636859561222192,-0.16421617006338818,-1.603772556751251,-0.6717714586165934,-0.14255423047717383,-9.529961853664582e-05,-0.0719755460859025,0.1436897962298738,-1.2143260540103158,1.9421369294087338,0.6282296064504068,-0.36523226387646973,0.5676040535416987
,-1.6006702661054681,-0.5750575151267485,-0.037556375603724455,-1.7561490383661575,-1.7136353848115902,-0.44249982336312493,-0.47825907151068947,0.20759018512130234,-0.44048215331664076,-0.8493730320457077,2.422419696940465,0.08330871043592758,5.674832299065208,0.7356746945742413
,-1.2466623565504875,0.09669075368471393,0.0059693339509547935,-2.50160264311864,-2.4867830412303396,-1.0836895541058111,0.1946444377539538,-0.060531184654660126,-1.1802078762290509,-1.597339110877824,1.9242201591221495,0.2860182555807849,5.745003244837249,0.18726066782069212
,-1.1600311771002838,-0.1632091228115894,-0.3195636897763784,-3.9227156902460765,-2.5777022089357544,-1.9445302941687412,0.32270134183458804,-0.15206265833766944,-1.4426973549192283,-1.4228943877230884,0.9799396168001425,0.5471950054201444,7.867732429439045,0.007608922810444025
,-1.7450237782760951,-0.6824011773546312,-0.2727416787683431,-2.6101292220057357,-1.791256304166411,-1.8673989416327004,0.3340369068045076,0.04952458596886394,-0.2876197158066233,-1.0690239402502673,0.05516098244880919,0.3723980076545618,9.997969276247229,0.08335391186630253
,-3.905803902211148,-0.7530146285669681,-0.5382739290956987,-2.56672974523177,-2.3959932158448165,-1.7203266803406885,-0.04226831224071689,-0.26921852485418063,-0.5433614608382491,-1.3748638495632022,1.6262375213728135,-0.2950313113678881,6.153239331473604,0.9836640724872405
,-2.538699909813047,-0.3100085675189069,-0.27464501920328027,-1.7904703722264108,-2.3839313293313777,-1.6330680042195471,0.28378340763571247,-0.05401658707214328,-0.9613459839559017,-1.4193993492141268,2.3354472873321472,-0.060572649600619546,5.705494744370746,0.6542021355875237
,-2.673839629609625,-0.5875334015297966,-0.13979985238713077,-1.07672755306996,-2.2589330430136707,-1.2350704785355653,-0.4238448924447526,-0.19685655447234002,-0.6190223936524006,-1.4105659172383218,1.755978047262282,0.21927726658770708,7.378800603403315,0.37952745758616
,-1.6844944814314629,-1.2042064443704417,-0.07791259331303543,-2.0590286518412126,-2.034042051452544,-0.8555983704534785,-0.31079825601427485,0.07200597089091589,0.6895011310239886,-0.9676136597060848,0.3834973409322231,0.2945675215573967,6.197621645203963,-0.134423496722546
,2.0149926578387913,-1.1525047576937164,0.03672412697585398,-2.9507727271926183,-0.6596128110853402,-1.1743622177019968,0.447427068041757,0.5092293042365912,0.4277807972185605,0.019044861233769864,1.7670842900161332,0.4282870254028311,1.7408195290739938,-1.063632348728127
,2.78112447226917,-0.20328828899068296,-0.12449987495470916,-3.2364614225445134,0.2367132595527172,-0.48316069597575506,0.8513767335700598,0.02286769031281914,0.5091925984308753,0.35676454875171876,5.421667089115481,0.38249459580567685,-0.3980774458554692,-0.8402256192577308
,1.526710075764149,-0.1947048965557057,0.06962461519765424,-1.4323811479315052,-0.7723093785356017,-0.9647974708042988,0.7823259198235148,0.18833839203070188,1.1636122293852889,-0.5018985942269479,2.863125264815787,0.2899641261508865,0.26239286797609573,-0.3116833217657794
,1.3520573136433076,-0.604433087410551,0.15483779550159052,-2.5438837951146804,0.26805147823613695,-0.9214393947700216,0.5891147978017162,0.18348839268861836,0.6596814023937443,-0.18406273840648743,2.166354226670469,0.3982733496479486,-0.09762374623437516,-0.46096650677373013
,2.812282414761046,-0.8259509679427457,0.5543408794978183,-3.115040864484142,-0.2598840863891975,-0.46558440295703835,1.051588965346111,1.1853531534592165,1.1347738020933535,-0.15672775947972475,4.258662627810656,0.7113158967638726,-10.505446069664956,-0.8706329758341281
,-0.387412788576871,-0.5533927985297409,0.56260338128538,-0.23114246218832354,-0.9780830305520716,-0.2101572353318345,0.8401716537434131,1.0715371336804336,0.6475032775259996,-0.568984776003448,1.1651408010302948,0.6300638907367602,-5.123040890036849,0.6651082258084983
,-3.755984074827714,0.0224539469012913,-0.16245271390665414,1.2792990373747404,-1.4771420440991896,-0.11807919099146165,-0.46343633460693384,-0.2114752546007422,-0.6436899420826059,-1.520234937841928,-0.06522826238749457,0.14179970983425014,5.019829787526355,1.7362588076840548
,-2.4043610392335864,0.2725661240420664,0.01950983049643451,-0.30912585062326753,-0.6695733166761467,-0.5316844397111969,-0.10824003095613724,-0.2016209923601813,-0.2846198251278103,-0.8127992728992709,3.0996647061844524,0.24975268217173782,6.826213834986681,1.0338710677008187
,1.8893373506643598,-0.3070349844599937,0.6681543646371243,-3.350407528630829,0.630171455270431,-0.6879221701949013,1.068946006527119,0.0580448202221895,-0.20663374147674252,-0.5769621131817335,2.9339370640993865,0.5240393269252558,-1.5935575126502568,0.27315360209190104
,0.4225964227030626,-1.0685789161968187,0.378976341051127,-4.382034742447033,1.101803743975534,-1.1550972860540072,1.445568869159362,0.057880875539338676,-0.4185948745860414,-1.145007166250496,1.9815963900549076,0.5349977219863064,-0.598181058089262,0.03617314864943633
,0.8287102533849974,-1.2930836765515092,0.17742234827308775,-5.189617513931785,0.0007723052583717532,-0.6854386362284105,1.0892383663084377,1.0068100664837067,0.1705812111317854,-0.523132666820561,2.985747854835425,0.7455978190010158,-2.7447634340834037,-0.34124565340555474
,4.6811248079590735,-1.2280692273753784,0.13413508298012786,-4.816200396320896,-1.2502244366019053,-0.7549233299899605,0.7089359732838947,1.234934966545207,1.676376541476798,-0.22548716929810755,3.1950044249026535,0.597375388551434,-4.119829787578593,-1.5632602967235707
,3.5054162301511917,-0.731681085781035,0.12508868768101608,-2.7755900124766004,-1.6475951189874842,-0.6979471150873636,0.6414073378263764,-0.17598793987320369,0.126575472729494,0.15344050059118358,0.6387403517155055,0.4468878762685045,-8.921371639547258,-1.1361126930576348
,3.59882926602844,-0.854155465971616,0.43250088546239407,-2.6118036730207614,-1.3039246393732558,0.10419097076994595,0.5918486401920656,-0.2695330994168425,-0.16126264940605234,0.3904392968362434,1.8685772300319048,0.47111525237750834,-3.924790717320835,-0.5981239223884757
,5.417838979928169,-1.096784110279902,0.5491396684706987,-4.0406604004205775,-0.8060933286746931,-0.17739409295013936,0.061319326438094075,0.7640311802749934,0.5136095239459333,0.262278429843191,2.8890935060482152,1.0025826864035157,-1.831599061414098,-0.8914272651948795
,5.1758946797222505,-0.5636131234704668,0.3773693368609614,-5.399132935454717,-0.32609660001547364,-0.21039093880041557,0.852617203659454,0.7274168332377672,2.378613927966834,0.6850021700016842,3.9273218891409867,1.2397658626091679,-4.438689152929074,-1.5122447441061653
,4.595043768387758,-0.16125500085888234,0.43299337745761335,-3.3149303551111786,-0.04018281313861881,-0.4761328279038176,0.805196375211008,0.07693158374312341,2.158712638126,-0.30696448781928315,4.295419984655146,0.658370687956321,-5.793175723617708,-1.4109211047807704
,4.33302832457165,-0.3635176299383005,0.37410830408536483,-4.574520766135445,-0.3823318939863514,-0.521657402533723,0.015570330082431512,0.4297815063418432,0.7355590350802471,-1.1679595719866336,4.187456094586279,0.3694463431404001,-0.5764105127578639,-0.7603822929087167
,1.6844035364316707,-0.7080292216899058,0.4624106336797302,-3.9005627649852426,-1.585712787409923,-0.3278709288479056,-0.08731048232625666,0.3971485613489969,0.6614811495333387,-2.0144198440368983,3.087653030502304,0.6402529741095397,2.243370974430057,-0.738084657681746
,1.8023569910641308,-1.196083049895709,0.2850551940464763,-2.283763572824522,-1.9835359958813092,-0.4159003933559218,-0.20014266179579804,0.23288418780883532,1.0208149255577785,-1.660867823901253,1.3807752786742178,0.4918388273937253,1.4589557373859803,-1.064598176148728
,2.9111270437895707,-1.2094759834288193,0.22674852871717435,-3.1146656047812407,-1.1691543730242466,-0.598050765032377,0.7889596469344102,1.2232346369961706,-0.008531265082442518,-0.6402185241628738,2.21837667733913,-0.034483021598569995,-2.224492763123896,-1.1596617284775932
,-0.5516647663934818,-0.7653723165005263,0.035735966864836925,-3.02824722911192,-0.5062193676567732,-1.2401229434374221,0.7107746058128123,0.7348085965000519,-0.5923992492837042,-1.0471081803369648,2.310826097851787,0.042815335437164474,-1.7436645752904292,-0.31359086512583706
,-0.48642996323815424,-0.6673563262770301,0.29130042612591944,-4.65794537918167,-0.7717707517352497,-1.4376059595996213,0.0712073478550928,0.412105491978828,-0.056140055031783896,-1.3365948299488462,2.904367171655776,0.20797996462087578,0.9751975376899742,-0.27024816937179125
,-0.779135505899101,-0.6782119799077251,0.45094174707359586,-4.311105042913161,-1.4975018830650888,-1.388677314525543,0.2869605836156263,0.48646608202392383,0.2849524008223823,-1.4390553198158598,1.5182599688379377,0.11670342141857225,2.9767822188591837,0.268963149909178
,0.6447957064538358,-0.4787165793900925,0.23754486165808267,-3.475897201065569,-1.7014604260644237,-1.58561432758868,-0.20565006462663646,-0.015555392831469525,-2.0777955774338923,-2.563834447671358,-1.3786686829527026,0.43587761523765894,12.052500747139158,-0.2723658377155047
,3.6541904651083517,-0.3512035499318391,0.684665562559268,-2.136482802865732,-1.7469485827825555,-1.334128146932244,0.13547818187548602,-0.2959169614626576,-3.6793955801330105,-2.9245877125986657,-1.2944292714581922,0.6197619685147282,13.97258186678845,-1.4194776164350456
,1.450895603857224,-0.6421317583063363,0.2747780445704583,-0.9581110104274155,-0.4594119671155685,-0.5272315875263305,0.6466843905003802,0.4476893938128068,-2.9868024247614304,-3.6006140627376233,-1.3977770598962145,0.08313828603820936,12.49667479736032,-0.7642026989781485
,3.819331739159395,-0.8718883481082208,0.23484510877548623,-1.656591695543876,-0.6011450633860848,-0.7017875787586085,-0.4544564157130727,-0.25272440230719173,-2.767649423561165,-3.1063257877639243,0.6668159449620388,-0.06398245212744574,7.3397384623329875,-0.45976878769238927
,1.7973409782344594,-1.2533598352337711,-0.03766649780155207,-2.976011051609674,-2.1171970328085488,-0.5806384406074976,-0.6502534757926571,-0.3209368139859345,-2.0156611637146282,-3.0439468974233974,2.4087792166213275,0.3833426646365507,-0.08872198652210408,0.021332890727428222
,0.21312149344578435,-1.247527043030225,-0.15976291917321045,-3.07880779027205,-1.5080154859743968,-0.9558208507752892,0.047703199608291766,0.33322378633202576,-1.5479687405050506,-2.5339171851198232,1.415551325458684,0.24308578672887574,3.955190312364646,-0.2892811162421247
,0.5549900955378967,-0.6937907023003382,0.2726742454341118,-3.9813862598937844,-0.4121618665329258,-1.4712753717402134,0.434326294284832,0.2038178517062629,-1.4060460374524617,-2.3286840777951183,3.083058970876044,0.3191958901356031,-0.6509998248418791,-0.46458714173728555
,-0.6563449427686795,-0.5172741411355928,0.10258256561197987,-3.355930447953164,-0.7524773612884862,-0.703898600523486,0.14082779624586905,-0.2327028281414109,-1.201185228285825,-2.277336363275536,3.3544254042887247,0.3914412391601377,1.0888456672450935,0.3444704406534882
,0.6297878732973634,-1.0007114545360778,-0.0879315890778113,-2.445933995050148,-1.5685192478522807,-0.7140791998757333,-0.0759702818310625,-0.11203252339451625,0.7468278799969228,-1.171866692293822,2.235428513306848,0.3839757736184073,5.174529230637962,0.332131322696587
D1R,2.491261411748648,-0.7149895717823999,0.15040304955493283,-5.496529589172762,-1.0069726006247262,-0.8504130971866435,-0.5576813964239908,1.0457976956579846,1.6363607743079696,-1.0751398786623672,2.879919818744509,0.921653632990375,8.71423235661896,-0.42023859014765386
,2.3426704289944857,-0.2618305679185782,-0.2274424989994246,-2.965476216445056,-0.770748619166386,-1.2149631531133127,0.46696384639437477,0.497739915287495,0.1544835846020447,-1.1643762226119214,0.06679905213566834,0.7509209297608604,9.63128843516486,-1.1687815454733672
,0.4105877937140845,-0.3280165500635534,-0.07480952757783002,-2.4818907281623948,-1.1736267829635794,-0.5818965775605975,1.0175727445222251,0.3333916730762546,-0.7126686650669758,-1.8020907896771743,1.436023033441633,0.3709434473170345,3.2706760851196592,-0.21794563110380796
,2.1023585186475584,-0.4541128323431639,0.3484507184218965,-3.6713414474397577,-0.23914049556781108,-0.8611405810517088,1.0037059425998631,0.08609455981205316,-0.930072018892158,-1.6505866381322538,1.2358647545797306,0.5973949536982215,-4.097747555239186,0.011164059854274305
,0.48779303295724963,-1.0758192712010008,0.2857152138292168,-2.6017999749704455,-0.8172759326423592,-0.9559519558077422,0.6251616791205834,-0.6263303102239427,-1.13122926407232,-1.1242838555673205,1.254396833132449,0.8139376228282468,-0.43362382251938,0.4066720730746942
,0.6147536452772593,-0.8056769497782771,0.29905407588377214,-0.5431923696107142,-0.6696752867233782,-0.6399289664335729,0.15452709199223688,-0.7738657353599703,-0.14193690425534827,-1.4921165417583608,3.432993949462168,1.433544408058503,3.1908763215636107,0.1615020549487407
,2.9076868055712963,-0.43696630268555336,0.5394726575857001,-1.2016633946782054,-1.5335553971467766,-0.9327831994222007,0.6455367203541722,0.010789038536069516,1.3100345755614784,-0.8428970190377887,2.86817670535306,1.1641151702644625,-3.3736716272678544,-0.31602312385571146
,2.3254194976904206,-0.4590680774410973,0.014420251033624114,-2.589448612817623,-0.9035120339074797,-0.48430333241643353,0.8683073498739337,0.02439897176669888,1.2439054679921864,-0.18276517514918297,1.3174713411838361,0.49150318890382894,-6.6940999656345195,-0.2817824928232793
,2.5350460916127067,-0.7658062342762421,0.22627581952123127,-1.613568453433983,-0.09661546419745827,-2.0591173175057236,0.725756032610493,0.33739479379029497,0.7517245538210807,-0.4361085644483526,3.068657372944304,0.40888437626217433,-5.994613130572279,-0.3628917528127745
,3.1985686311856605,-1.0128573554356526,0.4908487246876654,-3.88577435573954,-0.9245649728691131,-1.745142361719696,1.4816467375151319,0.16981782405141307,-0.08234408080743952,-0.8996962140733381,3.5762920786215386,0.6594832421740916,-8.96666452551788,-0.38410171025782835
,4.58966522634125,-0.5722720254310169,0.2555229097937942,-3.8354241301602143,-1.4656745834448026,-0.11086749221044742,0.45477795811698546,-0.32028449966996336,-0.5587681833134837,-0.1597461000437517,5.499686145241047,0.7504523287500643,-11.666366810095074,-0.685660084681609
,5.299270315255619,-0.6964601723381937,0.09210438486098667,-4.469220353244899,-0.7550903010485698,-0.8294621186854401,-0.23081770000843932,0.18688303929555858,0.6487113669317154,-0.5541566454848921,5.108528292909097,0.8401281752182909,-13.733482691157354,-0.42524823295534947
,2.3284091385527597,-0.909873677688457,0.005352570983685664,-4.141276948989699,-0.09502277439796718,-1.6361490213296417,0.4840316218699259,0.5203906038585309,0.9985152774408546,-0.5782655266015045,2.869470987355071,0.3243518136228073,-10.454608733625678,0.09555919808176178
,3.3508189491403377,-1.7043868083034874,-0.07461220294238528,-3.9532684760149985,-0.8763083963407586,-0.6496630346043051,0.45491179842263424,0.3450837482490637,0.1319743834250061,-0.7205741092960406,5.407134175952971,0.04523139450929097,-6.192811517263553,-0.8731512261402434
,2.6696359384128514,-1.771999606347829,-0.006675942797871512,-4.829119035142448,0.10383867698219322,-0.5709676639615096,0.037366978366740834,0.28057931345893844,0.02843173321537837,-1.149616825615757,5.037948242034165,0.05283085241782595,-2.002796853511081,-0.6956068940575929
,2.6457685054716573,-1.2667990232697144,-0.06757400331462439,-3.4079124274665777,-0.043343190530495575,0.16577617056680255,-0.03305894598933451,0.6265990514085991,1.5597251022129783,-1.0112122409058941,1.8798864310222272,0.13049378350985824,-4.715282707690447,-0.47556514906351033
,-0.5829796803521845,-0.8738274987916577,0.20454597244289693,-1.6602258977608046,-1.5152205502157625,0.47754226702894265,0.16472588103302205,0.43099955761529646,1.164825729290461,-0.4162251121685752,2.279206816944323,0.49660888747588217,-0.36680627689816325,-0.1943066235448804
,-0.10803127622355074,-1.2797779477452522,0.5703882046534109,-1.4128095020837201,-0.6367817298947436,0.6074845659369494,0.4085764289141022,-0.2389467751812556,0.2815966980034124,-0.005332094754726421,2.7994391799053764,0.8665013731697991,1.2606029926338513,-0.195563005211876
,2.538275409918481,-1.450689541101891,0.46625678454083996,-2.8843862357303944,-0.2621216708871869,-0.4460838410319578,0.3269271742558297,-0.3348745771155396,0.27573637675955925,-0.8291767859230869,1.513191951822193,1.1184414912064333,-6.768998300851481,-0.32679373803223877
,3.207530760231985,-0.7234003476215073,0.06779078099762972,-3.261261886581223,-0.14355694717836603,-1.3333458704430663,0.293923145633107,0.9427989935043901,1.2398736530203271,-0.6714712308073292,2.4469774541341796,0.17685354316101856,-0.5600756664055438,-0.6108222489514651
,3.8413236357462663,-0.6856268058889013,-0.14441432152726932,-4.492293965180856,-0.34724732494095767,-1.3424788716329044,0.6868820567383612,0.9968866834668981,0.32896406664924316,-0.12460656863206532,3.6214498979486986,-0.09962653291465504,3.777778567297033,-1.024468702055493
,3.00500167098977,-0.974503570593321,0.042892173351456314,-3.521389925892892,-0.6668288490543172,-0.7521031221266743,1.4181730418114955,0.6705478398285614,0.5046294963316734,0.515700162353897,3.6794132561716357,0.8549398493767988,3.625281365329571,-1.1067698104416006
,3.2727811746996216,-0.9200193151751345,0.15349327100476956,-3.6929563666980627,-0.4321461349992625,-0.9392430645162766,0.7189368907721698,0.2232690570479831,0.2497927338129603,-0.045651843559299944,2.6615114767066155,0.7334083264869772,-5.350972270740976,-0.7968608863039466
,2.1917669349331086,-0.7253777287272881,0.12124116879848351,-3.1461015175884492,-0.4190373357975599,-1.0797268292571238,0.29877903676983164,0.2596193483632419,0.5272456164694308,-0.32278327816786084,3.601830966075222,0.24190712314461646,-6.1497925868149075,-0.8744603755854571
,0.04615079444530974,-0.6170675348332482,0.07399928540053241,-1.7644316968449578,-1.7534959436664768,-1.4617793454960577,0.09070612182329482,0.1649607257714137,0.1590608864473677,-0.7750405320609732,3.1698615495340468,0.013164173699140698,-5.877258734813475,-0.18712153388850095
,0.35315321828290586,-0.7147129775814981,0.10532689968553244,-4.127103801342387,-2.03949347751404,-0.5741692209979399,0.9140846251942037,0.8503923728857783,0.8688040321164606,-1.4267158190790468,3.055587579003262,0.3055909689826415,-3.9601635910865522,-0.18964502358128713
,0.21637419330242105,-0.8404141115207164,0.07637896441620762,-3.835839613165126,-0.9493482199967745,-0.49192970320696916,1.7089227902096538,1.4086262968693661,0.5004507334152782,-1.6717788187028744,3.1899063422081553,0.6342156003866832,0.9143337154323927,-0.23537698881671223
,0.6241969997775833,-0.4504155476002212,-0.02898807601656845,-2.112658095639439,-1.864351795428952,-0.5433447958850018,1.8239968911537576,0.10597905211601609,-0.966006621391376,-1.0532516807092818,2.451059963427357,0.4917964718423928,-0.5155342899765771,-0.10759610638754613
,3.3458010790726314,-0.48344641639023544,0.14574425955612288,-2.6068201405147216,-1.86477077361061,-0.9908916918247549,1.338236796740685,0.20823109833031095,-0.010911077641374937,0.013071962949829834,2.6620811260311092,0.1505555296021142,-2.084463917725904,-0.9703927686525425
,3.9360416174904875,-0.592428038122063,0.4150092114081952,-4.017599709153829,-0.6179955086257385,-0.7340914288736067,1.1272690375275118,0.7803855985878808,0.720012025517717,-0.1874789281271158,3.987549079336766,0.2602617910719249,-2.9392034718323847,-1.053264793498683
,2.9539316952195063,-1.6125018028756761,0.5136572903807303,-4.836670247436666,-0.5654663632836168,-0.22175158483892837,1.2548931063773516,0.4788127980612511,0.23379452421489003,0.38694931660964643,7.365159903916193,0.6057082829609366,-6.812030845445948,-0.9372492382616683
,2.214298103877574,-1.4856048572222422,-0.022151534614478132,-3.3426957899130034,-1.2432309256320708,-0.8508551531946187,1.7814875141883184,0.5498930004965522,-0.3546489607414999,-0.048270029990115634,3.4252798552430854,0.2767120877214991,0.6857013632948118,-0.8373536500146859
,3.740132628467667,-1.167989763123428,0.13463078443399643,-3.777765727494755,-1.3963141858174652,-1.314420689283312,1.8471597289664237,0.7827880763841489,0.08459330867322586,-0.2727508303035941,1.6423679226975685,0.5481317584551179,2.66334153666108,-0.7302082781779525
,4.122192713396116,-0.9319851654882589,0.43409030037385143,-2.870692632407058,-1.8618360255162627,-1.0224472233045772,0.5483783930466031,0.7836530640004228,1.2074485478468389,-0.8711859249723516,3.189008357268205,0.5412810285935321,-0.9581829300856095,-1.1207949898950043
,3.982552103123217,-1.1277505409350121,0.21404790110678834,-4.492239209426983,-1.2158639161045597,-1.1727815980306175,0.42946884660218004,0.7325374026731487,0.7031815615073292,-0.21707516497226004,3.4687626987198654,0.5992596863065237,-4.2519004477384135,-1.9223843687392592
,4.294235195548941,-0.9839709107486875,0.24295069993233,-5.398663694797295,-1.400472673872252,-0.7070261334133677,0.9112128048090219,0.725418983148767,0.43390783734476995,0.4624092257107002,2.844822478230532,1.134687961340405,-6.009315001937584,-2.3149771960442
,4.579056481301688,-0.986793059434534,0.027784626468194944,-4.502780711174384,-1.9281320362171692,-1.3480626396351534,0.7623494722770541,0.49105199175832787,0.6328827665936878,0.3872002791488423,2.534588995497782,1.0872609915232718,-6.55948772682363,-0.9733171146560698
,3.0687565213524035,-0.9146507845591096,-0.28615318671734874,-1.5844522410889965,-2.843732166447622,-0.8647886255393391,0.7750207450519828,0.0988617024445532,0.46466642181117873,0.43457546515877277,3.751968427489382,0.5685551194533464,-7.997915904440594,-0.8951169559602548
,3.593123106478663,-1.4420910740205048,-0.2369047464234351,-1.8239328139501854,-2.1762526070018953,0.0033903674062761243,1.0958718909775917,0.41056014964612914,0.39046946629971235,1.5110775295385304,5.952922939048163,0.6555308826312065,-9.974462330289558,-1.7104605672168205
,4.394588511661774,-1.9255812313641134,-0.0035860042340719925,-4.208404771709344,-0.9948915428320889,-0.8772269948785305,0.5237523867240094,0.5555773270140297,0.6682652204104994,1.7756687279927876,3.604240962533238,0.7383686537294184,-6.831533834557956,-1.4223231523662414
,3.443598866775952,-0.6511648328100305,0.3332152923753758,-3.1031857181550038,-0.8507721681532048,-1.5481497423868251,-0.08037895351612202,-0.00017023482353417243,-0.3140219903442349,0.7066444497061605,3.3561809731015533,0.08597066886649747,-5.142462170057271,-0.5884315414759785
,5.0711090518665065,-0.470473504094582,-0.09198750957041878,-3.0017334735567784,-1.1487344983002097,-1.5584970709969024,0.2736051566023099,0.696188562313542,0.3124760941514908,0.6657814078572597,4.482374998483693,0.26175724707393505,-7.633774420507591,-1.4680869973742465
,6.433849343962644,-1.3636487573977307,-0.2633502219692722,-1.2763707245007734,-1.9755954693813442,-0.681063684783715,0.03026435716908845,0.8886378756905292,1.1180862391955373,1.0338772847759052,5.5011943675311255,1.059219748706276,-8.905744822931338,-1.8961266889610848
,6.48173328135069,-1.2560125149338521,-0.10818094258978245,-1.7415235465798815,-1.2913107529840335,-0.13788225827057438,0.8528774683692986,0.6665744752325596,0.9061854652710576,0.739036239513372,1.6269923013362908,1.2143450555596225,-11.576749418373243,-1.7335710704074998
,3.7757156425701393,-1.301027905865926,0.3320029945935577,-4.0605610894852475,-0.7167330144405238,-0.6285559846456513,0.6564558963634252,0.9384378785823858,0.9118796380263322,0.26329503713697516,0.9378267733416897,0.7422961819042867,-9.481461666477898,-1.2060157682527628
,1.9768830001487518,-1.4014335758221965,0.2519031171089455,-5.507993800530699,-0.01575440779147813,-1.1882596216248764,0.608909032237195,0.48403383836879293,1.218459817560589,0.36924407977634643,3.396681767866249,0.5446705298686143,-9.243925689351595,-0.2704004454219808
,3.0978229831051105,-1.2513266031819053,0.281546465684606,-5.613360562683177,-1.3579457143820746,-0.8632265873172095,1.3876564212579057,0.3814888434613349,1.4595624513762626,1.6251830338391653,3.5858691996987058,0.6009395378154754,-5.3735550263532295,-0.16523072446599582
,3.7325417693450342,-1.2422676234800598,0.31548069226707237,-5.146912233878819,-1.3197091348206733,-0.5021884635083326,0.5911359748851925,0.7816490542389182,0.8714567755652357,1.8902992186142649,5.974065743913062,0.8491541901320534,-8.16654516702658,-0.6913877044304049
,4.837215566422771,-2.0467547334387497,0.0361134196540552,-5.425563226732033,-1.1593505356728702,-1.130869733203164,0.738115218539523,1.248894026159418,1.8130900829622407,1.3254227038074557,5.938227197261484,0.9498376000743431,-16.033091391679633,-1.2957343156461116
,5.346205846512092,-1.788247117897648,0.09134294230232123,-5.873229004265218,-1.898581161170139,-1.1319164353741344,1.2023241823492705,0.5000378061480465,0.8290317585083232,0.12394261303966317,5.306935240950844,0.32109495741098737,-12.552818130509415,-1.2636133116591317
,4.579605017788967,-1.6644506360703324,-0.06477726714255481,-6.707721472716516,-1.601855801916311,-1.368368428520141,1.016747962561037,0.5457832347714727,1.1259296875719116,0.16476314010701532,3.932795202294688,0.2533229048729934,-5.319540170221095,-1.7811301620986393
,3.247536347218823,-1.9880557885880696,-0.11256986713603338,-5.885495830355184,0.35853315768220123,-0.9242692805468163,1.3476926897252823,0.6766067746004256,1.07122537534808,0.27261575696214896,4.6252621586890665,0.33110058937159487,-4.406881171563557,-0.9199107272777575
,3.4685291884343132,-2.400679410227257,0.0999293077674836,-5.86662352667192,0.9159520500548078,-0.5556645709021082,1.236967461194594,0.9183645265928032,0.6967506346732842,0.1956351238047715,3.960049004324137,0.4489694847803854,-7.722067198177457,-1.3973317935886176
,4.088480088159122,-2.1391789355379838,0.17706928525779428,-5.126338330167745,-0.08525384685447066,-0.7876226889780145,1.2446176684699244,0.8610981605666946,0.7894533477587465,0.6038494696035356,4.771324828091596,0.3254870798093116,-6.702279609603667,-1.571915291501139
,3.96276387159356,-1.8642193566728678,-0.027609772665940117,-5.024235591078358,0.03394826103820164,-1.500004750628327,0.3799273030727769,0.47366603570355337,0.725239999965825,-0.12459019618569576,2.926400654599709,0.6663881862461557,-10.235233021530622,-1.4610065524431473
,2.640040812427968,-1.3108444174641647,-0.19595624324750993,-5.646541989447155,0.7673909257096578,-1.4025543647562073,0.4012966735121507,0.818681187134207,1.0612152008072662,-0.13024676261099846,2.2915830243851225,0.8381352895917682,-14.576940707396746,-1.7511417715496778
,1.0408773909148747,-1.4466066740011134,0.12249631742124742,-5.7719504056822695,0.6648401760425401,-0.5013664755502376,0.808468268042851,0.7521548712589765,1.4609172190643656,0.167031620563082,4.693377173027806,0.7395389093896008,-11.23012325109142,-0.7780262223658386
,1.580683970607139,-2.4596878890921543,0.18332618952334628,-4.875774690139346,-1.4081432011639818,-1.3461899260471648,1.0424018598143923,0.38634499630584607,1.6695417282498635,0.3426364397702875,3.4824515200089,0.06412177218865078,-11.571486563923843,-1.208351139846103
,5.04138649306154,-1.5795000768029863,0.11902552060213432,-4.137963280612277,-2.4831299008930405,-1.7797184867437168,1.6082893191982874,0.2831828448958094,1.2216181824660797,0.8274473154380276,4.266636703926368,0.008450049337765978,-10.50572678153376,-1.152272671556018
,6.018278171480313,-1.0779656127434214,0.6114974098490725,-4.409892880673883,-1.2441406667350643,-1.2889161855852274,0.8433417034716838,-0.02499587629909874,2.3565589338954904,1.178274743674121,6.00093011383893,0.6265358135495861,-8.011821422598091,-1.196492537980082
,3.448575907009592,-1.0115808580494177,0.5121943096434587,-4.220635442432604,-0.09245329072295906,-1.01951534524785,0.4347573074790225,-0.6116002947773168,1.0562829340604345,0.9767156067612506,5.442445073908091,0.6778394009680196,-11.907910433444968,-0.9218941432515187
,3.914803938670227,-1.393510308537198,0.4769964323334908,-5.337838779418816,0.7050563453479958,-0.7283132661147719,0.7477968500275584,-0.5100923463551745,0.8081192271873402,0.5816870095910434,5.30059887227271,0.3377922795819742,-8.758303456781197,-1.4659154238570786
,4.699432727708267,-0.9786186322246045,0.30090077452688363,-6.0986717205840755,-0.32864546431474534,-0.2521280126734021,1.6164516572557892,0.5332215040680133,1.874140934048963,1.3602041776528686,6.162406423592905,0.42506348188973103,-11.539985870087316,-1.3661528580232392
,4.244939712037742,-1.2329757081220816,-0.02143605843210722,-5.259692263104065,-0.7134528989175315,0.174605561934818,0.5998646647593778,0.07484335537236336,1.5351836352071244,0.7452985834194819,4.20528485628265,0.3753219828251764,-13.043896538531634,-1.1921176877735817
,2.797719417597824,-1.5915929805659783,-0.15710670349808928,-3.8471964676940917,-0.9593196310236549,-0.655698506709681,0.36886800239961676,0.4242820173364916,1.5293067548792423,0.39461750475283025,2.1055965556609237,0.12643153489885448,-13.254022090219946,-1.9108118439265696
,2.327608650658274,-1.9522852048650414,-0.17654070852867326,-3.5466844994559534,-1.4589813699708356,-0.42914046799766986,1.115091259420737,0.07216393684227315,0.47716936708537644,0.3486334593442747,2.8250732748599976,0.11826640535421253,-11.82521289243523,-1.7289902845616332
,4.057376658581926,-1.6274039655703676,-0.07702559994059124,-3.0488661584260144,-0.4080430006152277,0.19390907352254738,0.9218470377728806,-0.4229512522959193,-0.17190852316046598,0.8866247935756307,4.014120702266624,0.19140718225782768,-6.286258921474512,-1.8755964664137912
,5.7892279201775585,-1.9124619682252417,0.17654409094126075,-5.58051915431092,0.27032027285848176,-0.5177162341710134,0.8794280020485646,0.6552545774667133,0.36629603227181595,1.569302479226972,5.14326346660346,0.2957538661367791,-12.232341605153117,-1.9259296154062306
,3.865892691784224,-1.5111825290249803,0.2708224894187805,-7.213770418163522,-0.622829306277757,-1.0074002321593962,0.3042537696126057,0.2508578231714482,0.024971028122377444,0.8346314695482324,4.1656923638557375,-0.1075850762495794,-15.397545040471195,-1.2726188177377156
,2.8728570456116493,-1.0106178317384282,0.6998406694580763,-5.3682552740270015,-1.4824744321063799,-0.9990704275459305,1.1488273805670763,-0.11292234183239723,-0.55508811510583,0.6628969525094593,2.9713170868836953,-0.3588177298190072,-10.998388416143616,-0.8740982635754981
,3.9619888508494725,-0.9652616173224705,0.3789130664772759,-5.006205041148091,-1.405789423836089,-1.6656852192246814,1.2047861744718218,0.05423279908114529,0.32108702320468013,1.3321768037668429,4.566792717183433,-0.10953915256889672,-6.403092102545813,-1.8842192770681643
