stamp_i__desc,stamp_f__desc,latency_i__desc,latency_f__desc,minimum_cq__desc,maximum_rms__desc,data_fixed__desc,eeg.af3_8_12Hz__feat,eeg.f7_8_12Hz__feat,eeg.f3_8_12Hz__feat,eeg.fc5_8_12Hz__feat,eeg.t7_8_12Hz__feat,eeg.p7_8_12Hz__feat,eeg.o1_8_12Hz__feat,eeg.o2_8_12Hz__feat,eeg.p8_8_12Hz__feat,eeg.t8_8_12Hz__feat,eeg.fc6_8_12Hz__feat,eeg.f4_8_12Hz__feat,eeg.f8_8_12Hz__feat,eeg.af4_8_12Hz__feat,eeg.af3_12_15Hz__feat,eeg.f7_12_15Hz__feat,eeg.f3_12_15Hz__feat,eeg.fc5_12_15Hz__feat,eeg.t7_12_15Hz__feat,eeg.p7_12_15Hz__feat,eeg.o1_12_15Hz__feat,eeg.o2_12_15Hz__feat,eeg.p8_12_15Hz__feat,eeg.t8_12_15Hz__feat,eeg.fc6_12_15Hz__feat,eeg.f4_12_15Hz__feat,eeg.f8_12_15Hz__feat,eeg.af4_12_15Hz__feat,eeg.af3_15_20Hz__feat,eeg.f7_15_20Hz__feat,eeg.f3_15_20Hz__feat,eeg.fc5_15_20Hz__feat,eeg.t7_15_20Hz__feat,eeg.p7_15_20Hz__feat,eeg.o1_15_20Hz__feat,eeg.o2_15_20Hz__feat,eeg.p8_15_20Hz__feat,eeg.t8_15_20Hz__feat,eeg.fc6_15_20Hz__feat,eeg.f4_15_20Hz__feat,eeg.f8_15_20Hz__feat,eeg.af4_15_20Hz__feat,eeg.af3_18_40Hz__feat,eeg.f7_18_40Hz__feat,eeg.f3_18_40Hz__feat,eeg.fc5_18_40Hz__feat,eeg.t7_18_40Hz__feat,eeg.p7_18_40Hz__feat,eeg.o1_18_40Hz__feat,eeg.o2_18_40Hz__feat,eeg.p8_18_40Hz__feat,eeg.t8_18_40Hz__feat,eeg.fc6_18_40Hz__feat,eeg.f4_18_40Hz__feat,eeg.f8_18_40Hz__feat,eeg.af4_18_40Hz__feat
1669898691.088468,1669898692.084068,0.0,0.9955999851226808,4.0,62.19086864935024,0,-4.28553046071488,-4.0064336960988465,2.012424237940487,3.098739120163882,1.3297529901614773,-6.623063670043329,-1.4397968289549035,1.8138369014548323,-5.427506447358217,1.5421717165623847,-3.0753902329071483,-6.004125887806557,-5.833899249592667,0.819075019021988,-6.572188698292447,-0.5342562374678593,-1.9816963008356328,5.693021131572412,4.012925710434903,-4.716711838808739,-3.353919747300954,0.7876403409302056,-5.5848450535363705,4.679875699676698,-2.5059202725545964,-3.2001364982488316,-2.4882867735514793,-0.5591295856558669,-0.8951191125392327,-0.600477783108392,-5.084383268541588,4.618561009410934,0.25514690353539055,-3.3123692815249104,-1.3681641256450479,-4.002899459996271,-5.046300425499723,-0.7824994077258878,-2.44942482147939,-5.419304060789275,-4.203356536144668,2.745147534845542,-10.657585172888556,-13.127085779144647,-17.014665804606796,-9.71410364669931,-9.127128950373544,-11.244327503109838,-10.536395936940565,-12.241952140498757,-14.046223782846017,-12.382700677126266,-10.230932677586734,-17.00435394059805,-11.462143488657361,-10.985587907594914
1669898691.338344,1669898692.333945,0.2498760223388672,1.2454769611358645,4.0,34.72619384621915,0,-4.499437214922977,-3.022980196253535,-4.675086545328791,-1.4045351527449328,0.3181510247085607,-5.237383765466218,0.5374850923098288,6.524953331963839,-4.357941841959937,-0.3231632155841686,2.203826162169929,-5.2446491869458844,-10.216641050271306,2.6397236801053134,-0.887358006506904,-1.9589351538263284,-8.944236335189157,7.888160256194043,5.917232309932665,-4.887221131284279,-3.5359796121007676,4.9193227976763865,-9.701890350863406,1.0180669687638086,3.539709749724711,-4.5319536441932975,-2.6653441717270128,-3.3313722332515363,-2.67436193558279,-1.333444741068972,-4.396386478279202,3.5243682673231227,0.09729636864634192,-2.626545315364347,-3.6811584892809317,0.6764352631088889,-4.209018350568599,-1.143460247906532,1.3560144300847816,-7.19349859287828,-4.631217896788866,0.5540065388092744,-10.442577436837457,-12.85450658080444,-20.83951540879122,-9.359695941074222,-12.439187375895223,-12.168834628745309,-13.63067790734858,-7.77122118944772,-14.46008714651346,-8.011630892876653,-7.145246270618583,-16.49489464433874,-13.396031708208158,-11.622693247488876
1669898691.58822,1669898692.583821,0.4997518062591553,1.4953529834747314,4.0,41.15642325315612,0,-6.337485513834848,-1.5774511444886032,-6.834535395277115,-0.47017256105626637,-0.9746574974495342,-3.2885422894497696,2.1751617515415926,0.4825677455567428,-4.097994004604228,-0.44140360722550387,3.4275098316418227,-5.634748858260297,-7.832270979889202,3.674485421006329,-0.13524662677991808,-2.8132059670546337,-7.519501326914889,5.563491337005905,3.719184806839524,-6.808358150541503,-3.3790921412201436,-0.15981708253011487,-8.04221905201987,-4.067980273015589,3.831899895752198,-9.70600335161051,-3.1011866308108367,-0.8090634234557114,0.06735966436017139,-0.6892885745152927,-9.339721087995205,-1.1018990339951003,-3.28978887446328,-0.4464524462788403,-1.1071010046959275,-3.7602177934169374,-2.650955036135122,-2.3656029368043354,2.8154012503924966,-7.2875685601392775,-3.023566480952961,1.4263240260657697,-10.353520823796616,-9.850256934972968,-18.564886217403746,-10.245759064735442,-13.015779977509151,-15.476825477351948,-13.464257270751276,-12.393104414224663,-15.00929053498341,-10.004009545193778,-5.991766204694388,-16.412305233744036,-12.362202093246758,-11.460820799398743
1669898691.838097,1669898692.833697,0.749629020690918,1.7452290058135986,4.0,68.57483254784152,0,-6.40810875656817,0.9917843580197025,-6.9513219442403,-0.2083987540289822,2.4149699450547133,-4.392750729138673,4.665633439946422,-4.549446129710116,-3.21929016833588,1.6410088783285415,-0.40127701265590277,-6.598746439942542,-4.718949737610095,2.9640804669859517,-3.7738080423933154,-0.6599172706084329,-9.307608138397706,2.158367151747089,7.185348086461194,-6.5101039203256414,-0.3336164460699924,-6.814364339278956,-4.606826473419433,-4.704249893283221,3.595457751821324,-12.196536636213942,-2.362702236410948,2.629980062790354,-2.280315294172625,0.22549018771477702,-9.985224760187911,-4.8906804132075665,-2.400805063164065,-1.7862897688693427,0.9149649437166556,-8.173011125565491,-4.392573996201994,-1.5707234932796907,0.17430808342635667,-5.568252471720259,-2.4050993046922295,2.3238372066817847,-12.652727819195118,-13.414130438579608,-16.85565569034281,-14.57424534360538,-12.345168115758272,-13.101467833081035,-8.271002536133834,-14.98366908821646,-13.129844298932532,-10.058637832556927,-10.306279149525421,-17.317214865011593,-9.486899250022718,-7.2725052655976
1669898692.087973,1669898693.083573,0.9995050430297852,1.9951050281524656,4.0,113.15109474108729,0,-2.3817944524227013,1.4865005913370142,-5.036325080380195,-1.6672622323296462,3.1724673020641396,-7.848240793619279,9.451524415649148,-3.530785418003179,-2.674932488730217,2.752264889552385,-2.427860869524419,-5.441552249427987,-6.6312418527891435,5.337374491802217,-4.214308932040812,-0.07123132159586325,-9.442642008591594,5.129676764929593,3.277449030795949,-2.5075637107245106,5.714125854875711,-7.890523051484087,-4.183938505867327,-4.254497235672859,3.0765306137625226,-9.004327855357586,-1.2603924113270852,3.230649974513187,-6.746721156587702,1.049638451901937,-11.71041308035841,-3.361323935243528,-0.23747748228902577,-4.1111400978503125,3.426091091656884,-8.28525669231807,-6.19686921234392,0.6469302069323155,1.3423972707317264,-5.89274454309904,0.31220268739780976,3.18591170759361,-12.517810730025536,-13.811639871325731,-18.022382053214972,-13.990609867168518,-10.404082156414109,-10.6216838221843,-3.7026843921281563,-15.850076013418523,-13.910708999135583,-6.360176798187184,-10.326465648469622,-15.060846488889597,-7.985096298021206,-5.080311393340989
1669898692.337849,1669898693.33345,1.2493808269500732,2.2449820041656494,4.0,127.20614210554776,0,0.2624454011860599,2.8781313684646017,-7.423151421785922,-0.05531480466391668,0.605825469512375,-5.944962397622854,3.4433264346036445,-3.553407584693205,-2.8961977644809274,-0.1250075252917309,-3.5238421282618315,-5.115474845837817,-4.549778548648877,5.512366451136252,-1.2430688651858763,0.9146982786433178,-9.010390497779387,5.668677007850067,-3.470852630708131,-3.006003385128611,0.5679762520783345,-9.097359936283384,-3.281386646308304,0.6295893552419153,1.6851500757991913,-5.852558883629252,1.2786608051962836,0.18071848537326643,-3.7907038739438215,-1.041098145600848,-9.311734789122788,-2.457203998527869,-1.9814049753227738,-6.083216334653738,-0.9681419064764949,-9.498455441428963,-6.660391940746582,-2.5327111043244805,-0.7475577854977626,-7.133320553226965,-1.386673381723302,2.224288595270132,-12.539399790934311,-11.314118112237683,-16.516446126314545,-9.29129771099044,-9.374273070448352,-12.808922034518533,-7.469991148202593,-18.426436507069162,-14.302865215273343,-8.241798975300885,-11.841031799753958,-13.214676982785106,-10.842225379019961,-5.233840802730897
1669898692.587725,1669898693.583326,1.4992568492889404,2.4948580265045166,4.0,132.20618507009402,0,-4.862011127941038,1.266009070597308,-5.666051440980637,1.432557391248321,-1.4223610991637747,-3.886460440426544,-4.313453170698941,-4.616856626051651,-3.072618835496362,4.099817928146797,-1.9880891351316814,-6.444293629860996,-1.8256613157388002,1.53004323827323,-0.39054078804828285,-1.3070448506299632,-7.040889508979299,5.491177013437532,1.3485744588199986,-5.286028125810668,-5.905701759255967,-11.056578081433699,-2.35368005602909,2.6275319832303774,1.593451314541413,-7.279385019307403,3.6478527548324156,2.3657367433410306,-0.7386232862303027,1.8251216709158882,-8.239028072283684,1.271898228173558,-2.0551408660841903,-4.3593182772964765,-7.790753750598876,-6.324876886501367,-6.8483044011812355,-6.033044164716168,1.7946737440249465,-7.227126526001584,-0.014913942203399675,2.1932284993323794,-12.3473692243317,-8.593763014570495,-15.044552005503034,-9.767670173052833,-9.988140984182746,-15.050470917599966,-16.173167016299733,-15.95635726902428,-14.136277828117516,-12.596300566945446,-8.169579096016333,-13.464272207927987,-6.318129411062202,-4.878282081668766
1669898692.837602,1669898693.833202,1.749133825302124,2.7447338104248047,4.0,112.98340830792027,0,-9.345920380228534,0.9628053423080091,-5.700833032770774,-0.38250809061567087,0.10798342721055199,-3.7415550272396607,-6.6821497323395995,-7.404524529278574,-4.50105370768102,5.320046036391952,-0.9092247696053672,-4.466045744845845,-0.12062598475953847,1.6681585158711405,1.9830883709827516,0.16795869234269772,-3.796549392090045,5.570302221371129,3.2526052243508303,-5.042616781019563,-3.344048604776393,-7.51339750036232,-2.972518762770461,-0.23132152175163606,-0.43247218950216465,-6.286180922148467,0.1413093228111361,0.9286231386124391,-1.8242239196245371,3.0910421832983337,-7.133168008769024,2.2323310851320652,-2.1225966531180642,-4.5374624009913935,-4.565430798860357,-6.669834949256709,-6.927323344536697,-3.6685465167563573,0.07859483497308337,-11.316001305489037,0.9972254504049928,4.309030938727875,-15.657066263157088,-6.709625578743342,-14.070362753821176,-9.617031786401236,-9.608617852329314,-15.56549095056079,-16.557151142376384,-14.353390408075965,-15.745551609761073,-11.605143730392133,-8.957536622999116,-18.49481801239974,-5.595812145438419,-4.4559934680074855
1669898693.087478,1669898694.083079,1.9990098476409912,2.9946110248565674,4.0,77.59795090496571,0,-10.009152457880381,3.503684382957664,-7.746854170210114,-0.2547821198978461,3.7682036553724236,-5.013922205614364,-3.6364151123184736,-7.684418460122892,-6.198802501495303,2.7842136188819335,-1.5381606955280458,-2.925069022053837,0.158318147671801,3.091617802522318,-0.836462487818619,-2.1228989238411415,-4.5787031814433155,1.8478867880671987,6.081450684865962,-5.502475903826522,0.04314064751474919,-5.208768167515289,-7.995569320618826,-2.7229649089991326,-0.7020344967802001,-4.780695626392823,-4.376829825287233,2.379848395123483,-1.4261628665116945,3.3424161248448576,-5.113051400733077,2.110721400998892,1.9672993723820547,-6.307344649120475,-5.008363202491973,-7.013130220408136,-6.159667943311,-3.2693880626776597,-2.2089679835833174,-7.4567202813210525,-2.2047361091530018,5.317823967574039,-16.30429308503055,-7.733169233480435,-15.780556064884344,-8.986946558925705,-8.38222545481647,-16.775840465303915,-16.102043324918952,-16.233256416330505,-12.602349811086528,-11.456279751381615,-10.035501870671826,-16.671277525411064,-8.662513018600112,-7.696198025570261
1669898693.337354,1669898694.332955,2.2488858699798584,3.2444868087768555,4.0,46.141259761907705,0,-4.096171597842712,1.3131616880748245,-7.258054991522441,-3.9789629089577887,4.437912963709917,-3.5423908916572526,-0.038111872891968365,-7.091675534112297,-11.244174242472678,1.4967635027793493,-1.0866419186655851,-4.4455500495255755,1.4832806501013465,2.42581828347778,-4.2981430881469995,-2.5325761532201643,-7.218471888187504,0.8462659105647309,4.402066921512754,-3.6873747254737026,-1.2404450807077279,-8.288798308066305,-5.667763442285025,-4.336770412296142,1.0313700205645628,-5.044931752700482,-1.0867315421693533,1.530505417504827,-3.9459521189459097,0.8488315921539666,-7.115401559677158,1.0037183154642173,3.432896118852402,-6.583640601258724,-6.4219502599864855,-8.867094821571749,-7.93727686820459,-3.002644478497019,2.2025592773196676,-6.009124411307707,-0.7430036328264222,5.152067066830144,-15.164276965253663,-6.803130860973944,-17.578209411467064,-7.987307086728546,-9.290992071775156,-15.771193122885308,-15.197417300218044,-15.915778036956297,-14.068729898788462,-9.412188627263237,-10.408581148055218,-14.030507098073123,-10.64172092856817,-8.909883555599883
1669898693.58723,1669898694.582831,2.4987618923187256,3.4943628311157227,4.0,40.13185906025151,0,-2.621955819397521,-3.3744556615727337,-7.659220109213283,-2.736248562748001,1.2420165346027296,-4.141491510307022,3.668136119256891,-7.200089196668787,-10.012419840249125,-1.4097406804445591,0.28264313689907805,-7.649099018220662,0.7336853055022947,-0.21691842083370602,-3.171423661347696,-2.184455291751428,-3.4852993248885777,0.7621081303834109,0.6696542091951674,-1.1595194137792275,-0.5742154863044922,-9.833968126315293,-6.010196529369345,-2.0577148182214424,0.2772649674340545,-4.8856878889157835,1.6283843355473502,1.2473651543792001,-1.8617830873001369,-0.7478261467491444,-7.79688669235984,1.8239241962418768,-1.3473545106208955,-8.5426202587776,-9.427333198078035,-12.752373342657082,-8.821296526123191,2.086773583756674,1.2267034820818392,-8.647717416678134,-0.9783982075626323,2.685963842516645,-12.848850461879074,-9.240086618964853,-15.732196875146723,-7.2087691210279825,-11.985551390792267,-14.887932725572872,-16.939906820791567,-18.974578861304327,-17.994854469461437,-5.239321194945502,-12.602184656759256,-16.919528447339264,-12.635161105906308,-8.427184001828461
1669898693.837107,1669898694.832707,2.748638868331909,3.74423885345459,4.0,31.387218102712847,0,-4.250503060972633,-5.819513267828294,-8.707453504044603,-1.630585614214334,3.142196069442596,-6.458630382942978,-0.04512526639204449,-8.581091020083658,-4.14450212374743,-1.4140245277213304,0.24838533167002524,-6.9444494260370515,-2.825418623353024,0.3352196122541514,-5.237094429440946,-1.3213969653042397,-3.1803629256657984,0.5233408285837976,-0.7501535781415865,-2.3370689595677097,-3.4903624225102807,-7.254039595777399,-2.9098283463370627,-1.742851948666348,-1.4218159710609648,-4.730854702561048,-1.6143950799431253,1.1611559155944062,-2.860112595774806,-3.244484472706231,-7.836027660702907,2.3879034185797336,-0.3731960996499867,-6.047562180515792,-9.672105424569214,-9.714978429540112,-6.666985652923575,0.02934455304578218,-2.5203777665253173,-7.300787687430661,-2.5316924078687624,4.35967562271056,-13.40893863257639,-10.282001356939567,-17.448577070556695,-9.759902631464744,-9.561036970042945,-12.694854137554207,-16.142586275920426,-19.139892860157076,-16.73057823888356,-8.283767762111856,-11.481149638611111,-17.836420562542877,-10.205473270969092,-10.43547478637044
1669898694.086983,1669898695.082584,2.9985148906707764,3.994115829467773,4.0,48.06614515626979,0,-5.236144403318834,-5.77868940339439,-6.145195526544018,-0.6388250382487268,3.2430666699715167,-5.904898005353354,-5.020302133010972,-6.010586014187429,-4.167141384306482,-1.0633888689857114,1.3878338021556433,-5.220236316943872,-2.360336196312413,1.5442856654718917,-9.442164550347345,-0.49830487432027454,-5.865198798169876,0.4640402307484634,5.040509912355047,-2.8076848931698963,-2.6221602974316083,-2.9613246795908905,-2.0399949379318243,-4.009161026536379,0.2798655594919418,-8.616010397098021,0.5139814468528696,0.939849587379905,-4.533482221288242,-1.1154590559920738,-7.343179367735139,0.47101155003447237,2.9552069035125044,-3.5981423113924875,-6.584502537473118,-6.560521315974702,-5.443650891097656,-3.7571263190484494,1.2706260776518006,-6.836655683536367,-0.6613780903407834,4.085883390119662,-12.230213870247086,-6.880303391082156,-15.186287987331443,-12.386471107636696,-6.330569746490594,-10.160555746868729,-13.54079446036309,-15.45490341401079,-15.890785400828744,-11.452289195083736,-8.683888604964347,-13.669069606084554,-10.266019593638426,-11.2074115736631
1669898694.336859,1669898695.33246,3.248390913009644,4.243991851806641,4.0,49.407233823573776,0,-8.583436671306044,-8.21096592071931,-7.7993175140633255,-1.7302587808616239,0.5868976030386616,-4.429990253015324,-5.154494496909625,-8.466098098463155,-7.527524742596444,2.3491609017575263,-1.7811491218421303,-6.744975272792484,-6.8003116313227485,2.5242270176047588,-6.306805577283566,2.306992664768881,-4.089644638193988,2.810594207404505,6.461276889324149,-4.751166063435978,-4.672583325930513,-3.282407042913365,-2.791722982957898,-6.02971749921088,0.031048797005163508,-6.165001639280837,0.5139211082403476,2.1540920925643374,-3.3790245445905227,0.8434112522296882,-5.986656069584276,1.8704133057665706,2.0885118431386234,-4.279371927682151,-4.6380155104944665,-5.724722194341235,-5.1726390298275104,-3.1501450283107166,3.8309751040538673,-6.629484544770045,-1.3031617739460941,2.3471521705955833,-13.114744408832692,-6.535160236134883,-14.803968149543973,-9.507718799563543,-8.829706305104308,-10.621255935677231,-14.003663102074285,-14.199082889723957,-14.207973225820623,-10.460022822589124,-5.635229302369145,-13.666087227532522,-11.738269872489377,-9.66039194101304
1669898694.586735,1669898695.582336,3.4982669353485107,4.493867874145508,4.0,51.650588207144615,0,-4.609855685407208,-0.8957595839943064,-5.9241051013176085,-1.236904543669778,1.0453344178464374,-3.3625556007406954,-3.468554077416781,-9.51213603522157,-3.408815575422948,2.564447678949024,0.5442811601844975,-2.9693936205063243,-3.051791202135157,3.156080972536351,-3.63593521305094,1.7901969324626166,-2.133116183306089,6.409184183825073,3.88665599656001,-5.963340371022072,-11.688024957374177,-3.0942489375072837,-2.4306920492939095,-1.1232151123686365,0.19617032505618404,-2.0686520080308752,3.1951102145168093,1.064551851230632,-4.031050047927752,-1.6134987538876333,-8.331578445269482,2.235315120430942,1.2177418579866457,-3.058150468833219,-6.521280348036001,-6.713894688101622,-6.750349349725165,-1.6562706525809259,0.7051138391987568,-8.29124339366623,0.002325270751528878,1.67689683496338,-15.99682965187613,-10.482408652332095,-17.415809649364526,-8.92235281542803,-13.30986921244268,-12.33333621654306,-14.586454017879436,-18.175033154111464,-14.962014386102805,-11.508852086114432,-7.513359286812139,-16.065658627768933,-8.926256996682548,-8.483850282296451
1669898694.836612,1669898695.832212,3.7481439113616943,4.743743896484375,4.0,43.20807237413138,0,-2.8314502114558184,0.266028069608242,-5.615994909227135,1.5952548393508623,2.037116704599243,-4.216363589267184,-2.796580761897202,-5.366000824586808,-2.6773365876158017,3.4372621242322454,-0.25480901045678517,-3.623236345673812,-1.8661410664054485,2.2222209960467043,-3.3005323507205087,2.3250217590497195,-8.796089428258375,6.093406946669343,0.6379311123464042,-9.447000740305793,-13.038486404753353,-6.2683920940593785,-2.0963086216378732,0.6051014439543988,2.3760477955950012,-3.786770499169023,3.2165218609922275,-2.84934043163806,-5.405407994234775,1.2204713185305351,-8.707803525668263,3.1307493753798483,1.0550825426817527,-3.789277266247039,-8.193105226881823,-8.09974033380806,-6.20567774652078,-1.689372841085056,-1.3059682314336019,-6.724931335751206,-0.3395652995513794,3.5441714605824552,-13.232212583892869,-9.675975334884287,-15.316721598456358,-7.093410512481909,-11.08254696091726,-12.874990218670789,-14.442257186740433,-18.38468017236736,-14.409583167348991,-14.16517662561083,-8.230901715808113,-15.512861033985265,-7.193955696088614,-10.087544678169042
1669898695.086488,1669898696.082089,3.9980199337005615,4.993620872497559,4.0,36.67385880507301,0,-3.9974243368133826,-4.409233432063127,-3.005448963109523,2.7486541249483185,0.2420962315171123,-5.91352767796856,-1.7591952082772035,-3.888710347146245,-1.6812396414048638,3.4366490671608263,0.8630850463155413,-6.498892383261778,-0.9819987417479155,1.57322320372018,-3.3131255831523476,2.8446505110071496,-10.408793163874332,3.9020856749403316,1.6987489820516812,-8.728948228999574,-8.55790810564631,-6.339291727693272,-2.314001304703868,-2.6646815012797616,5.02674230560729,-7.4601126778424955,2.909991458951292,-1.1105869503292105,-2.5151013203851775,-0.2519243171923057,-6.008233971644817,1.7041265258317386,1.4655176027311194,-4.685965581677712,-7.841525171814531,-7.475157553172062,-4.86451386917365,-1.2382145979593044,4.630607685047433,-6.442252398233913,-0.5363151052451471,1.9517800637585854,-11.512587353058542,-9.222148560825897,-15.778022280670651,-7.361388501950195,-9.201299947505605,-11.985628377930782,-16.227399682945517,-15.917674394954206,-13.73552309589745,-10.034592333886803,-8.11659871109918,-15.683476818702884,-9.740051963037654,-9.171247486185305
1669898695.336364,1669898696.331965,4.247895956039429,5.243496894836426,4.0,86.91747010632363,0,-2.090753694275162,-0.3740440265044579,-1.5732900466198556,4.131096131096052,-0.21824990697965133,-5.495788874560321,-3.523002921132898,-6.38407894405738,-2.0106792174619486,3.8837044711556596,-1.2545712570451464,-5.249138094187793,-1.334409701630692,2.1200811309716965,-7.138526583257753,-0.6585790226175001,-8.762438345187121,3.9540873503788414,0.7233317517530603,-5.103466833984851,-6.377673070273655,-6.747556811644407,-4.7886817967849336,0.47089815452067724,6.422122306365987,-6.738689285557817,-1.0094189406654226,3.7717323810226806,-0.5667174006614033,-2.276587746231707,-4.930744165974545,3.519656061634779,-1.0524842921266737,-4.636953202524381,-5.694614795983367,-6.78413997908015,-6.547034313610985,-0.04290798295441511,5.540264203387122,-7.128933167558377,1.637049346941217,3.970120188850648,-12.945854060231134,-11.375149714750767,-15.58461106264501,-5.250413774459808,-10.52632823119238,-15.143089234134624,-16.082983011120568,-17.87892949109931,-13.43304092201696,-8.155174713091558,-9.131408821758903,-16.57851620268653,-10.05441580078941,-8.644205007030667
1669898695.58624,1669898696.581841,4.497771978378296,5.493372917175293,4.0,92.66829818784956,0,-3.5969436781976505,-0.9625311002955456,-2.520672334761157,5.212256950420354,1.3327094744483117,-3.883343830225895,-6.765697206945357,-4.584076217693511,-1.6952308041575246,4.254875485274477,-0.13084896691122333,0.21677150534003464,-2.7716449845957825,1.75017857746122,-7.787260100207272,-5.116788350578743,-7.328814123407843,5.490245641432625,4.307275122320567,-1.94455841126272,-6.108896682755294,-8.572983996701657,-4.283607715631087,-3.409029279334062,4.826521236902172,-4.561418065975088,2.346320207993337,3.7535648424954626,-1.14474048982501,1.2037706726103519,-6.12751964745304,7.330291232953265,-1.2944857705801203,-4.783226465914283,-4.7274609868563715,-5.237488139478749,-7.759109324770447,1.8402082669473936,1.0616271935461428,-6.801587092100777,4.922318182613045,3.7289300567064187,-12.763812998332618,-9.187614805344266,-16.390414035651705,-1.943889568367819,-13.249266683861634,-18.34865857625706,-15.148569338076886,-16.497702016832466,-14.93468702887797,-5.591379850785181,-9.145389985804522,-15.594511718993854,-7.105491197238631,-8.721354017265439
1669898695.836117,1669898696.831717,4.74764895439148,5.74324893951416,4.0,94.793208557199,0,-6.947233840544942,-2.136769292522019,-5.548552260251842,1.7572511423840889,2.9530347279048277,-5.305485121756146,-8.39362286478885,-8.883935899039054,-3.7547795792939875,3.390947905116704,-2.431134823618641,-2.717625551508329,-3.2822199404394437,0.46803854899848063,-3.327852161739215,1.925769498595264,-3.9588977792869526,0.9527120021966429,5.578212236172305,-3.5132768866929434,-8.711102626124884,-8.437049900914392,-1.4549275739925251,-2.8834064142554423,2.2015479348263423,-6.628215419271112,2.299851621997919,4.347975188647073,-5.50283024294713,4.161126378392327,-4.742642722602403,6.646600645156763,0.1803450178076885,-4.093847869282767,-6.548145396249713,-4.590897496194952,-4.299565480416914,-0.09006431273453896,1.1864723491557525,-5.38841426933216,2.1751386198040166,3.133513426095024,-15.726122454273623,-9.014190383405838,-18.560966463478614,-5.550867670791751,-8.501901488099117,-13.394027427567076,-16.150656988574823,-16.190146618141586,-13.582577667039995,-7.539775943160332,-7.566017060496174,-15.187632435942756,-10.507679386706798,-7.487426963791155
1669898696.085993,1669898697.081594,4.997524976730347,5.993125915527344,4.0,93.04223639212567,0,-2.933919446574836,-2.498066467788695,-4.2683485563955195,6.014142140513124,1.5465206636928874,-7.951274462918936,-11.017508251362198,-7.457547649158867,-3.5858367688674586,1.9922542881505763,-3.934953033061099,-7.233950199274756,-4.704601155438357,0.8064400410197721,1.6468441748496279,6.254060702904677,-3.652813656787669,-1.318345694786279,1.204208331429971,-5.675911767948075,-3.69888730914945,-6.72869698047907,-5.1042913824180935,-1.4211917335433815,1.1145818937202705,-6.496448840188032,3.3983873698726996,3.0608935253865615,-3.2958790080935834,1.7612635372686598,-5.57619158626892,3.176515002077804,0.50541596032073,-3.937521813131374,-7.2193904375179585,-8.31139621801866,-3.998094476768954,-6.00966745187248,2.022101458740045,-6.973973095818161,-1.6576286376861646,3.283245971898502,-15.428242463645578,-9.327592260436703,-15.652002108443924,-7.468240980445808,-5.879943551899043,-12.917995124422584,-16.3158961969793,-17.231566566866782,-12.528933633809505,-12.390129669875245,-7.006327646577527,-16.875502209173266,-11.346391017395396,-6.86006767036015
1669898696.335869,1669898697.33147,5.247400999069214,6.243001937866211,4.0,50.04363036622493,0,-2.5913937215034535,-1.164179343256143,-1.6941285931389618,4.12906788495579,1.3099857456909214,-8.061604178314681,-6.273140455661778,-5.180617815015128,-3.2106858228561013,3.0392013927519335,-4.193301209973182,-4.716682190368991,-3.27240498650223,1.4394167584175463,-0.24542789298544293,3.217738515560101,-3.337806950066286,-0.5232726853071311,4.408072503627378,-6.141184898173778,-2.0334694886872655,-5.245914255972989,-7.182290186536927,-0.5011015038851039,-1.3997771628096445,-5.687792980099503,0.6651123230759497,5.198945900235296,-2.9658334563676796,0.31631851543846323,-6.111045285468228,2.020425216056317,-1.1741579579892947,-5.034041078069892,-6.017392484133217,-10.176141805872343,-5.1988272470092936,-6.286264069213306,1.8947170818777284,-6.339838401386391,-1.1722995453406189,3.3796569087530868,-13.157249677144824,-9.136849465525614,-15.27229765295827,-9.70346335626562,-9.187990314203011,-13.752143470916254,-16.01970349372395,-17.06332587069905,-12.109679920368796,-11.945457585614953,-8.557005607496345,-15.827924543697257,-11.721078901486887,-10.146485636949729
1669898696.585745,1669898697.581346,5.497277021408081,6.492877960205078,4.0,37.298398283565895,0,-2.504245565790158,0.39054138657167065,-1.4774190274635957,-0.3258162456800491,2.0691567701410616,-8.036018020464672,-1.776636576228966,-3.419092602708584,-3.897761541403908,5.718438781306351,-2.2956479683324855,-5.4850881330176975,1.3654253803547216,4.202730874244929,-3.482912331587791,-1.1723323517162236,-2.901545925203143,1.7847366916908585,2.3764943941629917,-4.299239131017537,-1.9242395774979615,-9.500642179535214,-5.596399253138218,-0.2667683258042345,-2.4032947045610404,-1.7125050203891883,-4.048873599011591,2.19427536692123,-0.7831212486644397,0.3554679171104379,-4.437142346586295,2.1593464566901988,-2.099504226212937,-5.956675526195876,-4.804904869488102,-8.175889293452395,-4.7286089695205105,-1.8875378967808465,2.5237110876827358,-4.423786728566944,-1.5090163012554951,4.4088274829599,-8.825395496539096,-9.38576600984143,-17.553105995689645,-9.313915833066748,-10.283082625557757,-14.75841425852101,-13.829382381844802,-14.898176156029875,-10.055492942198008,-9.074648399654095,-9.003377467169138,-13.152020380297415,-14.516095711814334,-8.611564089911766
1669898696.835622,1669898697.831222,5.747153997421265,6.742753982543945,4.0,44.26168998832863,0,-1.4977074196995634,-1.51556071666888,-4.940661852711327,1.569975109797456,4.037932326410011,-7.312179807045778,0.8149928483324825,-3.672706404455891,-1.6198563783892652,3.2884886072608976,-4.681471740716766,-8.194122616334882,1.1085391915018197,3.2393732927750643,-4.447662956156387,3.501407697988407,-6.252306009123965,-0.1583654691311566,3.490343236130701,-3.760746170825922,-4.126269930081072,-7.707478370552684,-3.7964646127036623,-4.726620988027449,-5.062315118314341,-3.390957974027832,-2.582557050514734,0.9782661380840679,-0.6450283358483315,2.8053439685409254,-8.057840419840778,2.760079851911643,0.9887083764613303,-5.6668330051235225,-2.215617909088248,-5.772575184232316,-2.7446411260818877,-0.5196395403406274,2.523998000841714,-4.418492389089788,-3.2361182360615186,1.8988638464944232,-11.192374062740233,-10.438596142148606,-18.119799243630368,-9.098476184569117,-8.279293953033319,-13.41454540812952,-13.476843300846365,-15.898571472736474,-11.942874044441957,-7.101910158573256,-6.191663347983382,-13.484584514503142,-13.39792950978492,-8.194172010938845
1669898697.085498,1669898698.081099,5.997030019760132,6.992630958557129,4.0,65.39316283591941,0,-1.1240085315648733,0.08495946190424152,-7.856519795770546,2.612464221188427,4.448958473081969,-5.427977758699418,6.434642328296266,-2.0594104944768525,-0.08544310540888508,-1.2546555182515502,-7.597922960179852,-8.259432648543637,-0.5710537373338833,2.351791328992787,-7.681314904372964,2.5759544652008852,-7.88264418182235,2.6053890292169464,1.6243275872696508,-3.298333627192539,-4.0702777241512536,-5.5881925399161805,-0.5375789725451756,-4.336654698375625,-1.342888230856135,-9.03559346077023,0.3018829702231775,2.1336697312864885,-3.8956214439229586,0.7705274418272963,-9.280202101631556,2.3476740546505095,0.7825287993121461,-4.433831780275751,2.299166496889225,-3.100494056880765,-1.362557240598166,-2.2449327611066305,0.7007167700940399,-9.004891713671874,-1.3693288729599162,0.0259551463669968,-17.93976552182974,-10.293625581007056,-15.500428377165337,-7.896929310033674,-7.904860039028949,-13.864336489095832,-10.427034414589762,-11.840591476683597,-11.778020996660224,-10.046717540872013,-9.565632078146999,-15.905311421858785,-12.680261765120326,-6.08910619758436
1669898697.335374,1669898698.330975,6.246906042098999,7.242506980895996,4.0,64.31907985969109,0,-5.001911000673163,3.970418029651559,-9.312837804685131,0.5876361400808296,-0.11170316964338552,-4.820008841245864,2.8063040167628133,-4.041102437259106,-3.7308565975386943,-2.570287398887072,-2.1722263492483846,-4.195264241933638,-3.221227722585999,2.3626589513072735,-3.42498281417427,-0.523571042931853,-4.315120641249231,2.56091570083002,3.6317385331330065,-4.048027158881723,-3.121704907788105,-5.40201087971659,-2.729845055600053,-7.022554293444024,4.0255264752717865,-9.088806349776503,-0.565147601749028,4.5397592975665795,-2.8034857320823683,2.3354883117912486,-9.089458765670486,4.233305227588466,-0.5554333609035319,-4.207342223955151,-1.0346304159975923,-2.1518692343088803,-3.5676248208013774,-4.3827668456869375,1.3133116584223445,-9.276607644608053,-0.7812750411361604,-1.6844103416135936,-15.654662846722738,-7.3129226232640505,-15.788571671360664,-7.964086941530332,-9.315133534376768,-16.61128043287404,-12.3336635687141,-10.38971343572765,-10.777419684640236,-12.673764205350334,-14.552921808260965,-17.83020175071228,-11.111454218290104,-5.2003809271857495
1669898697.585251,1669898698.580851,6.496783018112183,7.492383003234863,4.0,67.14647652796504,0,-6.119327807325404,1.8791129774966402,-6.2210918162698015,2.3672318072680687,1.095596398397986,-4.08701228054815,-1.2551050039393101,-5.160440210946984,-4.19675343767361,-0.5919461573760114,1.7186498921785152,-4.043874272153586,-3.1046947654760393,1.201367378384353,-5.007777461278948,-1.435862606295084,-3.520617204436477,-2.0868168314513,4.859706091842724,-8.210168224976263,0.37232663961167306,-5.912591105120422,-7.281486063428111,-11.252379847140684,4.478301031463171,-7.701777179431206,-0.11741502464321533,2.5820612603569453,-1.8585557381167883,4.126027644482126,-5.612518101476496,5.260188522272708,-0.16906829690946176,-2.0446893667108164,-1.5368645105775538,-2.9077493129401653,-3.3987479970066876,-2.7886998436591153,2.4055207664562284,-4.145476849593851,0.3325933363067134,1.1681000715399947,-13.330668469438379,-7.882814086507407,-14.397824472443894,-6.665972218495455,-11.79228101424852,-16.242728368657055,-10.00320449287682,-16.566640112209488,-12.555840185325387,-11.897180988994373,-11.78294998984784,-13.685387453048406,-9.211584451578968,-6.07457959638635
1669898697.835127,1669898698.830727,6.74665904045105,7.74225902557373,4.0,50.182689037933834,0,-6.8939109510994285,-1.7951908946677886,-6.668822547339374,5.021715769420306,2.800601846217793,-5.560073546743958,8.242741211331523,-4.915150687928542,-3.9625070449237616,1.7115029319247808,3.424363621314712,-3.7527638647686725,-0.8808505245926096,4.575437200607203,-5.488302059034137,-2.1924197333531654,-3.9688195995363493,3.655357697006947,4.809829782676722,-4.687994588530203,4.981251537948834,-6.908429055532812,-6.72523103787851,-7.8075909653052165,5.054362094175595,-5.609516252322045,-0.45277854028937936,-1.5764275705418263,-4.908404132603396,0.8364112750353003,-6.096998860141368,3.2104783320832175,1.698420691140754,-2.6686637946106173,0.33348933330091746,-4.444429288040849,-2.6362527770213817,0.4530575665510782,4.620168326415391,-4.054471084901445,0.27688467331388533,3.6980590573131247,-12.863295185788479,-10.037413734115894,-13.81533120018654,-4.430790442087844,-7.6817366657983825,-15.31893087903743,-10.640576265512333,-13.459915022443028,-12.647041779619624,-8.54361759454867,-9.187450835630024,-13.057770104983671,-8.723345601916726,-8.056078783458828
1669898698.085003,1669898699.080604,6.996534824371338,7.992136001586914,4.0,41.53408608963647,0,-2.9460900731244735,-0.949852825442469,-1.9061808284205761,2.8545433706125483,4.583991375553273,-5.790789463521419,8.025135489810463,-7.14186075378035,-6.01629615044038,-1.5495532067361586,0.7250267933365596,-4.830536068702185,-0.760417516116163,4.179654079216538,-3.2578891749846814,-1.7208208067503272,-0.6820727950387582,2.0295527615253057,5.275595655689686,-4.860390368650608,2.6104568261089502,-9.181698417316909,-3.609741453452636,-2.971164112263778,3.97196340196547,-6.661704770026793,-2.1214367662586953,1.1402050682092435,-5.768304709428502,-4.9202159032397415,-8.73213293753104,2.7139951978647705,1.233708933812624,-4.739999708687378,-0.863376055638265,-3.369499135222741,-2.678027133658781,-0.28251520067554775,4.934791583574868,-8.878850269493869,0.21426231466728532,2.131366773070112,-13.153486487144736,-14.270231341619601,-15.340310371449226,-6.631894246524758,-8.506021081254415,-12.020228061275889,-11.175713549844055,-10.34370690151594,-10.748012436208036,-8.189904148242292,-8.45535207343245,-15.465015290701427,-8.429306151291737,-10.790362493782018
1669898698.334879,1669898699.33048,7.246410846710205,8.242012023925781,4.0,34.49379737890328,0,-1.7876106202738173,-0.03808317910538929,-1.0423769918531192,-1.4368634192345415,2.9911926388451873,-5.038305140468249,-0.8021950259656316,-3.7667869553754096,-1.071756326803922,0.7190381755244715,-1.9323750538135975,-6.127047043762294,-0.8403859744844211,0.9102111973424116,-3.2082515860863703,-2.9268125189007193,-1.6845699229442712,3.3464772652035806,6.677317818686278,-7.881770523007132,-4.642564912596568,-7.520086388294086,-2.332745157344864,-1.302950028661643,1.2010006052115352,-1.7471685728798727,-0.6364975865444898,3.925227612030061,-6.6319796981794985,-6.0544777515296175,-6.76504179269247,2.84006794721689,-1.2752690123774224,-4.453130273941427,-1.664389763909523,-3.88756871784829,-2.6598918269222422,0.22402913288344767,0.41399908856320466,-6.875976640072264,-1.5992648511053815,2.8370712758544254,-13.428682095226847,-12.969060279264033,-15.500717455000796,-8.505344430443749,-8.868655179557258,-14.839115401788039,-11.873365175911054,-14.37785179822749,-10.73985491735137,-7.573917953333851,-7.140876920102986,-14.840441763431059,-10.763696620497967,-7.021666162392124
1669898698.584755,1669898699.580356,7.496286869049072,8.49188780784607,4.0,28.738020015902695,0,-5.015684162165826,-2.439512106843085,-1.426613883056562,-2.0552172588195767,-0.1820445440921625,-4.667891892471636,-6.1845010764019985,-1.4519766481870797,2.4453440826837576,3.007000354681356,-1.6016257620012841,-4.857499317078543,-3.1186262632306567,1.5659003848959083,-5.579153348258556,-0.48222503016813134,-10.691267591329908,0.9652358395183855,6.964617358951353,-4.913334186369952,-5.146072645759514,-4.838787703816277,-3.513438085807224,-4.993856891271019,-2.663702449451222,-2.9761922501995777,1.6750870006350096,1.857853152104495,-7.082961693986768,-4.4618932294132785,-6.6641757274461435,0.6243731710222691,-3.4809949551955643,-4.185458745026022,-1.2551746324746282,-5.862584135628172,-5.625327788590377,2.1860215634873055,1.5400655447829745,-7.988244692292218,-0.18711378433171966,3.735885891805207,-15.390070042614024,-11.632874109575164,-17.913950066437515,-10.650849921028536,-9.440284787249874,-16.070905097720015,-13.897278707213019,-16.079227919919177,-13.165108187816507,-6.657113758046993,-6.914142327449143,-14.907459354904011,-11.059399606633143,-5.408131514839436
1669898698.834632,1669898699.830232,7.746163845062256,8.741763830184937,4.0,31.090005290335903,0,-4.394223469988242,-2.3064664653911455,-2.7116985426592883,-5.050188046763062,0.5894678687106552,-4.884873442679609,0.7399860847969715,-3.072034383637549,1.3662536538211234,2.035810072749391,2.3820961266790137,-6.181588083287024,-2.89676837102985,0.9019436531362203,-2.638702228203492,-0.1854477210326393,-10.936796551965662,-1.4967866048483314,3.1422089645936744,-2.7335898437183594,-3.39057096729043,-4.5384100299218035,-3.626663208242279,-2.2075150089020026,-1.8743412102205825,-8.888972739991878,0.4336877649101681,3.8115099765578875,-5.382559026404263,-4.224909919946041,-7.298572781985153,-0.9636291848907015,-2.0011468886609265,-5.335416575834483,-3.809434814093499,-8.570434269317557,-4.948091664973765,1.3133826427752415,2.728829625472169,-7.749274186087072,0.38661545623103644,0.9529178911099644,-15.1592151976394,-12.577571696431527,-18.35197619822865,-10.186504394373566,-10.12975970687199,-13.520658777831311,-14.765524044541607,-16.749379296575416,-11.919701245875935,-9.377151238256996,-7.335858556615721,-14.271577778301669,-11.072553316305726,-7.800927818445795
1669898699.084508,1669898700.080109,7.996039867401123,8.99164080619812,4.0,65.9460756362461,0,-3.593017761910647,-0.7534221606301024,-5.354582111056551,-4.22956545852497,1.4081959854300012,-4.766744240973255,5.994284342287467,-3.8811624471102246,-4.490720397118685,-0.956143450306755,3.6214070815062023,-6.157233171275863,-3.0546823070749056,2.2187294321096847,-1.859166637844718,2.2196679294287507,-8.318847550504362,2.4100012903389754,1.8696614251221255,-6.680639593631442,-2.089304253099452,-6.253628907987001,-3.6080288782973104,-1.504977372298929,-0.08544030399775818,-4.564977268986762,1.3570951196473238,3.452928153013052,-4.686604461702796,-1.650233295124259,-8.708150759214806,-3.326286509379366,-1.726017175080492,-6.257821116819792,-5.963200750982535,-9.110809468488872,-3.8114081520258654,-0.43775397133056915,1.5352418585235,-7.987134540719038,-2.4634191888247345,-0.9564939192678162,-13.388031073363916,-13.130794393235082,-17.51886973988334,-11.977086327097293,-11.552882054134347,-13.281427836405697,-14.572576267743383,-15.735495080384595,-11.053842312420677,-11.838922605752282,-9.948721770725232,-16.60121359540075,-9.67459436410511,-8.754725072277653
1669898699.334384,1669898700.329985,8.24591588973999,9.241516828536987,4.0,96.9846164595428,0,-1.2070374631623044,-1.577675079261952,-5.610654695394887,0.43912260158319344,3.4995150531472765,-3.1913062702028308,2.4829189276893313,-5.074550076147287,-5.4986271849201795,-0.9463517015495558,-0.41119219206856505,-4.783876645193622,0.13798378324892976,0.9139078138226906,-4.071023894938407,1.4000363398280613,-8.59661868921841,2.4775683067175125,1.959893116397622,-3.2836935663798688,-2.7196235858029376,-6.782567747880314,-3.3684861739762493,-2.1281843032238283,-1.0705124248539173,-3.297380070670033,-0.8454285024302362,3.8779130349677695,-2.4939590790371,0.05198223019894568,-9.513580798821858,0.450300943438393,-1.9795152879487596,-7.453309173032717,-2.3824688567166503,-8.212408533078676,-6.242510972093162,-2.562890686533424,1.7557338765091612,-8.549032918708807,-1.8889028468408566,1.3045201467009573,-14.203038949218456,-10.547381573220553,-17.141831016836313,-11.55018654642813,-11.171496623340705,-15.203206640715816,-8.93299209388628,-15.179557222862435,-14.597554938245537,-11.274876054644952,-8.972437969942108,-18.51913504052703,-9.841079690131354,-6.932187111868577
1669898699.58426,1669898700.579861,8.495791912078857,9.491392850875854,4.0,141.66433824799782,0,0.2656573506417502,-1.7037558620650546,-5.408997671290393,0.8771222910623656,3.9817347105001106,-2.3751885279872647,2.1790720007701254,-0.5991230749519447,-2.170695634154574,2.156254306107953,-1.8753712584247442,-4.547928466795854,0.06166542768132999,2.959642686990172,-4.200878038813309,1.0543272895181894,-7.277570943578557,2.7256124465523257,-2.510526910507859,-2.8370421693521735,-2.1122967362503995,-4.262236913465345,-4.0971686049285925,-0.5656313594008674,1.3872736646536246,-7.7489133590413095,-2.3129934912067274,4.503866817058233,-2.662697681136115,-4.361506028283752,-7.1369426655996,1.280298584545444,0.1114959264881688,-6.695294049541419,-3.894417225166147,-7.504117401284047,-7.858446074218302,-5.466435870591788,2.540601320407647,-8.124986110855634,0.7805440763338354,4.292275608606482,-13.449636616526327,-12.518716286201187,-16.7366345368264,-10.399747454151465,-8.008306294770147,-13.50470822012861,-12.347939888573055,-14.847444416999531,-15.189760442934602,-10.545424729659734,-7.166806273617933,-15.992627571570617,-9.058051345075725,-4.762287584696564
1669898699.834137,1669898700.829737,8.745668888092041,9.741268873214722,4.0,174.48762693738172,0,4.139069955872861,-1.2891398556210665,-8.501034972662113,3.844754715469827,2.379579690799955,-2.2084202346485036,1.7670666976654554,-1.619826759548151,-1.8125237724558463,1.9287680817569022,-1.0446760273028803,-5.109963017075897,-0.5737055753580471,3.836565541355315,-3.0435427633072507,0.5791296702492247,-5.391536620364573,0.018332306583354344,-3.321727612897185,-1.5554498315443952,1.3424189836569822,-7.822766726693967,-4.747618360156839,-4.933125812630502,0.9663214788828605,-10.635793142221004,1.405260941487215,5.960613785973408,-1.1754409371516963,0.05605895101390402,-6.236120067654339,1.2465744561105199,2.3593526219932235,-4.3170042321890705,-4.1881369407326074,-5.457673097896527,-5.400495806559801,-5.061683684283417,-2.532693069447041,-6.8251894280290335,2.0991693464630656,6.685694248580434,-7.111791307071373,-6.722460960958546,-15.327863528500556,-8.14918876322514,-4.897775582783823,-10.071546971987896,-10.992097717831722,-11.707479936899254,-13.952247148829304,-11.828784711339665,-10.813183615049,-13.893096241929943,-7.432939431198891,-2.2139572980394515
1669898700.084013,1669898701.079614,8.995544910430908,9.991145849227903,2.0,262.56638530236285,0,5.7348188229256625,0.3470573861256572,-7.9327847934397795,3.663294078768982,0.5461178267944828,-1.9014189766502976,-0.09881522680961716,-1.2088976861106902,0.8394591807934393,0.5918799615997492,-0.5250954816273388,-3.721191314419088,-1.8978338630065947,5.143434600628,-1.4863493038142588,2.4879827656011244,-3.566864298441917,-3.1663174323815335,-0.8607280764224292,0.45528606522924847,-2.8735551817554543,-12.185950075954047,-5.46222266121822,-3.570530151741253,0.02789938700509746,-8.428913737061205,4.873620676896177,6.8088077203918305,-2.2197184998076613,2.9819064584359207,-3.8971299801980352,0.3677314824800127,1.2847719783723068,-5.131496795454121,-4.725634326681564,-6.774231856114797,-6.518184719778514,-3.1645941637156265,-0.5004168647408131,-8.94020735658068,4.396576013288421,4.290073302034683,-6.787812196643235,-5.146995152653675,-11.549202815299049,-8.491716044813518,-6.91847097962453,-11.403061854507486,-12.048472842448499,-13.084148134018385,-12.569638837929515,-11.357988118451491,-11.30431026994925,-14.357066718321473,-6.645209748778847,-2.928430971978605
1669898700.333889,1669898701.32949,9.245420932769775,10.241021871566772,2.0,299.1137056303102,0,1.4762264710304915,-4.049253260559695,-3.8440964210638287,-0.9299828671704041,-0.6519180344743735,0.4988327819461109,0.6903283408087634,-3.6140444118284383,-0.3427401136824827,4.086064503210565,-1.3495928991155086,-5.267367963286933,-0.774863007391875,5.997663443919402,-1.2296953022486474,2.7989709299659156,-3.6432272170382776,0.18879999332118716,1.546110282984174,-2.628012499893469,-5.963046033213133,-5.506871074355058,-3.1940871423854826,-2.742709956723975,3.5650318480817464,-5.897199645931787,2.4166094489440915,7.842011533094543,-3.6710106038302963,-0.1774302602210409,-4.3297587373589765,2.371648386524871,-1.3910125521119143,-4.2471342050641585,-4.367004522405281,-5.090040078400701,-1.6941537593496254,-1.5780519398209822,2.8479625951410275,-5.54250993290599,2.811067243571108,3.3075856660538925,-10.531254619814652,-9.442547868738709,-11.973602913996913,-6.296061989842983,-10.290032942675953,-11.364382014518124,-12.174584331448974,-13.987741841295254,-10.189932067479566,-9.471854069165678,-6.672882302764217,-15.748499660771177,-9.620209393915939,-5.664981726169357
1669898700.583765,1669898701.579366,9.495296955108644,10.49089789390564,2.0,237.28144776572546,0,-3.6674659091634396,-3.9425933962319286,-4.3945275524850365,1.739768961476902,-1.0945837823334872,-1.0296187584917003,-0.7205919959268193,-6.514009672701244,-1.0281675679581244,2.3537319437913733,4.330243186262461,-4.690356773965624,-1.2658991837434797,4.878018260830768,0.9857666566164112,-0.19813165161314342,-3.1312005956172353,2.5297009092337004,-3.2119327433907636,-6.928338559623651,-4.668156409769292,-6.180375592029753,-1.697805417715177,-4.630901114293745,2.3985578707240953,-4.178562914888895,-0.41916886048741336,7.185720915869607,-5.7659850041464935,-1.4168479697315526,-8.028063724097589,3.9308489667882007,-3.4759838109207264,-3.2870688604913267,-5.3977063325589985,-3.964132212514314,-0.37499907335465077,-2.311168424727641,3.4495540170500916,-3.7478443317046475,0.8524092287026015,3.1578779955990073,-13.045773294410377,-10.103178306965983,-18.242639626669863,-9.053666446145032,-11.794626397712985,-14.09649141668098,-13.8948078404081,-15.407649875953148,-11.64280437683332,-11.871054634943558,-4.438317233272819,-16.69911906701078,-8.24474489639219,-6.309338754894237
1669898700.833642,1669898701.829242,9.745173931121826,10.740773916244509,2.0,311.14621358321926,0,-4.814344206924746,-0.26015312834977666,-5.659913641743396,1.0606905555155026,-0.5494919898515793,-4.541769733755516,0.1553084921641023,-4.648024977878697,-1.802800828410886,2.956167736865737,4.399690019824957,-6.3152871295079605,-2.86027308730771,3.049122843571289,0.04076580573844682,2.2778196929972876,-2.2300797001380257,2.927582839979207,-5.78552974300936,-4.558584549068274,-1.184430430020277,-6.248969997885929,-2.6311680224206184,-12.391582563644388,1.2878229646069088,-4.054010062803212,1.034185163455962,4.00936978289184,-7.808356774320825,-1.741324482269776,-7.701507859878123,4.029195130274857,-3.5504189352261912,-2.904818352830069,-3.3188777957036404,-5.1448769378886965,-3.4331188197287204,-1.9189440275328915,0.6222668710849008,-6.299301477971842,2.2246880854508797,2.17482813944432,-15.160005973059612,-11.869547837825937,-19.400592675703336,-7.827479359325984,-10.877711855733454,-16.665524599935054,-13.426106824253967,-15.829394377278785,-13.39137172447298,-11.831923424665005,-8.021199185936393,-14.227722323255286,-9.75369621583948,-4.993457351049734
1669898701.083518,1669898702.079119,9.995049953460692,10.99065089225769,2.0,261.4018294522932,0,-3.340590724976015,-2.7213145734159494,-3.5937082626346095,-5.227262035004098,-3.852992411268979,-3.2721618851501555,3.15478720732578,-5.250378252517142,-2.8307715036157033,-0.22048245319120782,-0.2771986781650079,-7.200148980281509,-2.8317166890774894,3.0879632607565455,-1.4568696658098275,1.4730282260697094,-6.259573520504596,2.708433352229208,-0.661742008744104,-4.721652019805015,-0.142968513849724,-5.052767441867921,-3.7367893919099178,-10.718385654515245,4.240576131406973,-6.521047566244103,1.9327506160852255,4.739275973255498,-7.761798022921463,-3.5808313947868387,-5.141974652212338,1.9310862140327634,-0.938689656830983,-4.82330764224399,-4.870005563128354,-3.1468700508238383,-5.645242047047141,-0.7983832598110405,-1.263978247071679,-5.375793306859449,3.564600884174812,1.7084945448573996,-17.42207383520755,-12.695951825767908,-14.733883418620874,-7.202387712448176,-8.069896358194613,-16.53274855872138,-14.994784198796985,-15.480850703844737,-13.575262956103561,-9.10132643103788,-11.404117681861061,-12.81790838257624,-13.528448264163726,-4.644965730188338
1669898701.333394,1669898702.328995,10.24492597579956,11.240526914596558,2.0,93.65950696903148,0,-1.5670378265215248,-7.1333915039067755,-2.6360078274745935,-3.7697308049425216,0.6391728700056597,-2.6393866365367975,4.497820626178043,-5.911657862939885,-5.584335317984339,-5.114204798420592,-1.7349021456897038,-5.832538940010736,-1.0082411122645705,4.966493896445923,-4.679658692751664,-3.8823684590013507,-7.4969199741047685,6.007024229703342,2.0330709686363364,-2.147376519411325,0.2425179409291248,-2.901717313405958,-2.615436523434662,-5.420213620636779,3.5429212053938293,-3.862688813291691,2.388028603878869,3.997174203674562,-3.931002686575872,-6.1202196485829665,-6.6005747966914665,1.3990862047704287,0.730626122941631,-6.708866208422321,-3.8966277017445883,-5.077308958407556,-4.940323464617595,-1.837370409992542,-1.935008852066919,-4.602828905234422,2.1352223072287564,-0.39653232883345335,-13.62584618889569,-14.95048725955618,-14.242581516853983,-8.904936144362765,-10.026178272419967,-16.506977347246945,-13.692593942192051,-18.29850098911491,-13.048518281723684,-8.23601705908622,-9.38081437013013,-12.70665756219005,-9.532636263532076,-5.090313523856002
1669898701.58327,1669898702.578871,10.494801998138428,11.490402936935425,4.0,95.69461905194798,0,-3.495472145905137,-2.3363112643645865,-5.418587299445189,-2.372767519501558,1.4608157968902604,-5.751269715673012,2.193134383127618,-7.9319399405334945,-2.5295971567826636,-1.9512833746735034,2.105923546792065,-7.018587301788653,0.8911971458781119,3.1609618269903277,-4.684757305205331,-3.1435794496491356,-5.3509787293348685,5.89396210051421,0.688026312292489,-2.6706095526911406,-5.3347726907948845,-6.138905344051456,-4.403665672668165,-6.008781674605093,6.688415531599761,-3.5177929418251686,3.0264535489993936,1.8494863443012943,-5.613790065149925,-4.678311279206323,-9.011235437215346,4.7616248001234425,0.6674248514348263,-6.083178316868998,-5.5540082079690425,-6.854004591732287,-1.2409967116159357,-1.2583617528397586,1.3958454114506444,-4.058766593466771,1.9150735425979037,2.176898185261496,-14.192275382631163,-16.581851521283326,-14.94191852059274,-10.003316567360176,-10.580427573881082,-13.686845991947553,-13.144052183162046,-16.43169333254303,-10.588338001061782,-8.479335787227477,-5.731513767957744,-12.509672081320002,-9.494403126541865,-5.143486224414676
1669898701.833147,1669898702.828747,10.744678974151611,11.740278959274292,4.0,59.536219463758385,0,-1.229415042616194,0.6530777388469677,-0.9266959362448455,0.6656144810655997,1.3317243679599873,-3.553287797216147,1.960800231423327,-4.653423638131779,-1.4049122799824607,0.5920594918787047,3.476339281831068,-6.230835653068239,-0.8013100751802077,2.8182041659570394,-2.7708646568414643,-1.568814008055813,-6.364085646081785,0.7711565328854376,3.2679696476123987,-4.693525431130195,-5.95724622988302,-5.798003582836832,-2.8934633659925257,-5.723698321769057,5.462509171779349,-2.7664953111435056,2.2003231841591284,3.662261155002955,-7.110305168871918,-0.7215071005114064,-9.10317616382427,6.229278659495691,0.14970905833922282,-6.878457175712772,-5.507123974656429,-6.334798599041738,-2.9374666522481387,-3.5338965191222718,3.985269767956595,-5.445690476543394,0.6412601034499444,4.274442586779754,-14.20865815267685,-14.634214880941943,-14.08889169378339,-8.008343454325637,-10.311974225085494,-13.493006406293329,-14.222865589904474,-13.163546231542993,-11.054722395994023,-10.74071479468855,-4.6972373951764705,-11.237557596183965,-7.892801550096319,-5.425915621511295
1669898702.083023,1669898703.078624,10.99455499649048,11.990155935287476,4.0,51.55208115030279,0,-2.3401668089083345,-1.2878175228976314,-1.2452750011933955,-0.8561417521708765,-0.5197781824076424,-5.648308965521397,-4.526912405404224,-5.6364466600730765,-4.91585531244494,0.15140861499386432,2.9033772107664593,-3.320932184923977,-1.0021854569414426,1.9151575341576255,-3.6339941655585446,4.4847072498038045,-6.8048212796556875,3.929003945535847,1.5431635922267615,-5.5948527767551095,-4.599780368119074,-3.347719047534934,-1.3161136503077655,-2.8864850747390807,0.46131236373400186,-3.0241367903933014,0.8471685920559912,3.0043748520198,-6.653337439382651,1.7430739230518904,-9.17520571808968,3.0141973984022536,0.2138984279473543,-6.354959606473547,-4.942317622459968,-7.616982685537764,-6.178907268449665,-2.787007604972075,6.640742396786676,-8.14492983248495,-0.09305241672766898,4.6311974584374145,-17.357328063974585,-9.652883298471181,-15.18515849512405,-7.1801446859107445,-11.845478875180234,-14.613521430935375,-14.262377828203796,-11.018220061353471,-14.704641627807685,-9.454295736792377,-2.9050043109817385,-12.387230873602908,-6.8963573399262845,-3.9138262518299545
1669898702.332899,1669898703.3285,11.244431018829346,12.240031957626345,4.0,38.79621987973716,0,-3.8281514772472285,-0.7544557941177772,-6.108948954229204,0.6110599162359367,-3.3810184262788767,-8.022934507037311,-6.326730870315043,-7.8243520153059745,-9.361912712064647,0.1847567934360701,0.8430141931908236,-3.6931091177314626,-0.9200234804957613,2.85624710075946,-3.5426035962102898,5.761204276205348,-7.463320818440129,1.58948462183742,1.8019267418102738,-6.801966850762005,-3.637972083876332,-2.9771515441899794,-2.353246310133446,3.082634499063093,6.963892070307124,-4.662322135419959,0.2800692292895907,-0.06716679154658033,-3.003137075029781,3.7061061675723272,-9.07692837948245,6.3765600669191835,-1.335918400821778,-6.9451007465217565,-2.6033570326335758,-4.3014977076832,-2.335516274220821,-1.3956563382671863,4.260866038886392,-6.5683387589749085,-2.577674312758586,3.6890481887807045,-16.018007463643475,-5.558767670226237,-16.54767239010969,-1.1854641025238342,-11.876889186056976,-14.985137697518155,-13.216410502085695,-10.4640149463151,-10.822192448323607,-10.470929633316416,-6.134128686214692,-11.566882916478258,-9.562141895146711,-5.2736772458063115
1669898702.582775,1669898703.578376,11.494307041168211,12.48990797996521,4.0,68.98970636479274,0,0.4810369988643983,2.501873360729408,0.05912214728094064,2.848661029731666,-4.371345239954529,-4.105906423852904,-1.2770508442710287,-5.038017209790645,-4.9812712417668505,-4.693691874346667,-0.45743188768030896,-8.493355819200247,-2.2899296766010373,1.70743229530011,1.1162513441531936,3.004164127996293,-4.362535099908466,4.1851277604134545,4.424355117368808,-8.60319203652275,-5.43936751762648,-1.7933204988454632,-4.837445585014281,4.498762807446075,7.435292547836177,-2.9324188560097566,0.15368125974283467,5.579154034554899,-1.624913208996909,2.963749390901919,-4.952214297997857,8.132760674530942,-2.376488802294189,-4.548241837909677,-4.193416976108143,-7.320143966058248,-2.0530499381824683,-0.5476371173688648,3.885980050761772,-0.9662022520371985,-1.94117566911716,8.05109573561956,-12.393562796328279,-4.350953076119378,-12.955926671865063,-0.5852288818501525,-11.446333115665102,-13.565863135346978,-13.193824454067675,-14.356550160770844,-8.969821975285813,-8.874519515105181,-3.9553871561552434,-8.49376490047679,-7.42952469398475,-5.64881183277493
1669898702.832652,1669898703.828252,11.744184017181396,12.739784002304075,4.0,94.60353358800654,0,1.2931232451329011,6.2779337784180775,1.4873752064817105,4.674452733690465,-0.04864922334685023,-3.5594957928737103,-1.6532907118909597,-4.091190328598506,-4.582343739962692,-2.9417230485483836,-2.463396693469414,-8.809549575033225,2.551475392900469,-1.4902350346005675,6.192753204975042,5.342240783417766,-3.4257937690462565,6.186671608793625,4.378266830390457,-4.478343420412204,-4.961324349273763,-4.089187177855761,-4.448237102232464,2.981462302525296,6.092209016218318,-2.096906337770605,1.7822334989862645,9.93816031685448,-4.904946987574574,3.9755726477472653,-4.16606070953235,8.266818969560479,-0.528589572599824,-1.7947783535722917,-4.775465615775182,-4.038088455270017,-2.4925813357585227,-2.02016172842618,5.517023337836642,-0.7778328567914399,0.021326326036940246,7.281255331136219,-10.571280424626755,-2.1992746366671505,-14.041348504929621,0.38238876956385215,-8.064209417046209,-11.816639143101138,-14.118344412516702,-15.162521317364948,-9.303834120936902,-8.959422129390038,-1.8889652826105707,-9.292912604511244,-4.455964104244126,-7.540082864205219
1669898703.082528,1669898704.078129,11.994060039520264,12.98966097831726,4.0,93.91827999830195,0,-0.6408569015508023,4.325276558187717,-4.2181054778538005,3.7738486685376706,-3.2421067409154665,-5.423672835620735,-3.795704512918885,-6.508970416540603,-7.615805872574799,0.8892803791269653,-3.315552222175403,-7.784255564798011,3.499734042633638,-3.1283979780050823,4.14610024532371,3.7015444536254396,-3.35177192315808,3.7737939890226975,4.595231062921354,-6.696816814145872,-3.588323901638137,-4.967390698791013,-1.6800041482210974,2.2168874195729513,6.361733863183669,-4.829862307546233,-0.9188624298133287,10.605858580003185,-4.3822899874905366,4.608118251437958,-5.932135261790965,7.398236786343601,1.5241291545511062,-2.796696150488299,-1.2601000273832144,-1.6528724055612014,0.43624868499553093,-1.0722184226945124,4.194949564884346,-4.05409777188569,2.005180475463816,4.5114015213103915,-10.014090372780815,-2.3504431832543893,-17.615260901491084,0.9720386523869257,-6.778551120689402,-12.344923776184654,-12.551573668180565,-12.70742377035857,-9.615108621576198,-8.949875412170812,-3.750276211528142,-12.928528350593428,-3.059392120061808,-7.560807208621194
1669898703.332404,1669898704.328005,12.243935823440552,13.239537000656128,4.0,80.67701004850123,0,-0.5407351636751966,4.2493866168611385,-3.8129951185073363,3.140430262466115,-1.8367519225331512,-3.272155165050028,-1.8200797090476784,-6.211704909121993,-3.9646707964880163,2.458357857733896,-0.5211067036377953,-5.023211117354995,0.5386403525588344,-2.7213528070997066,2.322895656624453,4.599101073120574,-4.213229283531542,1.8633302842666888,1.3275590126799228,-3.7874798432522336,-4.678148645085515,-3.782019890502453,1.1824115550840242,1.0465479575798184,4.782311354473701,-5.458843151814721,-1.3065579171668442,9.639675371795477,-0.9997860609077449,2.7873558897374378,-3.9248868721208066,6.251512548181189,2.4446985816519224,-1.7773290262728976,-3.030250985500374,-5.7582379266482935,-0.7769880239494587,-1.7407318437357222,4.887784491149593,-2.1132971350302654,2.2865986755417382,8.223304777274416,-9.674139599309527,-4.889102617280634,-16.522051453548748,-0.008318164275949674,-5.705560857086351,-11.367611502326254,-15.452480286888575,-13.716614208723552,-9.369076996956752,-7.393447120325504,-2.5647051519480843,-9.818496104538607,-4.793728555924065,-5.944955878974828
1669898703.582281,1669898704.577881,12.493813037872314,13.489413022994995,4.0,82.92308703812827,0,-1.7309561919443361,3.045475501492895,-2.345365775032822,1.486701766528257,1.0844954778158629,-4.905664120903865,0.21673923827519787,-4.929587965068475,-3.4316228784192884,-2.4882316118439087,0.02843105698178116,-7.330430953277318,-0.21686630194823464,-0.8585555721773436,0.9520230199904706,3.175220154294408,-4.197452586379092,1.7320505224785754,2.966094618148185,-3.0294298481781636,-2.2876118546247044,-5.647710304973924,-1.2612670658701024,-1.5288054737634516,4.305885730291369,-5.916327023956626,-2.2427929807582974,9.873427175942524,0.5239684124071418,2.745008926522279,-3.5635623611769796,6.674907848457679,1.667563249074563,-0.8624098877715778,-6.34105099763111,-6.569435128871505,-1.6409283134882855,-1.54620640820164,4.676904510341837,-2.2508050868720892,-0.3700517239820223,7.254611801879078,-8.631740984437366,-4.843133473938551,-13.847911679627025,-4.349773285048899,-7.198946853102309,-11.907954391002594,-14.997833553280264,-14.937990213801843,-10.904960932272903,-9.37128245052634,-2.9731719164737225,-9.252835248002032,-9.169870069738334,-7.155131241083574
1669898703.832157,1669898704.827757,12.743688821792604,13.739288806915283,4.0,86.43804897741408,0,-4.627578909705967,2.3967797566516964,-3.1062517914803083,3.1735965915900244,-2.0729981791817744,-3.7883534979895996,-2.1484275358739224,-3.3940234291075106,-5.50174499608667,-3.4538429794724452,1.377387144955418,-6.254170514695774,-1.7417365942779728,1.6269235250424572,-2.1322608862694077,-2.640594386232592,-3.2570744257789186,6.424790379744129,3.767959629346149,-3.7979218175041876,-5.158878966361803,-8.183104296551038,-3.9238190906006243,-5.764247350744148,2.8229447435907016,-8.048795624699647,-0.7906965122915264,7.236533518074849,1.2026463901370812,2.5043051876366365,-3.104210002295943,7.945593088327376,-0.5495759403846063,-1.8856197849805936,-6.82259796208709,-7.8938518625153895,-2.6491027260992883,-0.5176527695612901,5.625909061113443,-6.7711030080339185,2.0582555862050222,1.6846309962103545,-7.747287233984796,-3.638553246137106,-11.164175971822566,-4.001898625715396,-8.419460927286154,-15.750713394932829,-16.30771926954906,-14.641942176335743,-14.455861519382822,-8.460726436400185,-3.2303225685010966,-14.990920420635277,-5.546388055234841,-8.151763292392408
1669898704.082033,1669898705.077634,12.99356484413147,13.989166021347046,4.0,77.0090878784177,0,-3.8043109727255526,-4.127844738325354,-3.159892699147198,3.3616363206547546,-3.779828829795674,-9.207959832067045,-2.308196848122077,-6.753568790767965,-5.484731658928947,-0.07957436838020973,2.1919110513543627,-4.411143539396393,-3.673697173302149,0.3935086233470161,-1.0220523984111598,-0.03684517636554768,-3.1867427634490237,4.815692087763418,5.113457394543027,-2.9714897846258554,-7.467201170440841,-6.748170535778469,-3.285230665556525,-1.2359882130762283,-0.510255494920999,-5.389040155661855,-1.0419325621358277,4.054264896738902,1.919356374531871,3.5575883886764426,-5.126851501710208,7.417327240871843,-1.2950064459216883,-5.362561744322179,-6.634845196846911,-10.244721808906954,-4.973229134881726,0.27031197528490764,5.260835680537009,-9.483275387980045,1.9982325582551639,1.9924958706728764,-8.056341077176683,-3.846205509936426,-13.311334310431992,-1.11927214834494,-9.587377950762953,-14.820121156722871,-18.564189144008516,-13.677081806015837,-16.582624982270154,-9.386260681721545,-5.4762681087889895,-16.533455958642882,-5.674777342783237,-6.668491030355563
1669898704.331909,1669898705.32751,13.243440866470335,14.239042043685911,4.0,62.008167446712314,0,0.9564496986109237,-3.979596710733127,-4.965749474863211,5.045100364391411,-1.8882881054293317,-2.943179790970198,-1.7936603224894494,-8.141713756638044,-5.27872692727716,1.227756596791382,-1.6643306130702042,-7.179004409948236,-2.510908131971928,-2.7787400015763697,2.7984972818808025,2.4924481009220116,-1.2453731485066537,-1.5201630499928906,5.803523116947701,-0.9567170583763529,-5.238019390911816,-6.690543698976684,-3.474046543721757,-1.0813904979757296,0.7843088143471806,-2.51622364708334,1.3374961512338652,5.179299529794145,-0.46021521198109716,2.8887944719872714,-5.758328069684383,7.1355274221305525,-0.2321454770629262,-3.0792664183222715,-4.852190937640962,-6.729980777747403,-8.29487237078903,-2.5166339651400134,6.1894881488907005,-10.999837968048581,1.8484876824873797,3.955430605771544,-9.346733204310837,-5.764363177640991,-14.978450473092803,-1.2444793334275817,-9.906296987472913,-12.254155673899348,-15.181618407903294,-13.947187420607445,-15.025193676307646,-11.306289091731514,-6.114813738668957,-14.856327676404506,-11.396359661942302,-4.550615845395348
1669898704.581786,1669898705.577386,13.49331784248352,14.4889178276062,4.0,36.79138114034109,0,0.2460144167052067,0.5892924976314204,-4.843857630383416,5.33272433907142,1.3285878142889733,-1.5279506430225929,-5.470898123149367,-5.264275257480265,-2.6643445433438884,2.2340238520122173,-3.989642765555246,-6.817657367690451,-1.9964627355358755,-1.398710975984026,1.647716843211997,2.878943382905595,-5.116542262706424,2.520877664602409,5.805935006738597,-2.5185073396007027,-3.232894213836966,-5.8008837077671105,-2.5163217889137455,-3.254199196266404,5.002639388878068,0.839954925574788,2.4545577644426713,10.83655624937331,-2.9224199922130816,4.632238620906293,-5.682646633502832,7.108122716701429,-3.2431349501790936,-1.6887397937683413,-4.080080376245655,-3.5686980835882838,-8.136300218455695,-6.164877882737115,3.541348084777166,-8.47384500323943,1.612904576474841,2.8437592258432542,-10.14153573539436,-4.94956991424168,-14.650122025087637,-5.702372416818633,-10.911971672688763,-12.484833345808624,-14.514519808916331,-13.233072516112337,-13.583534100769805,-8.936777630723894,-9.255478739852137,-16.14207470505761,-11.574903058645123,-8.660556012401354
1669898704.831662,1669898705.827263,13.743193864822388,14.738795042037964,4.0,38.07589453737108,0,-4.83070543043388,1.1822085043721127,-5.924810217373099,3.0861942597068186,0.7670312408221492,-5.421678606595647,-6.023851587768794,-6.9770067974123515,-1.0181663549233801,0.5031450894918189,0.4287637193069095,-5.256390366896243,-3.280238852718494,0.5877883626750183,-3.928803568580296,-1.377914521082326,-9.956119225208935,5.097266335473602,4.989249576196043,-1.4200416043581945,-3.773197347926253,-6.105596876615566,-4.666832336683986,1.1180546324901781,3.090079607347996,-3.365163541430245,0.8173470902344058,11.766728170323582,-0.5688791872613307,5.642848901627735,-6.709596984221777,4.671873341462822,-4.842417444046906,-4.959080993923505,-5.546140424965827,-7.841366438218124,-6.313916268133387,-4.1768774795565875,0.5860844757426882,-12.536652853857568,0.9509031058021848,3.3909510412428947,-8.137653774461484,-6.5741736922862035,-15.802234239166435,-4.088158539820567,-10.532958030705919,-12.617142916852732,-14.110595590561053,-15.722871342111503,-15.37640922783368,-7.9982902707475585,-9.375570822995403,-17.85349888133937,-10.718934613380657,-11.391450276941343
1669898705.081538,1669898706.077139,13.993069887161257,14.988670825958252,4.0,35.64363849765451,0,-2.901306574381107,-0.5257355368453916,-5.3740051019377075,0.5993651341365065,2.5156205954279494,-5.988832134127388,-1.2572201262419047,-7.144984732518177,-2.5925088287894615,-2.958061347296048,0.22437097604770123,-5.755942431707059,-2.0787188125461387,-1.9437116633427451,-0.31549134452709526,-0.28464297141906636,-11.642573171528205,5.721623101829911,4.659035964473514,-2.4466839824834006,-2.3898049576241442,-5.732939535953989,-3.6753051997112185,1.6359779493075703,3.880457438594994,-2.5177092695978893,1.5998217317389596,10.646231794494962,0.31480280791690185,3.9791932570393085,-7.8335749878123355,6.748951625727501,-1.3783108444696655,-4.3114867013857205,-4.506207131879471,-4.8700651756277535,-6.036897975655742,-3.8795561779860117,4.388991913890248,-9.294835474283573,4.466423507014658,6.600391728844961,-7.518427357815463,-8.745130236166585,-16.74922324186375,-2.0092287029282865,-10.424334923355277,-14.685162082324668,-14.448531861353839,-16.603127118573422,-14.89131693609919,-9.577989573799295,-5.898020669048744,-17.318453838128033,-6.738887359805668,-9.15943126664249
1669898705.331414,1669898706.327015,14.242945909500122,15.23854684829712,4.0,28.981214340099793,0,2.20552035426723,-1.9363204915921661,-5.472483624638337,-1.1333077839404884,2.662856865082399,-4.739665040551583,3.755118002624749,-4.662262954089197,-2.7744884121230773,-4.0437801461173315,0.32538888267743005,-5.465519402152087,-1.9575184418437201,0.9209528844250935,-3.1626080987779885,-1.440274795410341,-9.031513730923663,8.776580830732222,6.297574919342983,-1.895062270565231,-1.188896374526578,-8.493731608985607,-2.5877620419557426,-0.12592995176367067,6.272965410245741,1.4664912574812492,5.56014080237111,6.255597882146078,0.2020572960062152,2.8935152310603014,-7.951711490405375,7.095757900678588,0.3124403844041136,-2.9505988476050304,-6.071424744174743,-2.8303144863150935,-7.666464992213488,-2.840646590007933,6.105514915205065,-8.825694749622935,3.4582784339608463,5.742400764316573,-10.137411311450855,-8.403254159256345,-17.803647091429102,-4.594089951306604,-7.844959770952932,-13.967739785700072,-14.963522731422472,-14.264168045701231,-14.657114770829548,-12.77175698529401,-4.7689470262025635,-16.385960133870462,-7.54519540257026,-6.323522537664123
1669898705.581291,1669898706.576891,14.492822885513306,15.488422870635986,4.0,42.93400229763832,0,5.971867503889819,-0.19874050564469786,-5.204998058961938,4.77833910569215,0.04441012346183733,-2.842504811671402,4.937048164216444,-3.678428478209951,-3.2537423967794266,-0.4297662979623935,1.7481328634251105,-3.1015526506956377,-1.4833287659563625,-0.3334424013642346,-4.7210798636047,-0.06323127395634753,-6.10660689405527,8.036425700193623,4.196092598360077,-3.0783174119777095,-2.154142144888006,-5.247235099536254,-3.249461978218868,2.7041563903005943,4.446687367242024,0.3142357507617266,7.015043395314429,7.268042419518244,1.431721340266835,4.11892051900278,-7.309277978140862,4.959982559343919,0.04687245087047315,-5.669432791767517,-3.6770525446253637,-3.587003832518371,-4.995679478808854,-3.5998382454603655,4.556731741803377,-8.650975760574832,-1.3568596374369477,6.026786505122079,-14.43492034712882,-11.541444710797244,-16.151748228049655,-8.291485453264505,-6.63615702160235,-15.475798028249878,-15.99356351043695,-13.81560996429277,-15.292350580278583,-10.383292532746363,-9.630158253175797,-16.018504872590555,-12.307042538738548,-7.055492004337191
1669898705.831167,1669898706.826768,14.742698907852173,15.73829984664917,4.0,45.69050666194252,0,4.188705384229547,2.190176126017898,-5.203005721140592,9.673545020204603,-3.09431253822099,-3.8661061200419793,-0.7913763896172132,-1.4766656506503537,-2.6222528219475274,3.844385757221474,-2.90260217399564,-5.154527174875536,-2.279804048277035,-2.139103951631186,1.8284333852098142,4.684474330881971,-0.7616920269055639,7.0162579973935735,1.3831970514198346,-4.032564760710513,-6.039622191134035,-2.9223406354751384,-3.6318888116087082,1.9294423421128304,4.785592848209709,-1.709945267331388,6.470215583959242,8.94596834343364,-1.0654105235845377,3.5955535259735245,-5.433681331783747,5.778493938886838,-2.594470388629073,-6.323452225481155,-5.444107955836488,-4.798001362922712,-4.381736187679632,-4.291139367295511,6.16453659986989,-6.3824209441684125,-0.7643552120368918,3.2257609710949082,-12.320303621560369,-7.751216190530688,-16.544064626321514,-7.755952853534413,-8.595293436277485,-13.912990814685163,-16.569399924468517,-14.8627337418775,-15.39994278888762,-8.60644791528457,-7.248400202522926,-14.92759769481745,-14.811522438873233,-7.032648238094844
1669898706.081043,1669898707.076644,14.99257493019104,15.988175868988035,4.0,46.94968872820026,0,-3.1215174430399784,0.0700618988977622,-2.6369998945914883,5.758760331605966,1.1866335235350434,-5.271193710850037,-3.0636845296787687,-3.549813841173669,-1.42905557874565,4.986182964154273,-1.8832512049917178,-3.5133041440538397,-1.2172852986911233,-4.782785477295891,4.383762896361043,3.9451710273836067,-1.2837205484161687,7.2653041582193705,0.3469872682668049,-3.6348335300053507,-1.8455732029724436,-3.009216257246619,-1.443059648649481,-5.786862683750949,5.0109653435522965,-3.108733853237392,2.1161779869170494,8.984061004916699,-2.2016474968193407,4.155604562545344,-2.5392188066435994,5.766101579925812,1.0385578484276416,-5.011727079441647,-7.4414781349171815,-5.302211543042769,-3.6760774872003763,-4.999333961983342,7.073379543376687,-4.16726952988371,1.1241440635723403,1.8088931831273474,-10.809575035671237,-3.80000510365347,-14.65992707750794,-6.761529870800085,-8.146791538073666,-12.27342570209461,-15.881509776431415,-14.486493687289707,-14.202562688726585,-12.268712351562845,-5.165514351972071,-13.75575649011267,-11.482083704325554,-6.468118429947168
1669898706.330919,1669898707.32652,15.242450952529907,16.238051891326904,4.0,47.98876259121664,0,-2.1395190689484123,-3.9591319714228894,-4.597602599967266,2.321982133240033,3.081614007461917,-4.320272126859138,-2.6062128411499397,-4.997278358674505,-0.7778224663664328,5.981014202062232,0.0738978573937322,-5.6951553142522044,0.27170481212599495,-4.835657795329986,4.289768889786753,3.426746745676381,-5.4476680061070955,7.295085278110973,2.085206911846405,-5.148669748764378,-7.077212157695149,-3.292882027769806,-2.9332624423360008,-3.6950358906072696,8.628274349432186,-1.6934023288024547,2.5198498311350495,3.986407267485761,-0.39305285866866,1.5536134859561925,-3.8110033122800626,3.718961089293332,1.7117819097378124,-4.2441597256938355,-5.459613018955265,-4.39379464189039,-1.8972586468182744,-2.4260938655888364,5.2951858659473565,-4.909820270781612,1.179246218739261,0.2794137278438686,-9.41195843382703,-6.159719809332909,-12.490578482094396,-8.145868677461554,-9.847088913909797,-12.988299019689931,-12.531192613806198,-11.795792410494721,-11.654780879648786,-10.924436195191468,-7.319980724782006,-13.64754148957369,-5.8259902895448725,-8.703015428889056
1669898706.580796,1669898707.576396,15.49232792854309,16.48792791366577,4.0,33.262198303604045,0,0.9281645858472298,1.2566700172772718,-10.446218621777723,4.355016151821935,1.5701430711373172,-1.293007568891487,-3.0574723366804863,-6.7611300398043195,-3.057052174481312,2.733750071245131,1.8382092623427695,-1.7151665453561702,0.35800315217057366,-4.385453417393265,1.5866768689310868,5.370618705483649,-2.570765257112779,5.067312414024676,3.7922501625198684,-3.252287025246694,-9.948586935085395,-1.2046351053761457,0.7833458047776355,1.3330480122982211,8.68785655403828,-1.1703499722773423,-2.752963846483306,6.589315939424539,-1.128810873693809,4.468384796091448,-5.224333821985092,4.378091620433668,1.3656774943181629,-4.071002291628728,-4.193494555997633,-5.878122533494105,-0.9544642755950299,-1.7931864540688824,5.3795133194667155,-4.550786736489333,0.2141706814911326,-0.12495489883678713,-10.235009714934485,-6.733717198310489,-13.12944884850184,-5.148467307387014,-8.461451282206689,-14.794135112512256,-12.805012912088428,-13.60539777670921,-10.908259722583187,-9.389064518985013,-6.8844910059156454,-16.021227004776463,-7.019535306439012,-8.542070721448113
1669898706.830672,1669898707.826273,15.742203950881958,16.737804889678955,4.0,35.161436475112005,0,-0.09453743509896503,2.590095572016292,-5.8421145518431095,1.7272297586108962,2.816660686298527,-0.6495025669408991,-2.994090705253611,-5.058802545147664,-3.103216059644594,-0.25814352427298914,3.9830794620120322,1.8700418930470464,-1.584976133382884,-2.160095584172471,-0.7825953974550353,5.330232352615278,-1.9497474432003918,6.52915546954849,1.9244960593589528,-1.312977895939826,-9.270824287574863,-1.1290293959786408,-0.8380986055506221,-0.324515738434524,5.731736097857586,-0.4325486483690911,-1.1327658352749046,6.80217293081446,-2.3780730544998274,2.3798668005089514,-4.150706175448637,5.949159159608854,0.1264700864799738,-4.721998489573403,-6.0536329041563155,-12.348231294299982,-4.2499851300341875,-3.779179063462681,2.2262308872294856,-5.702859688531313,2.4080783954992824,-1.7193084131568048,-8.308559320202404,-6.788661690191025,-13.63795707664921,-4.162140691593002,-7.152128676946338,-15.507452944705825,-16.44587359137187,-17.864328899645013,-13.484857330456874,-10.29675520851753,-6.403165359568471,-17.252720206438692,-10.363384758843974,-10.419011075370497
1669898707.080548,1669898708.076149,15.992079973220823,16.987680912017822,4.0,35.601769124151275,0,-1.6020129553956783,1.9148742925039464,-7.224762979567579,0.7153160488311351,2.5419971492838593,-3.4301738912019033,1.5078447221238254,-0.08385828575289894,-2.0191241401043882,-2.250378951364045,1.405868482569843,0.08951957547470384,-1.3677705026245615,-0.3012260966554275,-2.542719001255946,1.3125082934627077,-4.59750451964566,3.2607762026740255,1.442250662755087,-5.5756828006698544,-5.595034781429722,-5.010737374849174,-5.015812341210989,-0.5645562860236327,5.561758681794023,-5.383274261448414,-0.17393919107908454,4.134000020740804,-2.505161740105075,0.6309600036965969,-3.120543723428986,3.689667261959779,0.5892716868611628,-8.640208959693748,-4.690337907974906,-9.614765930814592,-8.60653276310243,-3.197341307066768,0.5272262871130412,-7.978194707262571,3.0250991684936817,0.4288485367198327,-8.965868400242604,-8.89609430318118,-11.878211378660112,-7.619794150343504,-5.786449550038681,-16.958146622203365,-16.115179411016854,-17.68120923803044,-12.841456005580909,-9.521688705805559,-8.18899498544625,-15.344714455555161,-8.529224447750757,-8.170624735248039
1669898707.330424,1669898708.326025,16.241955995559692,17.23755693435669,4.0,38.97303998232948,0,-4.955608244026871,2.070867281083358,-11.484783628417674,4.363065365716801,0.3918404435745425,-4.003818400708643,1.211157309068899,1.0284700845466463,1.9581484221065089,-1.0135202117046254,-0.6093624888495167,-2.0509959381387577,0.4213840132576751,-4.516828449661407,-0.004774018834844043,1.1077611039418374,-3.6588909293402994,4.30911301660207,4.193749288791687,-5.076718645627317,-2.360984413587751,-4.6143015338376605,-2.1241592406316725,2.337218193360277,3.8729367699180663,-5.384818509944608,0.6634266898506623,6.390533348218922,1.8648020587139211,4.107840376815553,-5.959029562420778,6.428099453392154,1.7667866808264527,-7.841775753196202,-5.021871241509562,-6.164641976098679,-3.790258871915517,-3.380950276080547,1.4079149952498105,-4.6795674768579545,3.762428897166564,1.3846324664239393,-5.499111498951987,-6.777659931765934,-14.311180457486326,-1.6615552173728356,-6.383026518616736,-15.574112999842457,-16.088690241912737,-14.353699901730248,-11.4928664585598,-9.582866931294214,-8.297194992361547,-14.898246646039503,-6.464443823657144,-7.469832083938396
1669898707.580301,1669898708.575901,16.491832971572876,17.487432956695557,4.0,40.8689012470714,0,-5.494790891125874,-1.6414208299822064,-11.387252367434133,2.39278566403137,1.082251995224933,-5.892150152278692,-3.201045069406087,-2.5232317127230175,-0.8474000469129478,-1.7291351565103519,-0.10883179036439164,-4.554438457078657,-1.0161305137248369,-6.134500938969328,3.201043981052089,3.8632934207719396,-6.651988539489486,6.604574650891734,6.1771782337892835,-3.3327277248325227,-5.637582128598665,-4.388592606399798,-0.8438832254713664,1.2493981973577972,2.3964100434801447,-4.503057503460645,-0.35316880063680434,8.578434154107873,4.918080638005248,7.189636455071526,-5.550154404951049,9.04032984777255,3.6752593675930845,-5.1521651966961794,-6.746239904899155,-5.024229108171285,-2.170173122790304,0.020722591016044373,3.8951776489932795,-2.88527666170813,2.5414254398953884,4.553723858898754,-5.523375936196777,-5.155429086308891,-15.072079978891413,0.9203218550848158,-7.299930457735178,-15.884435080038488,-16.34379925689607,-13.547539021830683,-12.840173064404496,-9.165645095641139,-4.891702426926739,-11.907992777002939,-5.9251557997934166,-8.166866145960505
1669898707.830177,1669898708.825778,16.741708993911743,17.73730993270874,4.0,42.158382211368185,0,-3.5579163490078276,1.2781898270677485,-4.783524776751744,2.1869224560363945,2.691956024779767,-3.8306211572066715,-2.3684542977656524,-3.5808772649584286,-1.8339648246561047,1.125790678134899,1.5765387385393528,-2.6964595963477493,-1.0038901914759633,-0.5506238678011317,2.3701383444583994,3.5513676328881747,-5.762258136036994,4.443251739160998,5.038461043203455,-4.03577104568243,-6.196188349790159,-2.243266828983599,-0.8771597234268134,2.0926344457055865,3.638979778134072,-4.039173893026751,0.5169465983360284,9.477525553616529,2.7349482189922982,3.4227172342760532,-0.7632818160596784,5.7678202122675515,2.579656107054094,-3.454765658384176,-6.907086570471988,-6.1210610591940355,-2.6973898161738976,1.2579046111557834,6.37491053726917,-3.5590734787178704,1.518219981081781,5.704054048779469,-13.883088200236497,-7.583807589015139,-13.517326550087239,-2.856370798217023,-11.176518332147625,-14.281458276479558,-15.532394425724354,-14.116859673189992,-12.857486359999637,-8.208212065313338,-5.324544025362993,-12.06896350926894,-6.6453013525332985,-5.208135614529272
1669898708.080053,1669898709.075654,16.99158501625061,17.987185955047607,4.0,33.52531277556054,0,-3.464221254254052,3.9280767906797505,-3.224685786976905,2.917547265568821,2.4898512396023955,-6.728035837350301,1.9329276895659313,-4.3923449614916565,-2.458842018302358,1.7446287206049849,-0.7758181172379865,-2.7942678841701514,-3.5808637933113836,0.3737946012175304,6.380644200817192,4.137717899507216,-3.983170965974734,4.148055868385863,5.358108108421689,-5.505062669236792,-1.7496039672677979,-2.366766100642794,-2.5834822329647404,1.986627886171715,5.470169602899848,-3.224896388063901,1.772708228862267,7.820854257722826,-0.3954332024786699,-0.5146627220586931,-0.22529155702901554,5.165969396132263,-0.26486352932249646,-4.22556306694655,-5.020571126862629,-5.3486996085542415,-1.0498474217152305,-1.3623790269928837,5.718159784676526,-3.1009343317409632,0.955076333165154,7.200589093727789,-11.291225790433113,-6.447626958962102,-13.602960448720477,-3.7255713006954645,-11.240471388227311,-11.140038958774657,-11.702305992051002,-15.879556097032847,-13.305544601474267,-8.536653333404141,-5.475613583894544,-13.47747715346115,-7.707444573048904,-2.0214937571044804
1669898708.329929,1669898709.32553,17.241461038589478,18.237061977386475,4.0,31.19379369605676,0,-4.872459826025567,4.521342079526207,-5.781357225317015,2.1640610351359904,-0.13568541531851327,-3.4415789838709077,0.2165230850767878,-3.61955842947319,-1.557513726492978,1.4067510209304346,2.443860627840872,-3.833795765777815,-4.780712006413326,-1.468717590375658,5.413676081552224,-0.08384867638975337,-3.2730853417497494,4.409714961674729,6.467590630524905,-4.113637415342452,0.3480317477769848,-5.987134832217677,-4.959291841004786,-4.664000236439161,6.812408828645681,-0.4869655678155533,-1.7289890910258596,8.474127744552842,-1.1496044998968715,-3.355649891735541,-4.43711685139448,5.2855124805002625,0.3841694311828903,-3.268987679534694,-2.9242990949041303,-4.08382816680669,0.9505945269677945,-0.5697841762360214,4.3308086373248695,-4.063863080054139,1.32005959398116,0.2806412155891431,-10.219041743694682,-10.536708203073095,-14.76742211634332,-4.535579206065069,-8.780374348992428,-10.644969553345504,-10.713249664240884,-14.506684786707416,-9.86127153643999,-6.347235447823204,-6.871520554156259,-17.85160769704432,-7.022652143789915,-7.522163246176258
1669898708.579806,1669898709.575406,17.49133801460266,18.486937999725345,4.0,53.06525483610941,0,-0.9121888767029696,1.7426455935136886,-5.438485565463575,2.7850908672750556,-1.3425433846423964,-3.128790274858822,-5.389322431825557,-4.518167896001836,-1.572596379496124,2.5712099717236354,2.485829206070772,-6.056047710695227,-4.034066859017918,-1.533314573425892,-2.322972067378903,-0.723095181227402,-2.72682834909129,5.2494196075991635,2.3151007307105296,-2.7195949832371813,-4.724467424043527,-8.570866905647751,-5.370435272876883,-4.897945949831083,7.835819822465621,-3.7162458654110564,-1.397484309538867,8.517043293701281,-2.910174687564515,-5.25005153239672,-4.70568182630621,4.916706826464036,-1.6672058704411312,-4.19248546041661,-4.5566845848526345,-5.788389754592707,-1.6732924945074865,-0.304435294560896,5.7342917161798415,-5.746166931296125,2.6007992975449152,-0.41034345607779055,-9.078268433258502,-12.22282567065805,-12.186612056745155,-7.57470572018045,-8.636591269039155,-12.612005048740278,-13.768387512465704,-14.410940524912546,-10.638979497044723,-6.6588949431125535,-5.877352597664219,-16.028198770949288,-7.960350256545903,-8.149296624747187
1669898708.829682,1669898709.825283,17.74121403694153,18.736814975738525,4.0,60.390118723699345,0,-1.126081160824015,-0.25007317758129377,-6.541084075455208,-0.6051200633045732,-1.8927921775028214,-5.784983948866658,4.195862928209506,-5.488966687579567,-2.9204551142835915,3.442761196977008,-0.4429656281871436,-5.850260880502564,-1.7407302435213434,-1.5957807909070385,0.32726882336022134,1.781471367099262,-6.668816832725514,8.041694040769165,2.72528964849661,-4.565997669539562,1.6572705217125883,-8.793801117797205,-8.717101996559904,-1.8129297625052332,5.221868257049968,-5.324753845748392,-2.5953954415812253,8.684472824074449,-2.009859344437597,-2.1592371049571213,-3.236275546504272,4.109721454012044,-0.015110612344506336,-5.348049981117708,0.840723759940438,-8.334395219893514,-8.20062492167582,-0.9905737562923287,6.981759592868155,-4.538483209363862,3.6906898947372246,-0.5743499383987527,-10.113360419484854,-10.280740805035906,-12.307060916517397,-6.6680543126083744,-7.5101299637928784,-11.703093851052401,-9.5667727929013,-17.322454024423614,-13.48454224347542,-7.164535200493667,-5.894280766234527,-13.937412795928905,-9.323765443483715,-8.796627173715791
1669898709.079558,1669898710.075159,17.991089820861816,18.986690998077396,4.0,62.523275288736116,0,-2.0249573448007667,-0.046934513495747954,-9.163283870765515,-0.45585928381952023,1.0007578616253894,-5.0285237234717854,4.554948153989796,-7.320111453720224,-3.055459934071974,-0.3277267581908086,-0.6888000862538903,-4.936209668847199,-2.216350723748221,0.07303863770236203,0.3792595635282928,-0.850835661657961,-10.038565560054602,7.578217244892103,3.833547905209389,-5.036311256754551,2.5298941625594025,-6.245477452392318,-7.180080632771906,1.1669434210342255,1.7756740125155646,-4.568503068442906,-6.078939907910938,6.915067058314754,-1.8263635834952674,-1.7919769077947572,-3.375488830140689,3.9132965252289575,-2.193478833502743,-5.9648343267762804,1.1072225840959358,-7.306693712534386,-7.445201817722707,-2.640618669105594,1.5345720073388172,-4.602686015676934,2.287019694830396,1.4138575139509615,-12.599131137421033,-10.964410255128467,-12.115304049325903,-5.46145241527398,-9.894598885455071,-14.414366215817498,-8.10739029561398,-18.096163642568122,-13.642109451289217,-10.221881610070344,-8.426049325823723,-12.827231943290991,-7.530416487900569,-7.343666584053415
1669898709.329434,1669898710.325035,18.240965843200684,19.23656702041626,4.0,63.1008231486263,0,-1.8610383505365315,-1.8557958810148891,-6.196338545963168,-1.0179023454361897,0.7285952213050102,-6.873209502793966,-5.427553598081941,-2.680785115522605,-1.3218879321516752,0.36277636841259797,-2.4497512702489104,-3.674176529063175,-3.6652048125029815,2.4574822300909895,1.6263952124898908,-1.9938707791767918,-4.940863040181042,6.751718502018559,1.472361851929041,-3.3547719055557352,-5.994046007055975,-2.4977753103641773,-2.4232477291907966,1.323026441537623,0.5635785834723803,-3.925832301367431,-1.3894187605740416,6.272777714256048,-2.3410058056533387,-1.0561913629242046,-5.039023369958279,2.757869082769933,1.4439285652167877,-3.410460311979743,-2.3832735978196324,-4.202587205146839,-2.546883904259661,-2.712428757715395,-0.30235463766751225,-7.577570065881618,-3.6156260970521887,2.67475121874401,-12.564907088599071,-11.771784605896237,-14.74978373317355,-4.448846169763289,-12.09876529558629,-14.257284376517278,-9.946758694701552,-14.658255936281622,-13.178335120743707,-15.119320211095616,-9.716357835667914,-14.944642856029473,-9.584627255273414,-7.517787241744227
1669898709.579311,1669898710.574911,18.490842819213867,19.486443042755127,4.0,41.03236909531549,0,-3.4823734046156094,-4.832584411847834,-1.225879275180806,-3.825943713828429,0.3986099152875325,-9.114831831442809,-12.486244119220515,-2.1412823092422593,-3.358154213531755,1.1623036352495537,-2.344546779703374,-4.438761613829278,-1.7451519539849505,1.571401772394509,1.0976293825771197,-9.896840625250256,-3.214717957688526,5.485636787769565,3.6241947530403102,-2.703271201829529,-6.569532830116291,-2.33344831569163,-3.0000550247422857,-3.603262758375421,2.6070649978406046,-5.3563561865493,5.030491771493888,8.042256966553381,-1.153033367251342,-2.9067559904189757,-3.3566240781576138,4.192493124286284,1.0446565590643824,-4.5029163174023665,-8.475752775268951,-2.8263381816376967,-1.5139200135923516,-1.4643078974181707,3.5496962795969274,-6.635420229531591,-0.21634760315619309,3.4545853824278216,-10.279504995581165,-13.526066500931917,-18.211229655746536,-4.424972343538666,-8.398796353140602,-15.301936157835174,-16.271937221377893,-12.01335767233929,-12.979759535938875,-15.166185551408436,-8.387291043530794,-15.836524393870764,-8.733674870699486,-8.017236843194734
1669898709.829187,1669898710.824788,18.74071884155273,19.73632001876831,4.0,30.047517630350473,0,-4.37233682248705,-4.9468998046259856,0.7266723838282345,-2.050140643550418,1.6606737260139015,-9.761871438251303,-13.276707479095307,-4.402156449408633,1.4490884061503073,-0.5514948160801008,5.404068527826009,-4.038170822210548,-2.484876115637359,-2.2201585599629547,1.397385592295538,-0.5924751207290747,-2.8386611433434843,1.1249995250668006,4.8441942623233984,-5.099607606458797,-5.586036938949381,-7.087685250163068,-1.4394103330678376,0.909444965297105,4.953928919755777,-6.4631785182192765,2.59641134801553,7.534019350809088,-0.5165066234268835,-1.663148033299164,-2.8471516303548783,4.1252223795163045,-1.6309911456150696,-9.804120778225464,-10.88345899190858,-7.68643553982974,-4.570318822193912,-2.147335858336752,2.2891509749479546,-7.505974276832939,2.9908579305007854,1.9756814822414104,-9.493914547233121,-12.050784221819042,-12.972992207688158,-9.081909328566688,-10.483940065748614,-17.111987831619565,-20.599028558655228,-15.622521915697886,-14.114642218992465,-11.91645477914044,-10.349531831924804,-16.316888343605,-5.227292509271266,-8.016633132204564
1669898710.079063,1669898711.074664,18.9905948638916,19.986196041107178,4.0,32.39330393661049,0,-3.13017059534692,-4.649286455211594,-4.064199800398461,-4.657894504704892,1.3194135002193306,-7.289417990989144,-9.946068040198856,-6.810722581597938,1.5925361387730954,-2.4909015190013917,3.386499543759463,-5.140398266626242,-5.7434043737888,-3.3504663804213424,-0.2149380528301749,0.6889598231214827,-4.718715387324861,2.6187311280404013,1.5770995712693305,-9.244127428684628,-10.870858230060998,-5.660590520083345,-1.7596004517198158,2.0489499003290925,4.435211909212339,-2.1925733574787705,-0.9708941173395348,9.121965391845158,-3.0189791404178283,-1.0288418071721337,-5.174020761137905,7.297695447671946,-0.41575534007282416,-7.325331845853523,-7.718730343133512,-7.286664902425233,-5.106737794778214,-2.894168182000559,2.962212866368876,-7.767938993840056,3.117535010173353,-1.3070378969136762,-11.202572918685261,-9.758264727424521,-12.775143273654683,-8.341540552265252,-9.349623564311766,-13.077048319103044,-17.582724983220576,-15.730356604680644,-11.734401868962516,-8.887998643459056,-7.076595104090822,-16.681236336313553,-8.07725500046623,-9.561999655878916
1669898710.328939,1669898711.32454,19.24047088623047,20.236071825027462,4.0,34.09844663019853,0,-1.8392384394864547,-4.779981247472388,-5.263144767235088,-4.775919473583679,1.2672224484085612,-5.327794951465302,-5.780826926981659,-4.6724822250956315,-3.7182053225414795,2.773459200244102,-1.471017825816259,-6.383266706482715,-5.12538634851121,-2.6573519054376167,-0.4938653633787129,1.378738749475865,-4.344045987157986,3.000699867491074,1.42875570153265,-7.13465734579759,-12.054028636145935,-6.488916958362818,-3.9087462728126443,0.9271232713223596,1.9367726075641445,-1.41949856135588,3.5367834905346687,9.984401175235211,-1.8219795437767345,0.7972303833310445,-6.513720823300747,4.300864657493769,0.4364921818355247,-7.642981374659065,-8.037382747600347,-5.567298113828897,-5.548544771608363,-0.8977176673106204,1.0410734273297697,-3.2547361135585966,3.377861787110363,2.351880940227473,-10.62159283493547,-8.339190099855072,-13.904794928451945,-6.830377296421718,-7.5492687670643654,-14.782892987028509,-16.59987207109131,-14.223943929270577,-12.036618026226364,-10.248900449385543,-7.42307763947481,-13.547507892708644,-9.037584183284563,-8.830102643345406
1669898710.578816,1669898711.574416,19.49034786224365,20.485947847366333,4.0,29.067414927189585,0,-4.464430197074599,-5.024757698615778,-4.276046423223865,-0.7376736007414632,-0.398295039804557,-5.8100353017250095,-4.974164382671985,-3.044900102128886,-3.595384790872331,2.2732628090371927,-1.353168118697072,-5.607423624650917,-2.094507928602049,-3.58715667248358,1.2087167096247544,3.7952538905297573,-4.206157632943561,2.611403159731674,-0.16826366634216328,-2.38669147083302,-6.715530466552968,-7.043268456635032,-2.889807518715674,-3.9466932189134383,4.825935920251522,-3.7150458739353924,0.8963849521832996,6.743276126835749,1.2781752030697802,-0.8010352996235142,-5.541618612141322,4.36905843674121,2.431291441310783,-5.221776226012187,-7.7443991288276814,-7.130706291598305,-3.6006006295666855,-3.7434316286765243,1.4175640648407926,-4.062067616487162,2.0383215320003027,3.303320840086987,-8.98446569155926,-8.606441397364025,-14.108772516035364,-6.374461153410919,-12.328194150208656,-14.354140202680876,-15.13453517986128,-16.344978957284283,-11.525457381175631,-11.91767643031213,-9.76604308454051,-16.548500710050455,-8.605029211376495,-9.424769933162786
1669898710.828692,1669898711.824293,19.74022388458252,20.73582482337952,4.0,33.32843803181426,0,-1.6236278258431174,-1.159656269108826,-1.8738696108183095,0.6098823279860788,-0.34176164290409566,-4.338279623859865,-0.20161054563923572,-2.2210877030346694,-4.601551824298267,-1.7216821616195686,1.399600570950648,-4.837079963269531,-1.6230606744779963,-1.7818833157436575,1.2266921825344017,3.0424121092851526,-3.286967446979974,2.7114763867703324,1.3806582977651454,-3.796856926363997,-0.6245148835615695,-6.4748144300583235,-2.5482717720692163,1.9898037173611003,5.60394726398933,-6.547572778965255,-2.2918824142108245,8.534226609836667,-0.5809225479113794,3.7200543010854914,-5.921549951357727,5.454898399240896,0.8520061337045233,-1.1402332692981523,-2.615998079722584,-7.729974284380638,-1.4429663594613216,-4.990593774412978,1.8990279209762777,-8.438538735225581,-1.2950810070653858,2.596688695629685,-8.927764458208223,-6.530900107455251,-15.024129488927045,-5.671277500833297,-10.907424286258047,-8.927699373815482,-12.96449114905652,-15.202475415645791,-11.720861844294168,-9.803204162238625,-8.77987703029118,-17.632331332936918,-12.27575459674151,-7.001486666243788
1669898711.078568,1669898712.074169,19.990099906921387,20.985700845718384,4.0,29.479867878902866,0,0.7277079377662999,-1.5602283491524795,-4.733024627923969,0.7646168909053441,1.3703691321097244,-5.370647906287104,1.8588664273596334,-5.381018759449445,-7.229518771574696,-0.08487709319268096,-0.3372174596796065,-7.249475196711323,-4.105480117494302,-3.221040759540028,3.3451182830389703,2.4386039418345944,-5.634947597566788,5.24412325602975,4.086010264696296,-4.080417745690494,0.8658416612475955,-9.42924768612148,-2.3289444958426415,2.4698467136148814,4.95561471279152,-9.734724116016247,0.9430380146464012,10.098451822316061,-2.505325598995409,4.050254910445508,-9.7928402220994,2.2170901168989587,-0.14778735733144696,-1.937984025245583,-4.062874940169158,-7.005956181227079,-1.6120906547688165,-4.040395885562101,3.6499019415170846,-6.293776749319752,-1.8582008303729016,1.418065109775778,-10.973070730805148,-7.724472946206604,-17.13438806663006,-7.4821221138977325,-10.54076280080405,-10.791441252182167,-13.85917800498439,-15.69603614477311,-11.149920208969215,-9.206499114574394,-6.096121299642468,-16.318994137203813,-13.167711996709954,-6.389757224875581
1669898711.328444,1669898712.324045,20.23997592926025,21.23557686805725,4.0,26.51805901236535,0,-0.9523387795816327,-3.798335656955889,-6.437347515030265,0.12319354975863699,-1.102221557749882,-6.549952840661,-2.2359810119366648,-5.967501184503754,-4.883589831912157,-0.620717381875222,-1.3788061546528894,-12.890891018703133,-5.217720413058552,-6.182172334015861,3.3681059322864315,0.13230882254096896,-11.470111678424246,5.497583280728236,4.489196319459011,-5.546493181872202,-3.076418014317368,-10.368182265463307,-5.540166500766991,-4.486067320160089,2.2026393373880486,-6.876210459279857,0.8258321997815231,7.4880770529239085,-2.661385922373187,1.0096555374124416,-7.613045370684811,4.002335850097084,-2.0549514432596707,-6.089868073202085,-8.672784748623364,-6.2184046849259556,-2.305337830777435,-3.947067983411955,3.209032401802407,-3.1544771263741174,1.8376839577074229,0.6127233527810387,-13.81244717287441,-9.321388491341848,-16.628150132750598,-4.242909144911423,-11.345824158095805,-16.616385004567704,-17.21780830692197,-16.50740629579459,-12.158802029268653,-10.661320406006283,-6.238661123593915,-12.198727368851298,-12.56067695321683,-8.057287965223061
1669898711.578321,1669898712.573921,20.48985290527344,21.48545289039612,4.0,27.43831863525847,0,-2.8592803782056437,0.2716370812806501,-4.638161381522622,-3.5551599061272277,-3.881601436595611,-4.625203017660547,-2.928517263115893,-1.1802940078813264,-2.2620826223426334,-2.135827729915008,0.8985237741091828,-5.352204872409598,-2.778416819226779,-2.2891847921286224,-1.7930461839467104,1.599356186180524,-10.635535883468448,4.294175696788756,-2.508321302035382,-6.8960220303276625,-2.368976112958464,-11.051754523829358,-5.6682115636009875,-2.6064181725258573,3.7177539091847756,-7.798208417319064,-0.8072328339521693,5.042279999369347,-0.8017329981006309,3.8120667368495638,-7.000520254486489,6.889041383820389,-1.3929466964871098,-5.037883404339798,-8.359518304396572,-5.578940280696019,0.21946356151315574,-2.8432857601347807,1.4514333464935716,-4.400519494129219,-0.10855502616095448,3.0820833704548756,-11.435040635325311,-4.73310246580401,-18.577502782150233,0.4498732379219257,-9.797209027605021,-14.637656429930757,-16.633760599673945,-15.426052131333229,-11.65597763222756,-10.400649804226614,-8.87014937213436,-13.224582175823832,-12.250371377049644,-5.652850333280869
1669898711.828197,1669898712.823798,20.739728927612305,21.7353298664093,4.0,22.64675238112231,0,-3.010136471350975,0.6371577143152733,-4.724185074756791,-0.7921786692757355,-2.6130469528028035,-5.12442026700632,-8.141002875298293,-2.654168382025683,-1.618346409726458,-2.039465893769285,-2.2285119115918155,-3.014776686346634,-3.5175219301843614,-0.7604307039577062,-0.0944015425073415,1.7719916786240426,-5.986399072702605,2.05176275827523,3.088179530924859,-15.107692326412621,-5.9672218832061175,-5.351084638292253,-4.106849514640929,3.179685420695586,6.524213718940256,-6.642336730016968,-1.8037405998928824,4.538944599402315,0.12458636630898962,5.253911713084229,-9.260719307994329,6.252144759435464,0.6282114508321245,-7.141300192975417,-5.6386706665026685,-4.529885186652498,-0.4288453197041922,-5.0302084310456285,3.5647054311686603,-4.930894877627805,-0.38114314516129966,1.0144611780853672,-12.8036564709642,-3.7780368943586913,-18.494664090058382,-1.6568625732260243,-8.297494549312228,-13.11972810940359,-14.80001816029166,-15.716801880981295,-11.117038179065739,-10.078644535421844,-8.688789506921365,-14.219541979620221,-10.437635484176461,-6.876379153557215
1669898712.078073,1669898713.073674,20.98960494995117,21.98520588874817,4.0,25.549643256987867,0,-2.517534672284494,-0.9141034729073529,-0.12267402722991101,0.17667167111908738,-1.7002524755198491,-6.617003181324873,-8.511930975312248,-2.7411772800159993,-1.2757664428425959,-2.306352276528668,-2.250653916473258,-2.414495775407418,-3.0511414574127853,-3.3795608349810653,0.7696358122898941,1.3263654674630667,-2.8988194491397374,5.08421573951577,5.395866351536894,-8.684718706621599,-6.38002375617498,-3.7864794275066815,-1.6202089910567221,3.5145718772524948,3.5692675801824985,-3.6514469642400718,-3.6211206022730122,6.06938267401283,0.2649049904521702,5.245398619699209,-7.386790824307328,7.104148468125189,2.9023772734651736,-8.14778312609259,-3.1769578320904817,-3.6876228688077664,-2.9608949670682754,-4.822864462971859,5.441909764089488,-2.4293595631107525,0.8740401587058767,-0.14456299828397187,-13.387660817077759,-5.917310737042705,-14.269462959523816,-6.914121360274189,-6.457503860641424,-12.845805198425941,-13.583806624515532,-16.165597930167767,-12.267293523634681,-10.242660716932793,-7.012612348710232,-12.118639901982341,-7.658781966348645,-8.589640110244924
1669898712.327949,1669898713.32355,21.23948097229004,22.23508191108704,4.0,23.31494776365566,0,-0.7955787208833358,-0.07572692783344258,-0.8339846627282212,4.256598394891612,-0.730429841670297,-7.536522042070183,-6.927713112983746,-1.4258686287961866,-1.6570957481890431,0.7077991485266153,-2.649858963790916,-5.7581271211213805,0.09701250000378749,-4.652039304224339,0.07990897320007462,-1.4372269055248443,-3.831749233416306,7.703352892246268,4.252006693593234,-3.867816526446765,-3.611692630230631,-5.383920608218852,-1.1351474197482796,3.3365501343865396,3.199160321817112,-6.443295150710259,-0.4781630574751405,6.18608385209078,-0.09334260227767804,1.4023447050921611,-5.7551549157750825,5.561816005746079,1.567866292494144,-3.5939379892002465,-5.26681482669482,-5.5955713854989355,-7.903226248905954,-1.490264025210772,5.402573136052378,-4.937048440242295,-0.37880115396812375,-1.6133557145569977,-13.153626977344652,-7.236376826732654,-13.352792823212392,-6.589864748210351,-6.803124270824271,-11.80407833017851,-12.07922439670095,-14.417734689432319,-15.251400022419377,-10.068971947660907,-3.83263714635313,-15.27493620889066,-9.076670362118994,-9.900069042872804
1669898712.577826,1669898713.573426,21.489357948303223,22.484957933425903,4.0,20.821524433744834,0,1.398782982910591,0.6686135171144801,-4.757627641547967,5.464404737460137,-0.2810846171850968,-6.800638792080397,-3.9019775706783335,-3.531336195506094,-2.7213194744044467,0.5303011857726796,-4.734524080786061,-9.305854617316374,2.203472716399734,-4.78996654224335,-2.538920617371627,-2.9558548855531885,-9.281455057138599,3.5065678504414484,4.482972689014096,-3.645810523472523,-3.0274893724109138,-2.4420438416692503,-0.6953124805652434,3.7063253479598304,4.696336105877897,-7.6260432192015495,-1.0808821247625364,7.184847326733039,-2.846396903648803,-0.5944001154579908,-6.175376771090403,3.6819119021142113,0.33536420202816447,-0.6908249952264733,-8.1213183704671,-7.101953591249899,-4.376963835304191,0.5985998836553309,5.019182017456638,-6.290590809600014,2.4864860922814547,-2.1654379370213546,-12.03100557384644,-9.019342294890917,-14.456787622769387,-5.033611003202159,-9.140562042072855,-13.007537244942295,-13.536164480557499,-16.418002127336614,-14.710114949826183,-9.834505023311868,-4.926783646776943,-18.013568341575905,-12.386829452900951,-9.474216877700986
1669898712.827702,1669898713.823303,21.73923397064209,22.734834909439087,4.0,22.035214695225775,0,-0.561547726234593,-0.29332410842199375,-9.668813429891408,2.9150856511717658,-2.2489815247020766,-7.03677710942495,-0.08653029063788774,-8.877763872884099,-5.392717120290019,-0.6453789767789909,-2.146112058623642,-8.744091421286807,-2.303921911343731,-5.471528708825881,3.04655489500558,-3.0513993703513833,-13.395356830766563,0.034155972805899,2.985180956826593,-7.955939040287021,-2.2081754452202,-3.302419843335519,-2.0971634385334,3.2243873790557576,6.862555710453677,-5.656308873207969,-3.1419461692084756,10.229987603924824,-1.071214542483602,-1.2376634981311876,-8.01348515044715,5.356482680043965,-0.4652835286249005,0.22769002395838978,-6.347563880917905,-6.107058537376803,-3.917408941879862,-0.5908186272664886,2.3967846381477824,-4.713146554616463,2.5770897633894436,0.4447657062845675,-7.991860774434105,-11.021362290266811,-18.069939341035038,-8.922622322310135,-11.2392742084858,-11.12561967284741,-12.917584645386786,-16.536004844129724,-12.999064983229768,-9.230260682451926,-9.877391458442489,-17.9672610140933,-11.842882217051473,-7.98145499946499
1669898713.077578,1669898714.073179,21.98910999298096,22.984710931777958,4.0,22.499550748877837,0,-5.953240175564297,-1.1092258942502151,-8.07822640809385,-2.6608557870569767,-2.795853370998568,-3.981125250068176,-2.6402951325165396,-8.327358148799656,-5.61980533989272,-0.5657171025182637,-2.0584677880603497,-6.7828072135646025,-5.799494189620439,-5.688114705641103,4.946209370827411,1.3946462252546077,-5.499607617236251,7.363468065638075,4.882587073488035,-5.661373841252307,-6.398840926367477,-2.567973566840309,0.46699710252028814,1.81203096747308,5.102324228584896,-6.0299877430854885,-0.4512592059717902,8.073645750924689,-0.8665742274354569,1.3943468784039585,-6.8244733768543,7.063828988542218,-1.1888549914717579,-3.2490461562426223,-6.1730238936624335,-5.3729662252420765,-3.7603966467329957,-2.5681229747859873,-1.0787670984744477,-2.796976867340625,0.9186136738504891,2.137427276574318,-7.173034098153446,-8.950117049459303,-16.632974112164035,-8.226807107198415,-9.368353724169854,-11.565147539458334,-14.573590105422872,-18.656249076923416,-14.107612994145189,-11.549219682336282,-9.613221630299666,-17.95610599892547,-8.60935929041313,-9.115695464539144
1669898713.327454,1669898714.323055,22.238986015319824,23.23458695411682,4.0,22.885713475392237,0,-7.850583630581724,-1.0465976959521328,-7.30489985013164,-6.6920196712693585,-3.050550972805045,-5.296001179922473,1.921632842874197,-4.643706384949736,-4.8082159154897886,-1.6771431728685995,-2.729716685316839,-6.4630476751118895,-3.929309732243247,-4.5720368848007045,-0.8704249780923707,0.7409142993720362,-3.29255862144749,5.963848085028539,6.381219527973244,-4.261430147878993,-3.598274040363749,-5.160136278490719,-1.0292053862934005,4.439566881112647,2.033952800455796,-4.348620453515971,-2.8230950222163,8.5624772409832,-2.4432595117921396,1.9227011123516329,-4.655861302654146,6.317638051322142,1.3376452141589859,-5.271624216573034,-7.7220054116976025,-6.072816112893657,-3.266275822635935,-4.162148493008845,2.868845061967811,-3.093506565311384,0.4024065768334745,5.507067576841493,-10.266565744477612,-9.46455745846357,-15.646538685843659,-5.513916146176552,-7.962355609425876,-15.975848293274407,-17.64134475463317,-17.255408226527297,-12.760783216059409,-9.840466139986386,-8.139126904744735,-15.993480797780332,-8.463382302354614,-10.818261755545125
1669898713.577331,1669898714.572931,22.488862991333008,23.48446297645569,4.0,21.87257709889783,0,-4.9438626489687945,-0.8018544074957411,-6.742741362175173,-3.5039874270338327,-0.02039760330610043,-4.122657461963771,0.8268473327914321,-5.586729507352219,-3.1281153419454197,-1.5480142048183256,-0.27806473384397434,-5.0968803239525915,-1.6275800622347876,-3.1729379313865564,-0.8935982045008383,4.808678038779533,-6.477407960415567,3.5234787039448587,3.4342765484936653,-4.243488355864637,-0.7212427133952332,-6.235823168734398,-6.342613766814388,2.9636539643266717,3.3850801201160285,-3.8664454375915165,-4.5170958417659035,7.66800069064265,-1.717125172197869,2.0762297379167496,-4.168477753093245,4.229608997048427,2.190414032532571,-0.8911036583654082,-10.753052085948882,-9.508544706295934,-4.6216387788618025,-2.156600084682136,4.992744259816301,-6.755601558508323,0.32071763380879,5.621446638237456,-13.997115241187375,-7.016704724375938,-14.273799405353412,-5.735267321366786,-9.504640473182542,-15.692185775274234,-18.49631087567785,-16.88997345205742,-11.825078966601284,-8.05321472407207,-5.2037419978317985,-15.70346602434412,-8.80869796189647,-9.355502388262737
1669898713.827207,1669898714.822808,22.738739013671875,23.734339952468872,4.0,24.19559072596549,0,-5.089628254790815,-2.308174081421639,-4.062955493695023,-2.2944849048114415,-1.0308313460163605,-4.076244672790567,-6.7098221860769955,-6.400136882438789,-2.6103487114704524,-2.5568186836951368,-1.8487666930304147,-3.6518159669056667,-2.486226415644309,-2.0431045113781336,0.08181568883301989,3.799922145047155,-4.363779726112739,6.161458548999436,2.280688969820937,-0.932353280579651,-0.09217661990969117,-2.455060829755532,-4.632523364244835,2.8071513741041203,3.8101340234587417,-5.057410262651532,-3.469746113458277,8.50780210848119,-1.6018797073061688,4.086508307560859,-2.975719645626063,1.5148387837488606,2.4278813212486132,-1.6455813039326554,-8.824806825146924,-3.802842236561811,-2.307560108359928,-2.041438037148791,5.083963956794615,-12.419546457945842,1.0013861781960682,4.684529132864357,-12.426280575211821,-4.055778636815326,-12.466955971764126,-10.537848734925117,-11.959799463885684,-12.408237646238804,-16.531595039799978,-12.531268854821915,-13.201474066831185,-8.803332820596806,-3.217364294857121,-15.616133929502327,-5.750511400527958,-6.2922322065185945
1669898714.077083,1669898715.072684,22.988615036010746,23.98421597480774,4.0,25.36790326130479,0,-3.9081414527229894,-3.5817711162892363,-2.246081557277787,-2.6288216867973175,2.378397513639468,-2.3027458703885366,-6.793482863641619,-0.13943216202283745,-3.3667977414858474,1.924858507490591,-2.3599491470786,-2.642150982967166,-0.7953573704341703,-1.5209052773828091,-0.6840702668325707,0.18293176619688806,-2.5129677295490263,5.111317801181149,-0.6049644278602823,0.17497664817079786,-1.5024690268973715,0.8605410587442825,0.5750598613841266,-2.1535899636564273,2.8704227134429576,-2.7011849873893095,-2.861515639063055,8.694740833894123,-3.8198411328461885,3.163381060236547,-1.9950731720009152,5.555974672055176,4.008609929986561,-2.086070826739983,-4.851894725749112,-0.4154269683370592,-2.4050910733426867,-3.689495504743397,4.98733123834232,-6.34384934622447,0.5505064674118012,6.249319687964537,-13.169557286699163,-7.799812140135794,-9.986608752423091,-4.370630566832812,-10.233061705554285,-12.417576749822569,-12.215754425666464,-9.129691281401207,-14.184082559255511,-11.079688036981059,-3.368603810117288,-12.87168078811309,-7.944635404640495,-6.19544796957432
1669898714.326959,1669898715.32256,23.23849081993103,24.234091997146606,4.0,31.069552591265037,0,-2.3024467030715314,-0.16403696300523207,-2.0309159981601916,-0.6675132538369131,0.9002022600274939,-4.942272836815022,-6.598915060257539,-2.690346408514484,-2.1050225875896778,2.541399740166093,-1.2145143241035325,-4.915210623262142,-2.749979663283292,2.5715663945697287,-0.02179640548653203,2.707093170246402,-1.9452475382262517,4.558013937496916,1.691585587165608,-2.9810419163106223,-4.415915150698541,-1.181523319456425,-1.031818667249109,-0.630011365681653,4.921612311651957,-2.2017612807339173,-2.706834001202951,6.324183792106598,-7.827125634545547,2.2968021968686347,-2.617858745821473,7.620441156226425,3.2789772202042755,-2.6400152903346434,-5.290064424899059,-3.780319965651422,-5.80312760080991,-3.1208090303429072,0.7891181281605577,-2.670797865084154,1.0749056918007132,3.4445212043163425,-11.359716627358473,-8.349034771590592,-9.833939541493507,-4.622533127350455,-7.949490839612485,-12.607534781081743,-12.853246589728336,-11.541210833921816,-15.052293579898777,-12.1498258698564,-8.470785849369534,-13.563605998553289,-9.017701040266047,-2.8412976379520964
1669898714.576836,1669898715.572436,23.488368034362797,24.483968019485477,4.0,32.59272593613938,0,-3.360702718593054,-0.8701595565839298,-1.5279325826133825,5.290577114781694,0.9287836084844193,-8.661088658371506,1.2647968914612904,-5.189082261227852,-2.7085726124780867,2.0873122451543686,-2.6904968461150713,-9.759399293110242,-5.522904359558427,4.9907464644211865,-0.7009853327435557,2.7957858832329596,-2.1481688850415597,5.73915247588941,2.163924956364066,-4.397415893382377,-3.8819326065357416,-6.482729456832427,-5.415932828569869,0.41485265094850116,3.4155477919275623,-4.487042584492382,0.44068817264564386,3.9726146871100845,-3.8501437035822006,-0.8161791909297139,-4.99519543820207,4.585724304450763,-0.8815330924373387,-1.1415598831287534,-3.1397043338146795,-7.742709544603953,-6.252400230223605,-2.350339764893831,1.722310489476566,-3.6380719249424684,-3.3131722135128863,3.670343202530394,-9.191712184093777,-9.342063758653456,-13.03964509746069,-5.5070877697265175,-11.271923695688796,-13.366010774666101,-13.027863135599137,-16.60062372494711,-15.510645647953474,-12.46589921242717,-11.925209362324473,-15.985587923573854,-12.741392531262466,-2.7120068743457306
1669898714.826712,1669898715.822313,23.73824381828308,24.733844995498657,4.0,32.947084806375166,0,-2.3848935417918913,-4.533391234335797,-6.458360573187641,2.8439135118198386,1.8045923299985698,-9.841775634609997,5.086099257896619,-3.1694083152454122,-1.3806836212867089,1.1842837942427111,-5.782011818445369,-6.693957280330346,-1.1946403560462784,4.889193827217966,-3.008502637092674,4.159751913245006,-3.4755641782997966,5.983354150192328,2.5822397285663934,-3.8699928103314885,1.555904419293018,-9.887384693591343,-4.7298983394362315,-5.181024634001212,4.549855985496625,-5.746482245488448,2.8643847485617524,0.2369888349495045,-3.094531573598576,-1.4666956298460443,-4.793269157603801,5.095276595143398,-5.249705944193176,-3.381494849940423,-0.44127209164171516,-4.6593323352051845,-5.353720556617181,-2.9354979162409456,1.4182326037901172,-5.9749115635890355,-4.7056966020928055,2.802237727830887,-9.29086165068469,-11.092233798036354,-14.849161693106499,-5.980630832425789,-16.675365613191254,-15.237217657904278,-9.852826201978669,-14.539550394758985,-12.918445602707225,-11.763060335967662,-11.774157814184505,-13.493173383067331,-11.21873140486041,-4.976711170759398
1669898715.076588,1669898716.072189,23.98811984062195,24.983721017837524,4.0,29.496414438793863,0,-1.2050781272200697,-3.478286170102345,-3.3362583064041926,-2.3488221849140074,-1.1426954263303237,-6.828601471807367,-0.2513553968782625,-5.458485482994401,-2.142638840567345,1.412702977073971,-0.9069920225932115,-3.279688018714123,1.9101701627327823,3.8250807953069463,-2.5506687522232108,5.486742962548897,-3.168173946696475,8.053756025314424,2.7296391742549435,-2.1132342872588454,-0.3348956963095152,-5.985379326973193,-4.378944651184371,0.2258507061447633,7.029291712642375,-7.817690320174634,0.8356320098153074,3.873847941843728,-3.1943213889619813,1.0911857078257399,-5.941716099460798,4.466133076080857,-1.3158471038827344,-6.289957991791964,-3.5844412599444393,-2.9555985799337825,-5.282268937156186,-0.8214800879699979,0.9419216692639908,-8.309479231733938,-0.267091139718547,-0.9876567857721021,-9.851496993953187,-7.28249127769155,-15.503359367153799,-5.514459412280286,-11.861196518209837,-16.107639287606407,-12.002378583916371,-14.44122373391884,-13.03521542627835,-10.004319932490027,-8.930792248437907,-13.81906054095155,-11.373801051303097,-8.442084800864716
1669898715.326465,1669898716.322065,24.23799681663513,25.23359704017639,4.0,27.5996890308385,0,-1.7499231985498693,-0.6672664749643854,-4.846861285026568,-2.305987801531696,0.06217288497308578,-6.734698644209347,-5.215648189015201,-6.893565150294345,-1.4714408139303972,-0.4335440566101286,1.3701339605047917,-2.531160521285918,-2.3757872756680376,3.5727814544320124,0.8253362453906445,0.5300509510301605,-4.018751996254747,7.894530788282642,1.7278111909289449,-2.6047431826251732,-1.9348328712599627,-3.806262096741712,-2.30432829454785,2.6052874504156645,5.277061555034969,-5.215874323014975,-3.427348951831179,6.073245017805933,-2.7133550721777007,2.7840903836510593,-7.165192779868055,3.596459267007151,-0.9524457587227624,-4.752557975075864,-6.504372135661647,-4.113898681424625,-1.5697250129860032,-2.392709960315452,0.8014780432625861,-5.545115464958602,2.8033202927214456,-1.7688815013546544,-9.829473502845765,-4.407070761029438,-15.75181233694947,-5.035761441060858,-11.25015595219203,-15.237638852528143,-15.074629385333028,-17.15610730715374,-16.25652136053952,-12.633575262760415,-5.47493296247906,-13.362474963568749,-10.34218003473151,-10.450942394208973
1669898715.576341,1669898716.571942,24.487872838974,25.48347401618957,4.0,25.198458430192137,0,-0.6643413844230212,1.2106804085269067,-6.819201061584403,2.7561232330244128,-1.7571893988181895,-4.179429772188217,-3.152956576516501,-3.43794005241513,-1.4047557140855744,-3.0324369271579994,-2.9708658377648733,-6.838940015865623,-0.13321847220016325,3.106677225634973,-0.1700351338071978,0.38533761698646113,-5.2805598683148816,5.456780213611312,2.2218453295806526,-2.2458017575707583,-1.5673611160962577,-10.188015578822194,-2.538575762561722,-0.04271005386908228,5.865719267423982,-6.361084558241168,-1.1695278208410071,1.0197429234515927,-2.7918140903554294,5.34089227806036,-9.839499494622693,5.679384779974001,-4.513864344486383,-2.267095415233513,-4.340499611957322,-6.478946575377302,-3.610837415095753,-1.2227466094233845,1.7001075557888004,-4.9505262373785754,1.5919723986827825,-0.7039065009567426,-11.989447795671584,-3.5651166334403284,-16.278454101502646,-4.7143069951116265,-13.432525020609154,-15.19038785163447,-12.762990196814235,-14.195077056519331,-13.861128697235163,-12.89357549179398,-5.824495184643971,-13.075482521681042,-8.098807776719681,-9.388296640404512
1669898715.826217,1669898716.821818,24.737748861312863,25.73335003852844,4.0,26.42625348072893,0,-1.2545308347254027,0.7945493720211179,-8.118459260439527,3.419128307072107,-1.3116437814092121,-6.20174841959443,-4.66522203184487,-5.632227591573878,-6.116324640110733,-0.7250581143581167,0.19118018757806488,-4.504593428328768,-0.6236045263199776,-0.10891719325622623,-3.926249423021707,5.40221309183508,-9.06282384056927,6.3968513985941255,4.449436143140984,-3.2305160409840292,-5.031916573550493,-15.813699980750876,-5.075209448776137,-3.800677809841313,4.231708658226443,-8.851689942934959,0.48339173527789076,2.041979669661006,-4.088659643341387,3.541829764170786,-8.99029684783623,5.522817216265926,-1.0354632943511344,-3.1051679525255182,-6.034761647652809,-6.786119508022226,-2.921026408693291,-0.10271868564615914,3.456400380830567,-7.3841269892287364,-0.7779805222373742,-3.8570233749807987,-10.704492848200527,-5.550693802945609,-14.88002982953168,-6.575950047233325,-10.876785085772378,-12.162766680285774,-14.957157023436698,-15.09182608249077,-14.424738163445586,-10.559715157187908,-9.244435996718236,-15.707300250684773,-9.40691631438192,-6.200075181072576
1669898716.076093,1669898717.071694,24.987624883651733,25.98322582244873,4.0,23.010568041416438,0,-3.873537196815512,1.1874518347854928,-6.045319894742006,2.999632553468061,-1.6911449774746705,-7.775124248041193,-9.360857653097147,-6.187672573646803,-4.452126694322698,0.6462140062639536,0.41013937922676463,-5.359411290341447,-1.1569155501898485,1.7204649565402224,-2.162124244683562,5.157633262054492,-5.7476622780782,7.6618416659516155,2.1707002517191754,-4.198818434203201,-7.965313255170329,-8.978506085734333,-6.359170110647766,-2.255183158433751,2.569939477983667,-6.285415508164273,1.3446807206646945,6.750702203133096,-3.1863775289186735,1.6814360718672665,-9.672920565915913,2.9933091023532388,-1.8522197133547236,-3.554867894947648,-6.587668431067467,-4.8096661473559585,-3.4962077238990137,1.1989640671790718,1.9604572016140742,-7.636373121707514,-1.2952751827774627,-3.1280796460365257,-9.328752329193412,-5.34042128564642,-15.997342036001108,-7.201341335237046,-10.252118468980665,-11.847755063675958,-16.305868713124962,-16.881447633107225,-15.673860960330405,-11.718418070074133,-11.770712327736923,-15.974154121376259,-10.682387275529921,-8.762027593251773
