stamp_i__desc,stamp_f__desc,latency_i__desc,latency_f__desc,minimum_cq__desc,maximum_rms__desc,data_fixed__desc,eeg.af3_8_12Hz__feat,eeg.f7_8_12Hz__feat,eeg.f3_8_12Hz__feat,eeg.fc5_8_12Hz__feat,eeg.t7_8_12Hz__feat,eeg.p7_8_12Hz__feat,eeg.o1_8_12Hz__feat,eeg.o2_8_12Hz__feat,eeg.p8_8_12Hz__feat,eeg.t8_8_12Hz__feat,eeg.fc6_8_12Hz__feat,eeg.f4_8_12Hz__feat,eeg.f8_8_12Hz__feat,eeg.af4_8_12Hz__feat,eeg.af3_12_15Hz__feat,eeg.f7_12_15Hz__feat,eeg.f3_12_15Hz__feat,eeg.fc5_12_15Hz__feat,eeg.t7_12_15Hz__feat,eeg.p7_12_15Hz__feat,eeg.o1_12_15Hz__feat,eeg.o2_12_15Hz__feat,eeg.p8_12_15Hz__feat,eeg.t8_12_15Hz__feat,eeg.fc6_12_15Hz__feat,eeg.f4_12_15Hz__feat,eeg.f8_12_15Hz__feat,eeg.af4_12_15Hz__feat,eeg.af3_15_20Hz__feat,eeg.f7_15_20Hz__feat,eeg.f3_15_20Hz__feat,eeg.fc5_15_20Hz__feat,eeg.t7_15_20Hz__feat,eeg.p7_15_20Hz__feat,eeg.o1_15_20Hz__feat,eeg.o2_15_20Hz__feat,eeg.p8_15_20Hz__feat,eeg.t8_15_20Hz__feat,eeg.fc6_15_20Hz__feat,eeg.f4_15_20Hz__feat,eeg.f8_15_20Hz__feat,eeg.af4_15_20Hz__feat,eeg.af3_18_40Hz__feat,eeg.f7_18_40Hz__feat,eeg.f3_18_40Hz__feat,eeg.fc5_18_40Hz__feat,eeg.t7_18_40Hz__feat,eeg.p7_18_40Hz__feat,eeg.o1_18_40Hz__feat,eeg.o2_18_40Hz__feat,eeg.p8_18_40Hz__feat,eeg.t8_18_40Hz__feat,eeg.fc6_18_40Hz__feat,eeg.f4_18_40Hz__feat,eeg.f8_18_40Hz__feat,eeg.af4_18_40Hz__feat
1669969940.657252,1669969941.652854,0.0,0.9956018924713136,4.0,36.39625806577635,0,-5.971766511900035,6.145165102331998,-8.876945353891976,-0.8254767856918005,-6.335235896512118,-5.396602214922947,-2.090281578768545,-6.508371182001888,-6.4418368718287935,-8.544774581551536,-4.056431902850022,-10.876256248977116,1.9583839006810821,-6.563110177462263,-0.23412543377758982,5.64692376758193,-11.441231092416942,-1.0859582102039944,-3.995267840780165,-2.097207386283286,-3.6208102710364667,-7.18251850857908,-5.931382380806486,-4.750699945073831,-6.534952183774011,-8.774542386464436,3.0484337143761424,-6.007695022532471,-2.007958083393537,7.011348644837585,-8.475255150482155,1.6270625209919751,-2.953897541177178,-4.482947265408072,-4.824158143689728,-4.2314707266841305,-6.678235745281983,-8.229334977338011,-1.5211551404833255,-8.791857266365973,3.759691068396773,-5.031225749542374,-12.237714465064569,-1.9717007731719431,-16.665519835870104,-9.010044668220855,-11.394645071172453,-14.546783215438374,-12.97552278788499,-11.378797392526923,-11.878366186607405,-14.931922649624852,-9.21479023081693,-16.64104886575933,-4.733031695027318,-12.21800871159584
1669969940.907129,1669969941.902731,0.2498769760131836,1.245478868484497,4.0,32.6697242557736,0,-4.349608226724631,7.979485197674543,-9.308719132509651,1.2710023650401172,-3.431276491606252,-6.09813521402198,-0.8022395939593749,-2.870685186608895,-0.22242116768498268,-3.09149875048939,-3.1104375961568644,-9.772959152598844,3.286078427070152,-5.3073464813321785,4.228009296653075,9.856702606142136,-8.404506236757172,0.15649062126734145,-1.7130002106587994,-1.8019079728695153,-6.449916596030954,-6.502702474358331,-4.5569924623068845,-3.3590760419905603,-2.98883580404104,-10.690588902437927,7.637228197667102,-2.9251285627577746,0.42062866557752576,8.757820100069008,-10.969876249725523,4.1069114711377495,-4.113860025087269,-6.778374747910463,-4.020774539643316,-3.259081774860248,-4.481263160100278,-6.1787779311489475,1.119666223298901,-8.748245764530568,6.1169778276346145,-2.8732908546363944,-11.029597565491942,-0.8434508393305186,-14.855002624654471,-7.105172741815661,-12.061793106180215,-13.476773183766952,-13.990959736221175,-10.234041840893315,-11.336997883875437,-12.217509834858188,-6.606888319041828,-14.258356950771752,-0.4614239974592489,-9.133362468232471
1669969941.157006,1669969942.152608,0.4997539520263672,1.4953558444976809,4.0,32.73360524723728,0,-1.7033220205213142,6.7888170309809155,-5.101504649714955,2.596736634711256,-4.739925293217972,-6.270052797120598,-5.01279753661608,-3.9088980043503145,-1.015009515673406,-3.5483431199594917,-5.995475585411548,-7.057985394658769,3.553843397145453,-5.6060720444713885,0.8487902661895623,10.72420639395183,-10.218995923862346,-0.04554367899880013,-2.710696519036156,-3.8370992610244685,-6.843892633735066,-8.244138988483742,-6.0486666776434035,-6.680188116470571,-1.8421376659184312,-8.566816624653276,4.0703420539658035,-5.562841837492771,1.459764064111243,9.863531733998679,-9.019205006142226,2.122618693637019,-4.374045237916434,-4.577922167786353,-5.789339838645854,-4.211790619128259,-3.7373225842339948,-3.693576913332674,0.0986545261490094,-9.969572020394445,8.65815375474557,-2.776713507879076,-9.609277974711407,0.9908982078354599,-14.890980626541378,-6.29045220950129,-11.258444183921553,-12.10634506379847,-13.145760907299923,-14.331444318501951,-14.744592621137201,-14.966802126372286,-7.5273610546045555,-16.75313500370627,-1.2591195289460417,-11.157375129980203
1669969941.406882,1669969942.402484,0.7496299743652344,1.745231866836548,4.0,31.708045670340645,0,-1.901902555317931,7.183566412581184,-3.794667549222427,7.105935374667607,-9.079172926936248,-2.135888490841314,-6.596032030528097,-5.9034463967387545,-4.402979445422424,-6.478117105829937,-7.039448115971335,-7.811776289591492,6.076884309619075,-6.300625680973675,1.2136377336867372,12.344180005699567,-8.677593932256466,2.0434190338511766,-5.039729608431294,-4.57831647248259,-5.909917366334509,-5.477481521495076,-3.4841446231215296,-9.215245659256968,-5.1082736461686595,-7.531342422836769,2.3592432451757213,-3.9787475056835064,2.9374310579692904,12.48645108932669,-10.447417468759227,4.165449056059954,-1.6947035773092232,-1.757193380511001,-2.583109226189805,-3.7753161724435365,-3.907378986694174,-3.9666986987040023,-2.680982808772198,-8.591732807781742,8.018475894720101,0.7477546960616397,-7.951236687716791,2.3593612494325935,-17.284063796277586,-4.453415734893569,-11.721600383382398,-14.70206015549062,-10.604755759229132,-12.126919535811398,-12.710940373787514,-13.415785206703056,-10.493645654502416,-16.397545650784945,-1.6006907954348004,-10.144389206601668
1669969941.656759,1669969942.652361,0.999506950378418,1.9951088428497317,4.0,24.674996166285062,0,-5.791918898306969,4.969251618536766,-8.796613913613994,4.727836859382962,-6.42636146087972,-1.8187988268333273,-10.921754136242503,-7.653754069665784,-4.303824546817755,-5.611235691054687,-3.2772127935966284,-8.818478188557298,3.25494951175157,-3.5565039498731683,-1.4085017770859776,5.5970351425576945,-11.072128283290557,-1.1916540851726443,-10.070210959288456,-6.8522982148259075,-3.5095177589217332,-2.863006787206502,-3.5259636190172094,-9.956819385956328,-7.047152194385513,-9.99507895006219,3.7344575342088038,-4.933414080658045,-2.7785363736292985,9.428617876918448,-8.783562552002952,2.0358245103049475,-3.4282024988507716,-5.220253346467195,-4.854136090232781,-2.75064049164897,-5.7483596215254105,-5.463521231751825,-2.945006455524108,-9.320065912595856,4.328299616555353,-2.3448350924313237,-10.255175396155206,-1.4632684142172465,-15.824052539069577,-7.060979593806448,-14.060692084269448,-17.446400415897962,-13.352647483738796,-10.891248481095655,-13.97148473274785,-15.367054050918668,-11.820063171708629,-15.809699177620464,-4.68664696318411,-12.784382571189116
1669969941.906635,1669969942.902237,1.2493829727172852,2.244984865188598,4.0,17.72324781096822,0,-6.6333205168857425,6.6712964033546935,-11.535295121170266,0.8314354948503522,-4.008843398723051,-6.37524981548884,-9.202576415789771,-6.475778152269975,-6.353330644851242,-10.91892600175507,-0.5117648407208168,-8.337289281233096,1.7864010710164884,-4.6009630363565766,-6.943925527133694,0.6924764356137265,-14.603842286536468,-2.2210379581390844,-5.858050790729362,-14.939704693831608,-4.624853618432229,-5.300220266504415,-3.830072179833095,-7.832896662919975,-3.718394898002286,-12.360544416099334,1.8978411657549066,-3.973583219655345,-5.6921926961383775,5.082602850109426,-7.061393827794986,-0.3826979725763094,-2.141039088390371,-8.216849219079347,-6.548453734211186,-4.168803662041411,-3.665666077915495,-4.672765586257538,-4.064814004791994,-12.023799312406105,0.8691317676556514,-7.317054638293672,-11.825518648285069,-4.257425652698182,-15.294711902529347,-9.70674294626675,-12.975504430983602,-16.858331886540388,-11.336717448516234,-12.12828946790588,-14.428178003256916,-13.061597301057738,-10.399823694995202,-18.31307773651726,-8.589441411175667,-13.924423053903398
1669969942.156512,1669969943.152114,1.4992599487304688,2.4948618412017822,4.0,17.373412885594508,0,-4.759507880866412,5.330747994007523,-8.542067000206616,-0.10176224039672696,-2.1795607799771317,-6.716028017814083,-7.989208713268838,-5.220091732146548,-6.475681245596312,-12.70840681929381,-2.8335986469680385,-9.172298506541082,2.51439347039467,-7.4266738552820835,-7.745650519164946,-0.6648225290614479,-12.033817284651713,-3.2604312902338433,-4.444898668107968,-12.158385645757154,-5.260891291629419,-5.570570833826485,-6.54739585920789,-6.182197457042178,-2.3734178389964544,-12.785646671231593,1.7998064364173665,-4.102155618590372,-3.8197585015426148,3.44224129854273,-8.96649845217287,-2.6273468586203625,-2.514437146818365,-5.258687684521797,-5.269933889657542,-4.516224097243236,-5.267783743242723,-6.9205767192611125,-5.86915166025819,-10.094304462261693,1.0318308242660486,-8.375706727174551,-10.928716571809494,-5.366106394733952,-18.392493314016054,-11.87046376918067,-12.45713126110551,-15.085178010578197,-11.104161491877276,-12.649507722764193,-14.729763016528532,-14.037533379027954,-13.813232259712567,-19.738606030427835,-5.150109471771451,-13.679160672149617
1669969942.406388,1669969943.40199,1.749135971069336,2.7447378635406494,4.0,20.071403944220524,0,-5.023748257614664,0.9023548929723817,-7.848143227217479,-3.74685286282541,-2.2267317831276205,-1.384842445434519,-6.501379493463297,-9.025198329208367,-9.308529131744612,-7.64253983558961,-3.0187263897382492,-10.807907799880885,0.5257362048973863,-3.750474484160388,-7.348108005469277,-2.7579850621367057,-7.5195232269618,-0.24000570557517453,-7.0654151645023155,-12.04956419064084,-8.101422066860689,-7.334096179537697,-10.890615719995916,-8.135492450048886,-2.3910222432711112,-12.689741190100925,1.1188144513267593,-6.128864733219169,-5.067594843105749,3.796397208289541,-9.907277276295597,-5.6432450459023915,-6.588077520955212,-2.3421242379938634,-5.983446270204924,-8.369544643004094,-9.120091145430129,-10.041273882893847,-5.028586875510491,-7.6072604702243884,3.8969380543510894,-8.115863221989521,-12.592543732200918,-5.747195703889384,-19.788630499681346,-13.763558641591054,-15.283710526174865,-15.44656265998924,-12.798282582593911,-18.007462422097753,-17.33309585594492,-15.675146969906109,-15.91647336544616,-19.540179066211955,-2.3846117233420276,-15.461394639368418
1669969942.656265,1669969943.651867,1.9990129470825195,2.994614839553833,4.0,26.374879324336455,0,-5.855529976325217,5.648870288853894,-10.10062540327816,-1.057393827893121,-3.421866629743753,-2.045441771716088,-5.9067481019373735,-13.403690237397331,-6.514247563274585,-5.9498138026439396,-3.646315464764789,-10.643622572132802,2.346296194375666,-5.608350114334116,-9.331220311887058,-0.0572133888877653,-7.524792784730055,-2.1417087544033295,-9.31187949030032,-10.359434456663138,-6.770433417607733,-10.321459516524857,-8.004787929189453,-5.504267889786613,-3.042676087786302,-12.704741014200064,2.476810842437659,-8.981333968971615,-6.826302940881005,4.919026210778633,-10.430927633238532,-2.8350530422956384,-6.021802396430827,-6.815614189808517,-6.49340640704036,-4.817604835580252,-6.0174594954497485,-5.801261579781797,-6.110416856772135,-7.574735697921133,1.5918077944009614,-9.700375473249498,-13.767179615981586,-2.78878264605428,-19.390796662255582,-11.454158902879247,-17.810624841816317,-18.76006209254922,-13.936906816312893,-14.814339438903945,-16.686472652225092,-14.080264482156021,-15.417759176090966,-16.505820503220917,-5.887945941317708,-15.551552791398482
1669969942.906141,1669969943.901743,2.2488889694213867,3.2444908618927,4.0,28.580562951473873,0,-4.457057392006522,6.389921870833798,-16.005709114220508,-1.5157422127723716,-5.2463289281940035,-7.552925635524956,-5.7532555933403025,-7.549381794850185,-1.3764836091007595,-2.8360579652570554,-2.720920195079948,-12.646069269309145,2.0038746755969856,-7.257340534496166,-4.413420488857687,1.4520333194756099,-10.532192565953437,-3.7170392153289455,-5.525268313395988,-7.776086017908703,-6.008756333487267,-3.2799644443895497,-2.0050767542677796,-3.492691078575338,-5.461353749511707,-13.4748663520894,0.33501913094974295,-7.315365932310749,-2.951143633813775,4.711864164475934,-11.076376654401585,-0.9819438552820293,-7.483863278289791,-11.61932047881175,-6.929588826901569,-2.0655861928994588,-2.8838747110483256,-1.3525821781190372,-1.1873003905267603,-8.65630460095918,4.002095172644614,-8.191781149678109,-15.204933452369653,-4.005173884043646,-17.85119240696154,-12.4090366535817,-17.47921324754365,-18.4484794397909,-14.790803692813213,-10.716458597865744,-13.894390229258875,-14.024287973755893,-12.220955563566406,-16.9939735312625,-6.635990740630935,-16.69767678852351
1669969943.156018,1669969944.15162,2.4987659454345703,3.494367837905884,4.0,29.305342430546332,0,-3.4506184240338023,4.8511697392269575,-12.938886215378574,-2.0463204243142146,-2.956751105352825,-4.554634662285632,-3.5609886357367797,-4.665367983548063,-1.973076592273304,-1.4382414020178436,-1.052682137792189,-8.117590207163092,2.125795623799717,-4.60428806245658,-1.977559723543767,1.8644385842596658,-12.539248611192367,-1.7431952994575515,-4.84898315246734,-4.979611968017564,-7.224869598574683,-1.9663000230256529,-4.170750482080923,-4.481934084083726,0.01376173103190944,-6.05358642146229,2.676987377162771,-1.159618010199139,-2.6524170372368343,5.255793405770886,-10.548070251022132,0.42874021320273625,-4.244873691872947,-8.36707393086478,-6.349556810075664,-1.563164723492878,-4.136523528083488,0.2409280845817929,1.165315881409404,-9.46558385467979,7.563370517259775,-6.255048536827818,-13.17418672635818,-6.71333870775857,-17.406244528881512,-11.430920505884178,-15.829036259120834,-16.60569281950912,-14.845567531475286,-9.686973561807251,-14.672148627241688,-11.378769272044071,-12.34930933414864,-17.878627615450966,-4.040566407005686,-14.427663549514067
1669969943.405895,1669969944.401497,2.748642921447754,3.7442448139190674,4.0,30.921544258393613,0,-1.5811547291411479,5.8807044041000776,-9.087071167310455,-0.539634318846398,-1.5425051999207018,-0.6820161252649947,-2.069530361401632,-2.698108494404045,-3.4333994197396467,-3.9569672958134405,2.291723492622433,-5.665375699651225,2.7504031609487334,-5.19071078820064,-3.3358497674233183,6.717176072643251,-12.559544967559834,0.4289228176652976,-4.142760713537378,-9.076753906977128,-6.724721385090511,-2.6339569164279952,-4.46322769918205,-5.713905174078985,0.055465563087514276,-5.0660440965973255,2.7859315193459215,-1.4427115145525793,-3.4011287497111624,9.235626492445547,-10.577714982127128,0.8383647007240598,-3.0508757712918455,-5.391156912273493,-9.358492770695259,-2.992948343432769,-6.4356756777076205,-2.370165711048482,0.47321169296562665,-8.987891216885199,6.490594519071884,-3.089794351046592,-11.283948776910062,-0.5354762645285247,-16.86922503982988,-7.822904819825438,-13.374463914024528,-15.734611670600401,-14.774454667913986,-11.345807668346195,-13.301456167430901,-9.924207020715741,-14.422686231305786,-17.958173325496524,-1.7922869631342797,-11.698026078908859
1669969943.655771,1669969944.651373,2.998518943786621,3.994120836257935,4.0,28.267691720852763,0,-1.0070708676651443,4.595278079288128,-7.306716704602757,-1.5162851680450717,-0.44734241647638623,-2.118276114771101,-2.274860231695356,-6.384915556347002,-6.02066791478527,-5.45717666532613,-0.9058221050369573,-5.433155610077026,3.83396567019847,-6.270127519339301,-4.539985925345087,7.605761664742959,-8.098646069907637,2.144461674513956,-4.1171878552153425,-10.317181632552776,-8.279280498998897,-3.604242437123914,-0.1466452239709844,-1.2026483556628036,0.6280609067547444,-10.111765490566158,5.681343013328382,-6.270499589648844,-4.100748347552033,10.740124481101532,-8.221956243576557,4.1809306504422015,-3.7871522468109413,-4.494362797250532,-5.029232447869143,-5.772135565030321,-3.1998231294641815,-2.7614894978705125,-3.6977832041011514,-9.096498886079646,7.118114037049167,-4.53391965039437,-10.864213785684758,0.7285857429670579,-16.247109378798086,-5.696853975353845,-11.369430730866952,-12.688205327418556,-12.266081257788597,-13.770921397927065,-11.661749752039887,-10.457973246657442,-10.5999972889059,-15.04763655018431,-2.7830745066974805,-12.020587947187204
1669969943.905648,1669969944.90125,3.2483959197998047,4.243997812271118,4.0,26.754121997010675,0,-1.5905585063800556,4.719465515239907,-9.165788366094368,-3.7822065683488364,-3.2851489811626307,-10.384632687039222,-4.9374337644394375,-7.960978538520105,-7.3980239892272115,-4.4939098653268035,-4.00269132690502,-6.71804566998502,6.425800875471067,-6.527080515130041,0.3499566556254773,3.562654921602611,-6.720232759009398,2.928768762161666,-4.515607265084927,-4.238176938589354,-1.6865304351815011,-0.6396455876375664,0.9383766247399744,-0.4822079701223334,-2.151568410291884,-6.6164042766495985,9.757567280341474,-3.1300869417855304,-3.509902588293243,6.43688395986199,-6.98024596481427,1.2099555471131076,-4.207596718599368,-3.3466509104953417,-2.395581262595564,-6.136491870461316,-1.546136368842528,-2.6005723066595325,0.10178848275467975,-10.613633020436588,4.715182744300749,-6.357760876239931,-8.312462902819151,-6.338184983331051,-17.066619582621602,-9.927070395913745,-9.675448251423752,-13.369993083751421,-11.176982945122717,-13.05829421288692,-9.657602963190667,-8.43928879562004,-9.6522640018676,-16.678408495436063,-1.6830459393364137,-11.330486979254488
1669969944.155524,1669969945.151126,3.498271942138672,4.493873834609985,4.0,29.18764315631978,0,-4.866289084424781,5.606453537991007,-7.169603527121064,-3.093508429550566,-4.627342291305384,-13.319858825843676,-6.512153220919014,-9.264408489656205,-6.755015729919791,-6.3110935134733275,-3.5690806584876658,-8.202672358007588,5.436401215189798,-5.545848633177075,-1.5990607066811526,1.336847292005963,-10.96840564678386,0.6208594423707219,-3.403064943403668,-4.7346733082916215,-3.7834056830285374,-3.055797054087122,-4.248578788904161,-3.3533167889838373,-3.2759857712432328,-7.471003909544274,7.819917741438926,-5.623977387662911,-7.119117308288915,5.5307381496800865,-6.325587305916589,-0.12762976821952185,-4.059223618173964,-5.9851676558631075,-3.540203994173305,-8.009926312754978,-5.742070801934816,-4.068266431980482,-0.2508072984735292,-10.385436297040236,2.185104209203876,-6.275717329859982,-12.192627616447238,-6.61155624586533,-18.33141944714314,-11.543312651524953,-12.651513135302617,-15.943931471535699,-12.557928336871974,-15.8990168434275,-12.539732479042991,-11.091814245338664,-10.495921971094152,-17.450854961096827,-2.3361174862664646,-12.43248542038922
1669969944.405401,1669969945.401003,3.748148918151856,4.743750810623169,4.0,29.895775460500797,0,-6.961076856806452,7.011167888405648,-6.668651006065898,0.21933710082530955,-2.234896173365181,-10.42299224978521,-6.350112232199356,-7.974620930826367,-6.357115793325496,-7.737666495423053,-3.350726675463929,-8.092411558565122,5.8574275902745985,-9.074736496672099,-7.057561613877351,2.546474543560781,-13.077366646073836,0.17889386507195168,-4.489775431179535,-9.494968448894637,-6.86463207610685,-6.840953322019642,-9.525504347387558,-4.858985828963183,-1.45564465749654,-10.420480634495064,3.5233475973545425,-6.524713478542411,-9.339179923197461,5.939373283706347,-8.524662283167736,0.31770608987412735,-6.3447104840022215,-4.502817980583895,-4.677492093142835,-10.291279875840306,-7.164322829129209,-2.798767723028795,-4.975478799044534,-10.642991870601243,3.0136926606172976,-9.489824305221937,-16.243364029233444,-6.53152609786175,-19.44322179818444,-12.49988476273491,-14.377184622803004,-14.402376761296736,-16.89733499527138,-17.09354279043166,-17.79888556101789,-12.474539670987486,-13.769669753440883,-17.542634851833498,-5.648052441814913,-16.99101830493953
1669969944.655277,1669969945.650879,3.998024940490722,4.993626832962036,4.0,30.39591587511201,0,-6.022235265610087,4.770218929993417,-8.491619853909025,-1.164119503836553,-4.428576022159817,-7.114503280685918,-6.07662143728486,-5.401728886385843,-4.586881441686006,-6.16951898829729,-4.615869229724411,-12.317026191038812,6.170356735693572,-9.565954149085572,-5.4621706237978875,8.696126180485262,-10.45644817949357,2.4196440648508113,-2.1103042525812348,-4.031797680284187,-5.368375791733091,-10.115426972282433,-7.4037167294352475,-5.914427941593042,-0.3409613034023521,-8.167356698100889,4.692492866657286,-4.599151788587431,-6.398998582948287,5.128990308376753,-12.803505759801041,0.5750036196259176,-5.877016308977158,-4.953174185398785,-3.7378228047868323,-7.849352602213415,-6.281265594162928,-3.4692515518192164,-4.305681749221295,-12.188295056666842,6.054276643854262,-9.97923135785262,-16.105051811314425,-6.848153415511503,-19.507605733841032,-14.176374002936827,-12.331664187394269,-10.715086824258735,-12.163276093027875,-16.393825979222413,-16.32189604491042,-14.69919902234796,-12.553329760415997,-18.05038989498255,-4.697214641698512,-15.471554690511706
1669969944.905154,1669969945.900756,4.247901916503906,5.24350380897522,4.0,30.59922207563247,0,-4.515855978609817,7.717569985232417,-11.855644975444221,-1.5397413205169939,-2.501578626057041,-5.8781642502756295,-7.803212150322447,-4.983552862042031,-4.425545886732872,-5.87057699756974,-3.734974937932864,-12.531178891209152,2.757379023569242,-9.914024620915606,-4.130465905976665,9.198624476601474,-11.065951979158193,1.9118012022703117,-1.8662158460933,-3.734703168477652,-7.6665215474177595,-5.906746134749499,-4.029271143883223,0.12816270961340184,-0.9430970513926313,-8.694040192846474,3.568895469043634,-5.525044463650102,-5.644292338897603,5.8719064284886935,-10.735172959769837,0.16717577593902758,-4.140867569779873,-6.150974885422346,-3.2296027225389112,-7.237673498612879,-5.663739020642371,-3.6055772996458724,-2.0861816129920783,-10.569123547923391,5.889078863210965,-5.867929146804566,-10.594594060120047,-5.872782606266011,-18.586371039156695,-13.779711296263347,-13.637431341627234,-10.76082186145808,-10.494559880307959,-14.946924633695364,-16.26268149305046,-12.34851211795742,-12.831719086990915,-15.156863949830795,-4.43399526905006,-12.261970055008401
1669969945.15503,1669969946.150632,4.497777938842773,5.493379831314087,4.0,30.462062041579834,0,-2.302925219207193,7.719788449411311,-15.390049409195669,-1.0764698156839931,-0.8316308721112071,-4.337213379449716,-5.100029840134233,-6.553080858229691,-7.1216902091332095,-6.484694784598403,-4.953512027386558,-13.176116790831587,0.8952698145202314,-8.81317510979931,-4.902519217129852,5.721620796790303,-11.680235059975626,-1.4754214616055021,0.5032467112175294,-7.640076177262443,-6.18532528223501,-5.868513923391234,-3.368867252796855,-1.2480866637015773,-0.8059934007044723,-8.416075080748588,1.989992079786476,-7.089330808157258,-2.6636457796659005,0.09885994898313363,-9.884929145655088,-4.351920637154744,-2.693480615397943,-6.092479352069918,-3.7305741928658183,-10.426419288366361,-7.559119124139918,-5.668032074753051,-3.865769094223083,-9.888510510319884,2.4988486195599875,-6.894122554871237,-8.253286830560484,-6.9618263903239175,-18.562157422610728,-13.501961221802674,-13.896764116264675,-15.019314389860153,-11.091793535435334,-14.551901308896154,-15.377186826057622,-13.960996548309154,-14.703669951592646,-17.002383703307828,-5.69685661445411,-14.00999168088181
1669969945.404907,1669969946.400509,4.747654914855957,5.74325704574585,4.0,18.87706604906623,0,-4.902118192171346,5.358475464844615,-12.23199959500861,-0.3305064657248309,-3.9367675888157287,-3.7564050856969597,-4.312563835819027,-5.648211740525374,-8.435957195071799,-7.664848474598588,-6.286742100104995,-12.750528029007294,3.3269184388167483,-6.910255820215385,-10.303623214342675,-1.4517066981066913,-8.45893120496034,-3.5603235625709195,-4.571220725083823,-6.216562470389727,-6.107539091939866,-5.733665746023457,-3.646380694594777,-2.064765412464202,-3.302449241822435,-8.416557718379043,2.2734787444697826,-9.451265635843718,-5.679994984476005,-1.5434426695972137,-10.072945155785444,-6.871949242293052,-3.8884381296259933,-3.617735084773368,-4.416412446218336,-9.513220977909052,-8.13703594307434,-5.754791136056867,-3.314975137166856,-11.308626537681189,1.1882906647160456,-11.858857267551112,-11.697824467510532,-9.981364747214945,-21.18383217135221,-15.369227559108188,-15.917399404998596,-17.44459183872035,-11.400418942478474,-14.293443828233324,-14.801899172741228,-16.68009158878156,-14.527499025233785,-19.209071052569094,-7.99278578635621,-17.495698756233324
1669969945.654784,1669969946.650386,4.997531890869141,5.993134021759033,4.0,20.5753098147796,0,-7.617813484256601,4.771913121653398,-11.886520652055669,-2.4050045829309723,-2.545777795999902,-7.1829207042873175,-7.680516338051486,-3.699251060632079,-3.913467060383164,-8.725205144772163,-6.341261778377337,-10.751238243969333,3.1327979670972326,-5.283157697668885,-7.127416881598876,5.638356100393592,-8.016405444281517,3.9636484338594995,-6.737207092912706,-7.02531206873425,-10.692826557492763,-3.4623989794322627,-1.8772543843017309,-5.8737941676714245,-6.921802524232378,-10.176969955271467,5.005901974937941,-9.867272070808228,-7.540890300491836,2.7279595733824995,-11.374350419819468,-4.110751737372702,-1.9686291420888147,-4.505557222110817,-4.953399840048455,-5.074508383772322,-6.913942701202243,-6.022379026631946,-4.593483720094722,-9.674535066635322,0.8367695032060427,-4.971438279070868,-14.805696308244919,-6.373749770104128,-19.481596553935493,-11.822363264883053,-12.086460693537134,-17.723971830788564,-13.922322929023936,-12.958261589369434,-17.817790273417305,-14.864500129159046,-15.126920550393127,-16.205820597856366,-7.475918431809653,-12.403776232115742
1669969945.90466,1669969946.900262,5.247407913208008,6.2430100440979,4.0,21.69721205567145,0,-10.024815003838645,8.982585062708367,-8.70669763245408,-1.8932850700299135,-3.404154911001815,-8.251475107927392,-7.664339352445637,-2.724117490217275,-0.8978468119073324,-6.808601702339971,-3.445807167537383,-10.031960647148292,1.5184561870721514,-5.866872459251084,-6.338831441749796,7.246764039828687,-6.538555006373354,2.711583152458426,-5.169601062708212,-11.653836689704208,-7.6440231669306336,-4.649851717018677,-0.5743681077947196,-6.233796966518526,-2.9688049197976407,-15.209529625377272,4.545991589072839,-10.653445269498254,-2.293043049652665,4.950027015941182,-6.150908876208282,0.7651120394129102,-1.1308830382974275,-6.080468067797882,-7.070405146209415,-3.8060868548836946,-4.540779661236419,-8.164148393468572,-4.94790673032587,-6.98984505690713,0.6204067213334913,-4.38613487318791,-11.448014925838915,-2.028104092325215,-14.713063159502497,-7.420711135103436,-9.943014842726946,-15.504466917647717,-18.644685840355052,-12.285361336157994,-14.984976096499082,-14.524464611529064,-12.708535512524474,-15.520322047744212,-3.681027408332752,-12.663463519749884
1669969946.154537,1669969947.150139,5.497284889221191,6.492887020111084,4.0,36.015709975000696,0,-6.9748739911299555,7.810969471720304,-7.191559417928248,-1.6673543211167932,-3.710502377849293,-5.8695560931895,-8.254754381286354,-3.385370941024389,-2.5610103851561568,-6.326379049049079,-0.6207208105577854,-7.273613986315159,4.434780161896928,-5.821837487147818,-3.852447872103808,1.444444888822785,-9.409439234701134,-5.661534617583726,-3.3317144125817055,-7.085778154627649,-5.7500674935953375,-7.403968734553132,-7.344607074390387,-5.8568780417370645,-0.7101328473117661,-6.276157248362152,2.9426178259157005,-8.620921507460565,-1.044110789715789,3.097396325953862,-5.0406835157814855,2.660339985343099,-4.88097996047636,-5.706033211083628,-8.266515561360583,-6.618833830291204,-6.139050799339713,-6.619657027031663,-2.559241912725284,-6.525824563277314,2.2796829855328755,-9.89967181758898,-11.281389619067792,-4.115894096557055,-15.912521380562794,-7.19899298885033,-15.145546937616164,-13.986823925949237,-19.48818525619111,-12.260924647003883,-14.395023462469567,-13.896194069764924,-10.009225348897147,-18.70291033053312,-6.3792956002842764,-18.885006458693777
1669969946.404413,1669969947.400015,5.747160911560059,6.742763042449951,4.0,36.709712231485526,0,-2.6852099765131805,4.369028022942664,-7.017765352998433,-1.2458446124590707,-0.32999938506343746,-6.012867361733431,-4.322999085866281,-3.084799786620528,-4.978363473807915,-6.601420591691316,0.627224165989782,-8.832392036088283,6.352041376969314,-5.464285278050261,-3.962104996760983,4.303480811803204,-8.024208761793252,0.007877825709002115,-1.6416222096409983,-5.5917220223280415,-4.95396880131645,-8.141846404727971,-4.5825003473398604,-7.573307776652939,-0.39028061951393067,-4.683965460576069,9.75998664688678,-5.0427025675118315,-3.0922886377849395,3.668954935306232,-11.121268709861067,0.6776167898591563,-4.730984496363217,-6.151558794382694,-9.410494412007605,-5.13726558524545,-9.22443026125206,-5.20817181098014,-1.37631907742132,-9.413778405708628,0.892677356380847,-7.060331205967147,-12.117405372307921,-3.2375026926323844,-20.6594058883625,-9.120061557273457,-15.035202171093516,-14.356620901554235,-18.20596566914198,-13.765045787229166,-18.18837173686305,-13.640798115237164,-10.146444834457188,-20.34625583978851,-6.296661796890216,-15.935633317198672
1669969946.65429,1669969947.649892,5.997037887573242,6.992640018463135,4.0,37.208216804466055,0,-3.599326407231743,5.459428284260076,-8.268309898856494,-1.3078210671059318,-0.7101537758828702,-5.907161310942815,-3.17367990722297,-2.144872733082642,-4.474362226372001,-5.467795202478964,-0.47039650202125033,-7.567062009270906,2.55306909114744,-4.935320173535321,-1.4893820013949757,5.08050542216647,-7.342503106841017,-0.14987769522524275,-5.38784859991792,-4.219657299044222,-1.451182958448041,-3.8746612909505975,-2.8360633672424647,-5.582915360348513,-4.648596533485979,-5.499300485080143,7.629850857429034,-1.4464875490249527,-4.2202509643910915,2.9290507042061376,-11.907654957460089,-6.285000186989491,-5.59523699944611,-6.8158895463769085,-9.411713010551697,-4.366808760900929,-8.075657735000485,-5.298330102724477,-5.963069570468903,-11.8343735500288,2.574082657039964,-6.68160220430355,-12.983771986042267,-4.560317875510175,-22.560170377283562,-13.87642369356577,-13.561314496426712,-15.315781034820318,-16.447561813087603,-15.579870019300476,-19.233054937321214,-14.091290992898426,-12.891586150703349,-20.621305606948425,-5.154310400765957,-18.52771013579779
1669969946.904166,1669969947.899768,6.246913909912109,7.242516040802002,4.0,33.25327060567406,0,-4.998338857950072,6.841473553260558,-11.294453492487479,0.40394965821651446,-2.584098100141615,-4.824531207825881,-5.461504630043947,-5.013882470497123,-5.65825386715387,-4.352079692000986,-1.361812935844763,-8.460710609749265,-1.7047680712229119,-8.7180298153214,-4.152594480295184,3.0579275350691324,-7.226552503623057,-4.49875637645102,-8.367723755905917,-4.609477465909468,-4.167260945966439,-6.209163817712803,-3.014781266229973,-3.770016685530322,-6.968821814000875,-4.826799200497055,0.5522813096698322,-3.122558643391809,-5.788353145647607,3.0373495889205238,-11.745443556080904,-8.466332265017178,-2.817063063331715,-7.238714906078768,-6.262094232365443,-5.572946911378905,-7.548043157155168,-6.102699417140616,-5.702757562816303,-11.186116575453568,1.0793854346171108,-8.158496517032678,-13.859972727646143,-5.092234983076517,-19.616080736554387,-16.43028376055061,-13.464080251786202,-16.542796753553947,-13.67342162418987,-15.945547608937964,-16.34631245596015,-15.588808842598532,-14.39661325956606,-22.342594144396514,-9.263428166822713,-16.95605305113751
1669969947.154043,1669969948.149645,6.496790885925293,7.4923930168151855,4.0,24.184556572960673,0,-4.476502859981685,2.361447870468258,-13.500272414503009,-3.0346318802137984,-4.752565079337524,-2.132811098275132,-4.873357148888385,-8.96034716890073,-4.3573274962540784,-2.258828292234129,-3.8634505751634785,-8.544768514099042,-3.610980554852961,-10.559306497754202,-14.540997923945554,0.6185229918859159,-10.406302862249085,-7.413978416094076,-7.278971385695298,-8.46740210557561,-9.11378394228787,-10.804059503719808,-1.856346730490663,-0.5632220622422731,-8.011688578381358,-10.06739784721349,-1.044742848458377,-8.542576823410808,-9.186951566453466,1.2744397792039077,-12.917447064707844,-8.063356412502287,-4.631209395662416,-7.526106694396017,-6.04381756819933,-6.34220901812637,-5.422512910824868,-7.100440121745298,-4.317772550862557,-15.069368835730742,-3.7039589789439793,-9.781712554748397,-16.050542732597577,-8.78734019429041,-20.32496822514115,-19.1701384733067,-17.607182681634548,-16.62482668909305,-14.893776874078895,-17.654047891316885,-16.70198975909573,-15.259616829220368,-16.38435853944172,-21.57298416119451,-13.008845089603282,-14.226922908209476
1669969947.403919,1669969948.399521,6.74666690826416,7.742269039154053,4.0,24.049967264447893,0,-4.9351956347374655,1.8333599196605537,-3.6193666608565205,-3.734829684201035,-4.686728241292997,-5.371557360093922,-3.986296253267824,-9.960671331121167,-5.3943608655043915,-4.41615058159925,-6.554664204931706,-11.606134170024585,-2.707200651330705,-6.98321362213652,-11.170358309357605,0.2293229920959233,-3.701635752672019,-5.4560615033036655,-5.762233336537074,-5.97711194695788,-7.246460920048239,-8.305501492585893,-5.7424607730631205,-2.592703994245916,-5.676703149381845,-9.021375216598495,-3.8823184438951595,-10.892347752215361,-10.643910071789616,0.9652462474562038,-9.659978269670702,-7.292978165254907,-5.64488298702272,-7.622036123376345,-8.648554117417294,-7.373520291075913,-8.414538470902167,-5.232678143512408,-2.4159051161856744,-16.98386481189489,-5.5229308256723595,-9.214126081340098,-17.432704713619405,-9.306195967799132,-18.470278545973,-15.266199443769175,-18.078764936647858,-14.997393422188715,-15.848882444048513,-16.104557208896388,-15.783772692254644,-16.21318667870217,-17.907196138193516,-22.52194885283822,-14.874566046869761,-16.237159337819808
1669969947.653796,1669969948.649398,6.996543884277344,7.992146015167236,4.0,36.90473157323442,0,-7.06351817461217,1.7858509265644544,8.131716691515884,3.5677672387619364,-5.239355210042382,-4.680646972745362,-2.9391838047785157,-8.554002414871357,-8.344444002884599,-5.423020469172903,-5.135532494924258,-9.10492445547463,-2.2651139044784947,-6.505134154521218,-7.634494852898202,-0.5218291888982414,5.363378460780095,4.211054503403084,-4.611776481268205,-2.1893459167804954,-4.825102153948092,-4.767156703559897,-4.3155519902860275,-4.730164149711779,-2.917324510332586,-6.620756036597049,-2.1517649241722028,-11.477365947978747,-13.069965466500362,-1.5294521447420093,-0.006341180489518932,-1.6206293769429765,-6.438979555293796,-6.853659530790642,-6.227545838416559,-5.240752437409459,-12.285319326987699,-8.633999203987429,-6.165180975712401,-11.98288038928488,-2.778147095901995,-7.0325790598000015,-18.73139107447035,-11.215908463995747,-10.418594525750517,-11.191027724751404,-17.015429262017957,-14.880053434739855,-15.286587619094757,-11.371462621472762,-17.03342608231177,-16.642558932623945,-20.107482821472598,-18.295708719532794,-13.8920069077666,-18.893336004622196
1669969947.903673,1669969948.899274,7.246420860290527,8.242022037506104,4.0,47.490221090068175,0,-7.436677027611225,0.3480045375214801,6.515015976828833,6.364130196809779,-5.9192579734309945,-3.7601967027581438,-4.207092498214774,-6.854608659788532,-6.437021061062104,-6.893540686704203,-1.5520476518183561,-7.325438452296621,3.675252697339878,-5.006062649150886,-6.0834895891432925,3.7844467600607685,3.4099858189680594,6.819812033411213,-2.4518353285015584,-3.107652943241095,-5.471741885185298,-2.800189808463176,-3.7448453088859517,-10.304514092106968,-2.566371080729608,-8.918754807981074,2.485871472128634,-6.18668720861062,-7.219758129963109,5.431436757712152,-1.1098704538796702,2.7277849756813333,-3.665005000857196,-6.450824454910865,-4.586762000613401,-4.923155868638895,-10.65613914078722,-6.556132586462987,-3.66630422340322,-10.798182579225239,3.159846585441852,-8.432431134165114,-16.45252436470229,-11.798769913283444,-10.93879066103831,-8.920010843970147,-14.918343581667628,-16.22220206532824,-17.524120695161663,-11.955878401440996,-19.36937853917701,-15.627967231626476,-13.614923242510892,-17.532725340167673,-7.6207175670862215,-18.876113439189282
1669969948.153549,1669969949.149151,7.496296882629394,8.491899013519287,4.0,52.461596325688575,0,-7.371117419217129,5.763420458392435,-9.85289998558935,3.647987785380985,-6.226673908267227,-4.9200217529668535,-7.242845184787299,-5.346858526622701,-4.138068180967691,-8.115467482812795,-1.527603145604519,-8.269055128207594,4.347251128069212,-4.225883963193877,-4.950094587364645,5.813902539468755,-10.793609487023607,0.15494910780553064,-0.6150453376287659,-1.4025447343992306,-0.34096689545226677,-7.277043515822905,-4.024348662684329,-9.631984688307192,1.7801466000862631,-16.335259036167628,6.53201694200504,-4.303751364008749,-4.154081431813152,8.522244932959822,-8.411375141765035,1.3070007468825926,-0.3877731304433121,-1.6683051313046695,-3.7751050202662477,-4.7040129032077225,-5.146642257356028,-3.951042562776678,-2.8455861030077614,-7.643401281797583,4.619078028368033,-5.948031608646573,-13.51685058671551,-8.349416007187266,-16.06966209670526,-11.0554404310036,-12.430915978131175,-13.729070600888473,-14.220472177402886,-14.93155815284319,-16.944304912290175,-15.028392081462641,-12.092303132993148,-16.755947005995537,-5.478854419094789,-16.0132842379898
1669969948.403426,1669969949.399027,7.746173858642578,8.741775035858154,4.0,50.47181672006996,0,-9.546326714734615,8.218041026179577,-12.114206941859319,1.740384068972032,-6.627600592937771,-5.46006220340308,-5.450638117258534,-4.589353856991468,-5.859736328788397,-8.900506360783156,-4.0440318051027795,-12.579574498815507,-0.6287599521750226,-4.443073248741404,-8.521650274660432,-0.2092011472752632,-9.998251406724105,-1.9875779827310498,-3.350916728134723,-4.766994279751378,-2.0109615459100985,-12.58830797478783,-5.793701141686287,-6.199347727847856,-0.37274976408044064,-13.124986390540903,3.0444473812586925,-8.110067454210398,-4.722195508995659,4.869310181566332,-9.07287153710136,-0.39338531615871686,-2.077335051721273,-2.6837217173375407,-6.468460322164795,-7.722017600155967,-5.227055290958732,-3.615029764715751,-5.728149818392144,-9.647475916773496,3.357444782880325,-5.787086794476618,-13.68836347957939,-6.969954103444014,-18.246322262298417,-15.511206465810076,-14.758098132864244,-15.188612715640897,-15.652822445049043,-15.47529125949527,-14.998869669165046,-13.588517181318032,-11.82284779883024,-18.371200450590404,-8.915758988092486,-14.590047718010586
1669969948.653302,1669969949.648904,7.996049880981445,8.991652011871338,4.0,42.7311227036752,0,-8.243313265145222,4.789627436879843,-10.037077610905111,-0.8948913240690554,-8.392084630081825,-6.050834641914751,-6.8152914495516645,-4.536470666376581,-6.03587787773836,-7.912375452069746,-7.449783972472757,-14.891213728431946,-0.35643908721443657,-5.872558472021466,-5.513551580989912,3.6586208702028133,-9.954613106024334,-5.128613141970078,-8.070861745000524,-5.597269223582293,-6.567086341156326,-9.323712153855771,-5.566030835165128,-5.114302401129369,-7.0062093924417645,-10.177668797730933,0.5979986597669108,-5.20039025619345,-4.713450902480119,1.83780128834898,-10.628939345788847,-5.597042591727293,-5.414152562490152,-6.5933831742395075,-7.574122609602439,-10.908497289993374,-5.603157413275682,-3.5330950144001303,-3.8542381737585814,-8.129853507416811,3.0005934362079123,-4.268597962296075,-13.555715929062856,-8.593389491816104,-19.37124442934168,-16.60490344079026,-16.092666603029098,-19.267096531799364,-17.34369218454749,-16.478258195805587,-15.389798139110948,-13.780587448702988,-12.073327977365668,-16.171498886057417,-9.45024451542724,-16.4075711555666
1669969948.903179,1669969949.898781,8.245926856994629,9.24152898788452,4.0,22.734485920948714,0,-7.502653067434279,-2.2921121149290062,-9.915517346764663,-1.3475559448184757,-7.2972845035574485,-9.128225578776506,-4.930465931109475,-5.127148647829891,-7.0697933995434905,-9.226075819808319,-4.936974381235265,-13.959507721984155,0.7111675470433142,-7.160317045150162,-3.753029085049628,3.0132487320130865,-11.638767990381085,-6.883952813928489,-6.421501759297796,-4.517935947340729,-7.325227678530912,-6.848499017086213,-4.429978895915808,-5.366243267660401,-6.436832011620427,-11.885455649128998,-2.3378301018825347,-5.258200541306857,-3.3638104850379413,0.5718794235923684,-10.53045195562535,-6.507281784094419,-4.950985447063562,-5.853530038132664,-5.991000523743452,-11.778282158318145,-3.8718514530312214,-3.6625053957167184,-2.4892650710662334,-7.69805568474029,3.033824319794656,-5.438441183357741,-13.806796781483389,-11.84333742933273,-17.031962556752823,-16.91202363894174,-14.141983610251188,-17.62299772070822,-16.928584674794454,-18.184695411241275,-15.3365764711852,-14.679496574760565,-17.506745035199984,-15.139736731713747,-8.235412898088876,-19.263533817007993
1669969949.153055,1669969950.148657,8.495802879333496,9.491405010223389,4.0,21.98019138742086,0,-4.724017833954662,-5.2767562512411,-14.64010765290048,-8.159933521136036,-5.595790449242851,-7.422615246351638,-3.958434052611233,-3.5608010555760212,-8.438859554179269,-7.373538259610198,-4.2180754784944545,-16.125280809712613,-3.0610893450076975,-6.313146625460249,-4.155515338768801,2.852429500289272,-14.500919344242577,-5.036832999386825,-3.2809234743639775,-3.1856006743579885,-3.224625212884191,-4.4712305112961745,-4.859723896972731,-6.420174438260401,-2.2819500812189535,-11.964898064223979,-3.349145932993538,-7.415154108465797,-1.1304719541233905,-0.9590793488223937,-8.985316673756511,-6.8623559953807955,-1.171668015641444,-5.156976420731675,-4.668068104563043,-8.618413502399283,-5.616111283409655,-5.274321699488331,-0.6594242074476955,-10.20112501573652,4.179209840369192,-4.994382232678229,-9.149568884565388,-12.719330480315856,-15.88557206556126,-13.978257226448532,-11.164084879242047,-16.192644110664066,-14.455239402184208,-16.499352386619893,-16.46080344842847,-17.18328125399345,-14.310494135659296,-16.272239678368617,-11.35854508166875,-16.023389827365868
1669969949.402932,1669969950.398534,8.74567985534668,9.741281986236572,4.0,20.745968065958703,0,-6.148556131200761,-2.8978967461014244,-13.862126888638587,-10.170611193871025,-9.189384515589435,-7.621505639245854,-6.490828970516533,-5.110065055615678,-9.176764039278229,-5.628155645729665,-4.5428966509756465,-11.609698362775458,-1.4212863415258072,-5.594238003619062,-1.7058279353438286,1.2612945518411052,-9.73266390374291,1.2386052322298255,-1.226149909943342,-1.7624935899625271,-1.9123351057074083,-3.9991648566204208,-2.8611628526290427,-1.9550950102250642,1.9090914478812855,-10.50645140826748,0.3113832719782943,-4.789943632081593,-0.7682296120968255,-0.15436630568093884,-7.717869361205835,-6.833041454647523,-2.3942450737901826,-6.430909993071468,-6.281367201736879,-5.5188498652724185,-2.6445120378405704,-4.569838602073974,-1.5931936712023185,-13.266796924302726,5.5292854191649266,-4.06275414001969,-10.123443249359871,-9.760531666476409,-16.815522117318295,-14.814870484771323,-12.84426097361576,-15.188123151461587,-13.215747536749767,-15.769060754016095,-14.750003706891292,-17.617474819328798,-13.095166952778975,-18.5212868538772,-10.619140716031833,-14.813185804004227
1669969949.652808,1669969950.64841,8.995555877685547,9.99115800857544,4.0,17.415771992047734,0,-6.1903098795236735,1.453150400217832,-10.637377126503196,-12.39287379674931,-6.216550606829268,-3.8865059854813415,-5.925097547696019,-6.751416516422789,-9.215596998727023,-7.074934402087952,-2.1957034123590664,-8.568918023434108,1.6647042667537317,-6.136817331556802,-5.053203435121395,-0.5370242878490354,-7.043517432793581,1.6895517745780593,-0.33664104900099323,0.11679865773140788,-3.012818897560581,-3.929260338146091,-1.5334014170782309,-0.98791817639326,2.7895634985039477,-8.797779650248025,3.1564125110770296,-6.549057960744877,-3.0917816388074453,-1.3889926530587813,-10.478367825353425,-7.2829926796730495,-6.54678207421224,-8.703130090624844,-7.595981593829309,-4.95602275178201,-2.335033101770551,-6.388451464084401,-3.8149703500165644,-12.12685755755686,5.815572529511127,-7.286937225382479,-13.98052988917498,-10.44125590821727,-20.758606844247627,-15.738468758972246,-15.941796589866918,-14.648406685413843,-14.948072643633495,-17.19441156946888,-14.861918568299792,-16.62204509019451,-13.949575955793458,-20.505745414483478,-7.108007020624322,-16.139461393987084
1669969949.902685,1669969950.898287,9.24543285369873,10.241034984588625,4.0,19.148809835202503,0,-4.729661780707856,5.270652013175142,-8.880767959163466,-7.628327544186426,-7.875980620760989,-6.486429611930006,-8.408320376395698,-2.7447124852215685,-4.259168062244383,-3.4645253427943743,-2.561077487217234,-10.55317790898786,0.744050611578118,-7.397380174478244,-7.20881803557504,-1.2774683108112268,-9.733218423064839,-4.498710990359314,-3.5948470772019614,-4.046063368349912,-6.666182450866844,-6.833164818063232,-3.4138031368668558,-1.933395950897332,0.20675824697524173,-12.72454484293225,1.7011966304659047,-7.264495393644737,-8.435030076802978,-1.4529080219074957,-12.65919506593071,-6.194061211571949,-5.142351200684201,-7.333649327338197,-7.784433605347263,-5.53256530297619,-9.094914920792998,-6.901435617081547,-2.3742575948600937,-7.079686339242337,2.183957664350657,-7.685276371772414,-14.754949410411783,-8.126193981287273,-22.902176203722554,-15.596482433476897,-15.178559058886297,-15.30875773479206,-13.891909918188833,-14.982991553057339,-17.60030049111904,-15.589654095480896,-13.077535752634827,-15.764277144273084,-6.815877267088818,-16.809516742698637
1669969950.152562,1669969951.148163,9.495309829711914,10.49091100692749,4.0,19.027102746564136,0,-4.873691920678849,5.473004380881317,-10.794718457002972,-4.927174188281802,-8.326720633903278,-7.930406815200017,-8.737530097561411,-2.4845750526329056,-4.475140996053004,-1.974219683820232,-2.932416113908568,-10.08048963067276,1.166888810766744,-6.301887670066608,-8.53505986847059,1.2284395916650157,-13.478889251760886,-3.200596618225972,-3.6739879747108253,-12.932032385813894,-6.524184597873019,-7.546431185347473,-6.728640936727399,-2.654260142382462,-6.05225752545493,-9.889496294084669,1.114912269574027,-5.323684511984359,-8.354640985124353,-0.8418475268196073,-13.230124727934566,-5.241802343823418,-4.860026170469563,-9.88593365281122,-7.280046398319756,-8.018139908377954,-11.131442205685786,-3.980726435068056,-1.243151291582071,-8.557604802518897,0.8386849176508969,-5.8714175020816,-16.86306567907248,-7.012915902834784,-21.679440385312056,-16.083183561511337,-14.288238623732274,-18.292289683529837,-14.229807326377772,-14.292263499826461,-17.96679456443892,-16.458998701910946,-11.744669482146485,-16.364756200116627,-5.328334060131704,-16.500197221549243
1669969950.402438,1669969951.39804,9.74518585205078,10.740787982940674,4.0,38.86293467954155,0,-6.739369158362107,2.5406118835006986,-9.241687302952823,-6.741237429535913,-8.733992400072431,-8.28167656058864,-4.292176441478484,-4.658179807500317,-5.608412466259671,-3.4791850222763494,-1.8536498356238371,-8.51281144569717,2.0718932534933265,-4.571615091640538,-4.499920201461664,2.734722453814796,-13.231814781573126,-2.054645795753389,-5.269773571607731,-15.370352091064817,-5.180700786503704,-5.627968519000883,-5.454078316278125,-4.895949040419056,-5.212719900096308,-10.758554743101632,1.5136812017904535,-9.297647743777468,-6.126999457615449,-0.35032624246538724,-10.499124747297879,-3.327409145323838,-7.002763623912687,-7.314845113268782,-5.844401058672881,-9.179022402651608,-6.214709875199649,-5.940152914190076,-3.8944099614458354,-9.480746048974078,1.5613437452958292,-7.311700949569156,-17.99272517844565,-6.758370589997522,-21.044585668310667,-12.411097937145751,-15.530117853272174,-18.48922476886508,-15.491995636070806,-15.45274422949188,-14.086177108831247,-16.42324050424015,-13.129638053382193,-18.665367886971545,-8.43523819858598,-18.958901009689317
1669969950.652315,1669969951.647916,9.995062828063965,10.99066400527954,4.0,49.68367243653934,0,-5.90461559928242,1.239224348622335,-6.790860321946593,-6.138741623707162,-8.78797777446627,-10.857107164851422,-3.736212757348321,-4.539250082951968,-4.929187654012486,-4.941862581007687,-4.505103462892172,6.770943498900809,-3.549397797745824,-6.321917935691317,-3.2932770574183894,1.4661648279062174,-11.131795118958692,-2.8691581264897064,-2.948573748431466,-16.670793156742977,-10.228801525119815,-1.8950560713244822,-2.674757420048599,-2.5631853586530062,-3.670093309147222,3.9605695545560216,-2.3348232228488426,-10.411488297316945,-5.796153705010751,1.443965907163789,-8.83540266162424,-4.406653934201707,-5.670869713941099,-6.914210289059967,-5.844384248511851,-7.638318948325256,-6.64795135444866,-6.624216177317644,-1.0404823954732259,-2.9698855312082384,1.722965555647301,-4.8605315133040214,-16.41940580376683,-8.463780476599986,-19.94921136911487,-15.114434326759184,-13.665391136107296,-15.481497639166177,-14.19053901020819,-15.241215365685342,-14.778340744813006,-16.139664305898457,-14.44770243777598,-13.351668559976506,-9.415614105996493,-15.13213094782823
1669969950.902191,1669969951.897793,10.244938850402832,11.240540981292725,4.0,50.50656213418525,0,-5.02476349064764,3.167651498227845,-6.755081604499597,-2.8381914341248207,-8.958896214389258,-9.158596957638599,-6.408636395398358,-3.005642484397571,-5.6700196336883,-5.623161747868326,-6.644625034619023,9.786773605484157,-0.12540818465621614,-5.801861400897577,-5.581654376746711,1.7931609321076607,-8.813525839833229,-5.733924812786504,-4.6070278576290615,-12.747815228412938,-5.238382124322771,-3.2768479227804326,-5.4337840535115225,-3.80116431028918,-1.5607018075493075,7.912848998588258,4.393433317601641,-7.402032661867944,-4.102651554462139,3.76717615257294,-8.206367854725716,-6.405486316153911,-4.617057667068543,-8.468758155273497,-5.426472641215896,-6.021176188233134,-8.717198969501577,-6.445302160695105,-2.6147696315077202,1.0021519543411241,2.3448536636514676,-5.46548345285268,-12.95326005815796,-9.370783865689509,-15.242430797594949,-14.645429919395259,-14.047892901643621,-13.634931655424008,-13.94042320124174,-15.838424249341532,-16.29080095829086,-15.533867474268764,-13.825685710295264,-10.139849474593731,-6.055757942477429,-14.929328217522839
1669969951.152068,1669969952.14767,10.494815826416016,11.490417957305908,4.0,51.24837214874581,0,-0.19138954502080666,9.225636848871563,-8.002477839591132,6.022742725776117,-7.113319315561652,-3.358472868912199,-3.8671509779659905,-1.6554655309181396,-4.39491768323375,-4.285922902376951,4.0239647209559255,1.1829598022994188,8.516309865924052,0.08726067275488318,-0.5821250482417386,6.988455126686861,-8.04435213450805,1.4157960487538999,-6.420639380159087,-5.944301303115913,-5.108530735942283,-5.245109034991201,-8.879337404807274,-9.695535469263318,4.6166944237770124,0.30214589058069696,10.446732285353399,-2.940647317287135,1.064803612973304,6.637823033458404,-5.892463477885922,-0.16892448677515312,-1.7660229514432935,-7.16194985173372,-3.8757068756631274,-4.176543326655533,-4.070232378619701,-5.117108664674506,-1.5744062399549164,-4.8660097396592406,3.3352362749497537,-1.3896723169789098,-5.864142390866892,-5.670441418858268,-14.375494173554147,-8.194970221964716,-12.394217897020017,-12.42905811352426,-10.619565566228387,-14.74968498822342,-13.662383765065018,-12.911587799718875,-10.513844785646334,-13.942341166629326,-7.528592203396886,-8.621705786592818
1669969951.401944,1669969952.397546,10.744691848754885,11.740293979644775,4.0,31.276384968399586,0,-0.7494245321757682,7.154475981728853,-7.771615354571788,4.444083565709002,-7.239873887207475,-3.6747524925557924,-2.5707289543731164,-3.9151097170697637,-6.845562849946343,-5.547596373099111,4.50748653296862,-7.925041064336751,5.568486620811393,-1.7146993691922583,-0.10562763859175496,7.21531731226346,-6.219644709938208,3.851632771175651,-8.491828982048261,-4.4390466284383265,-7.43920831164142,-9.258602518665679,-9.147278705121884,-9.526097346263093,1.8652358277447636,-5.544097913403785,7.435852032283281,-2.8280901441993804,-0.15807303315948482,5.775082225404199,-5.773249120992242,1.290330278188776,-2.323682533860504,-5.802646292626904,-6.004359494247354,-5.596524581665968,-4.056986796592458,-2.5782666274871913,1.4009177265977357,-6.609925315764574,4.001433754912068,-2.1487029889754026,-6.378584921026816,-1.664624949287722,-14.035630912091042,-5.958209668268275,-11.909235614929832,-12.061934837397,-11.471284285185664,-14.645067720238615,-13.76069814309323,-12.884583365088849,-8.474385792517616,-13.810127945035106,-5.401089533376421,-9.108374314655965
1669969951.651821,1669969952.647423,10.994568824768066,11.99017095565796,4.0,27.282199839914192,0,-3.669018859786781,5.316087218861524,-6.314414213624927,0.22176862139584758,-3.1527646232441193,-4.5560147104674105,-8.142975538103594,-6.736993860965753,-7.237130412805598,-2.224442350718387,-0.1455909137324105,-6.006632922264262,0.1911515473309699,-7.662025047433571,-5.106461701272352,4.756122095128311,-7.658919022165903,0.12184812984491925,-7.451859329278898,-5.013050601888053,-8.841204802267562,-7.312075982921904,-10.445368619549534,-5.622388828608093,-4.816928209152122,-8.754134255004583,5.354468567371741,-7.174413785696929,-6.284771311864111,6.703261927481751,-6.17910584365034,-0.7587896274304946,-4.91088798390034,-4.944271528670523,-3.5003477666645173,-4.9504841179902055,-4.497263290188527,-3.3432391598309428,1.9484705534218572,-8.097431635503948,6.936650947412998,-8.154911651053922,-12.814595424501729,0.2173440354910387,-15.964249764898405,-8.409504754522226,-11.019104951311196,-13.957542169086079,-12.544087497451804,-14.90705563830953,-14.397928562144314,-11.570044317156281,-7.399975921928624,-14.60213439337712,-0.05624593949013723,-15.946362733108554
1669969951.901697,1669969952.897299,11.244444847106934,12.240046977996826,4.0,33.060108768911746,0,-4.153613064574914,9.071497961050563,-8.300571009805994,1.6563639575082931,-2.5762238343726502,-5.54799594125043,-6.999849000971206,-2.824889955075775,-6.107517677280642,-2.851739768607536,-0.0006653123826115643,-4.285694345817735,2.9528630026617164,-5.40610869861609,-2.7754847073218465,7.580245064332766,-9.518712014243764,-4.165890581249511,-5.542813403484378,-6.714813245308048,-7.256232146886306,-5.668009112551788,-7.219424318724918,-5.627250371564763,-2.805312994597733,-10.943585749597826,3.443433261351675,-6.765410186114071,-7.670777870174971,8.655506279277795,-8.591516262174352,0.93650090753768,-7.410571482036663,-8.19559317449438,-3.055265850857169,-4.295081569712164,-3.0138018089069334,-5.3454884858770875,-2.20515844672371,-9.554317399645463,6.467281296711934,-6.634390727611603,-14.099908101007335,-0.8739336909874664,-16.47150140780386,-8.167323513007686,-12.565601049359058,-16.269375359941428,-14.352778635717895,-13.398578885649123,-11.700376405582954,-11.211514914014227,-10.93318053803361,-17.704688655081906,-1.638295832893557,-16.624941285529662
1669969952.151574,1669969953.147176,11.494321823120115,12.48992395401001,4.0,32.371571386701504,0,-0.4611517772227972,8.844712139446843,-10.409002142733542,3.2670190093688105,-4.268047919301652,-5.847658976533604,-4.104293475000752,-0.40444396482008205,-4.488470299633543,-4.343941429065568,-4.263017669800378,-7.576875371957953,2.6112971624748282,-3.4081250863082477,-0.8262528153516866,8.836332601844243,-8.95997068069974,-1.6164225999171944,-3.7980805555845003,-3.639435149126216,-3.846247199560859,-1.4586529778370427,-5.353552282521505,-7.082522855395678,-2.62227554995765,-8.065109049252296,3.9629788841669775,-9.319626739634774,-7.049707073949652,8.055516778187217,-10.944205111388694,0.5214368163570429,-7.308581857014364,-5.903229177508617,-5.8072518854562825,-8.9050299302586,-5.305568533547369,-8.958643742748936,-3.8506651795438755,-9.29790656955133,3.088113688546381,-6.547684618416287,-12.96115781249829,-2.394735514171381,-17.285978550384296,-10.721116587638654,-12.6242779538946,-12.929528318640632,-14.656892346390025,-13.52949179948736,-12.753633834086045,-14.00371807946063,-12.242622364873455,-17.920636290919877,-5.644821088594238,-15.137569918329065
1669969952.401451,1669969953.397052,11.74419903755188,12.739799976348875,4.0,31.205099706222224,0,-1.2140718118502467,6.8311456700161,-8.65226176148451,2.798577239104989,-1.7626737690534333,-3.2497045187538287,-3.559501991703475,-0.8416615184255143,-2.4334744327439766,-6.451116683478622,-0.4301010221479115,-4.811165542367764,1.4393948416234,-3.977963716701626,-3.5938481111617437,2.981722803995006,-10.535916940220961,-3.078501115823226,-5.835618036548728,-4.8259197185299465,-1.9442209833207704,-3.7700835074082812,-6.041504915574595,-5.2140303108758435,-1.1944183101954304,-6.513012979253377,3.0878719403798147,-5.883651736283756,-5.56657565274892,1.81359458983757,-10.022316464491027,-3.8081397268484403,-7.69007568678728,-5.1386529943954145,-5.492886026592507,-5.405020098894723,-4.945397732257007,-8.27671848744992,-4.145007203082297,-6.606154377493696,4.4832458055439535,-5.181165643000282,-11.96860918660114,-7.347913400279447,-18.751809981329714,-15.150151777479067,-11.787585577097326,-12.096790663150415,-14.888663335192927,-13.192140242249753,-13.456685945963676,-15.94652288100465,-12.204159609833187,-15.913037654473127,-5.368419702455367,-14.196672062806277
1669969952.651327,1669969953.646929,11.994074821472168,12.98967695236206,4.0,28.318069090226313,0,-2.523940004848309,4.671302485619627,-8.829773815180555,-1.4260130303399627,-0.20145971938348883,-1.4258112232155293,-6.287132975226802,-2.8357671199382213,-6.506321309029092,-3.9628824387636072,2.270201458594348,-3.1908361684241022,-1.3747584354983045,-3.652450710252393,-4.676526013690273,-0.7551647369842579,-10.812006330046053,-3.851100450269491,-9.520253443484732,-5.655767835613283,-2.3916450204359343,-3.2321519604288107,-6.076369868241475,-4.370103150690245,-0.8226837852164988,-9.613717335149946,2.678059683835132,-4.081847398493317,-5.14346500683668,3.667982427877563,-7.893077563883624,-2.2911870659431095,-7.89664095625167,-6.668178447486185,-6.070371787112375,-2.4219693531866326,-4.548641963371873,-9.277499526979936,-1.881719765415929,-6.850152111277491,5.472535446725311,-6.358841047627401,-12.74524596535005,-5.0786488248134285,-19.55381486246708,-14.197562187850073,-15.516580128293597,-13.498171780299572,-14.361621891790834,-10.072002742973712,-12.557531910773044,-16.680090705875475,-11.96111896406206,-14.853079019203435,-4.520949802482233,-13.753266067085754
1669969952.901204,1669969953.896805,12.24395203590393,13.239552974700928,4.0,20.84185849711119,0,-4.15414415253141,2.3652906378132728,-9.78996111878644,-2.1883653010705544,-1.7257459775992636,-3.6756560144438617,-7.092260424313521,-4.8165712624637385,-8.011024806353637,-2.584029415794565,-0.37603826599969314,-7.9584529228499985,1.1145027080432086,-6.523884198563929,-1.2242785536347849,-1.8004947671885034,-8.232958419690126,-0.5051603290728736,-9.2247955556975,-3.0351981133071844,-1.4040056273375803,-0.34601432660929876,-1.748091289932617,-4.254878975402545,1.2718442592070953,-7.785442989032001,3.091473503412882,-3.5856591551235177,-5.140694374540188,3.807661707342618,-7.319197979205021,-2.3037826351082864,-4.768525876007104,-7.339270469283326,-4.254371557008836,-4.792559024710065,-5.791447007856734,-3.7436748647308704,-1.0234138628102805,-10.357582711636585,4.989614221514366,-9.608720973619665,-11.446284152567216,-5.890260407019849,-17.332520891784064,-12.209534499918806,-14.46787140033301,-15.050103819627134,-13.313069392848277,-14.048645901606536,-15.012160164441632,-14.42344944874966,-11.41932975808892,-18.05377816140245,-5.9584181089898,-15.937002084948627
1669969953.15108,1669969954.146682,12.49382781982422,13.489429950714111,4.0,24.67723723190605,0,-9.018583913453035,2.3365455414609038,-10.633387442118245,-4.87456963278863,-4.063714143790401,-5.612598432283953,-7.067116286756768,-4.477682361030116,-6.172233852675015,-3.050132323037521,-2.8828495195179777,-9.781249574636925,1.1652156184868787,-7.434158203415786,-3.172018842484176,2.6347726686438184,-6.308476386069046,-0.260091333294038,-9.398861112982589,-2.347676974109834,-0.41959652515772305,-2.8559523587888513,-1.9684549577795951,-2.435451766753765,1.9347115079355754,-5.891345434478289,0.5899773745007073,-4.022644265164698,-3.1054682982847917,-0.22185670596709878,-9.570475808381207,-4.141650149200286,-5.009318847160729,-3.676933348965294,-1.6730485155042145,-6.596099752132304,-8.582379100194409,-4.583862846943107,-2.8879535332562183,-9.428684822358246,4.418564858952312,-12.42330786291835,-12.996912569136175,-7.580546328142996,-19.065956972323278,-13.738041629639714,-15.140797155351384,-14.635578883137427,-13.720846952110497,-14.392613553469262,-15.050587377130762,-13.70245815018944,-12.754381034585263,-17.08622158354594,-7.752690519094805,-18.190755368989734
1669969953.400957,1669969954.396559,12.74370503425598,13.739306926727297,4.0,20.727451196007927,0,-5.395038232355925,1.2321271173518114,-11.568816368290086,-6.607905076021358,-4.9043145680273375,-2.9597481652199926,-4.822292647739488,-7.8868157912873595,-4.926315207503771,-3.3039950730730467,-5.107858269711989,-10.493878984067278,-1.2305903996945742,-8.178629000907181,-4.057364767891128,4.102275888716474,-7.772097371793658,-3.0004032406710035,-4.640036118100946,-5.540389282120527,-4.737616158250453,-8.166812321794321,-8.914682294411282,-5.529212021517256,-5.456575297969504,-9.671494379088118,5.313746905678172,-8.410327953797768,-4.2000955940955444,-0.1427592688621376,-11.481801540830839,-5.562669225136209,-3.8805019532026765,-2.743221518708901,-1.6194530510876535,-7.5033766790431935,-9.593925402816332,-6.201485418411696,-6.052720116212749,-11.324398534421691,3.8638219534661817,-8.591431662439597,-12.875247087936897,-9.0566466635038,-20.826051542747635,-18.444833885790487,-13.336107725677543,-12.847770603119972,-14.980596579029744,-15.851599194642507,-15.604319278536563,-14.554849437125734,-14.823184184383724,-18.4288769723332,-10.004716218574579,-14.514648345899255
1669969953.650833,1669969954.646435,12.99358081817627,13.989182949066162,4.0,23.075611982052482,0,-5.099163581225412,0.638374063736631,-7.947690926710667,-6.863642143600926,-7.36962039740967,-7.3322261248359455,-2.107106862394417,-7.797522685235899,-6.845504404920909,-4.009576086782517,-5.0512807994342435,-9.60094858838717,0.6798168690223347,-10.69606590518842,-6.148072755912317,3.913346810325215,-8.568994508662339,-1.9847171657192293,-3.8576782227754243,-10.328647185358095,-8.048862835355242,-8.322179158204102,-10.846325700946416,-8.831752985133718,-8.17205908378069,-12.970862869263089,4.224509498820402,-12.99242176100064,-7.936966899806324,1.8476573305108521,-10.669444481462547,-6.990756563884969,-6.922229736824692,-3.6501639825766583,-3.271329191008454,-9.700874608833542,-7.826318347104562,-6.626411594255237,-2.256410140797575,-10.285902874030024,4.151567103425248,-5.173901691363733,-13.374044745622156,-8.42580039648639,-18.03237338988331,-15.320252660498852,-13.65507843988576,-12.52807627180214,-14.73288103413237,-16.80014660021615,-17.149540753561677,-14.490815197640096,-11.73432865823653,-19.818397463208633,-8.865807866246358,-15.29407710636265
1669969953.90071,1669969954.896312,13.243458032608032,14.239059925079346,4.0,25.99280852831239,0,-6.474665805625051,-1.1235307364740348,-6.246597633160983,-6.629782142088385,-4.856692887783179,-7.6676733056007285,-3.1903590051473523,-4.967539756309947,-6.052287497073344,-4.54405568909262,-3.3965990724745563,-8.75518571880037,2.1011977581341625,-10.149492432556455,-10.658294868743619,3.0650999151773233,-9.698718416008496,0.3069742260487146,-3.184195524762817,-9.341093913813802,-6.633924947689847,-6.083538642622473,-6.029338690484726,-8.307087579271418,-3.8842164312572214,-9.283301250138114,0.5538621624449993,-10.699946928465511,-7.447869652842305,3.430439821816464,-9.858611914882985,-5.894519440153896,-7.1505592151760835,-5.461931632279173,-3.9191622110734037,-7.345317012868591,-3.0972323686596397,-6.287938998050889,-3.430694126106679,-9.14013240730756,2.738922439293198,-7.403183671835851,-15.20702942754901,-4.729551169098031,-16.10140151308356,-12.201814610276047,-12.855149821131127,-12.702428472712015,-14.002331246887964,-14.96019135172099,-14.639636077300914,-15.086660372101505,-11.973499569941366,-20.122946361062347,-6.208449497720885,-13.976637568260816
1669969954.150586,1669969955.146188,13.49333381652832,14.488935947418211,4.0,23.98458577598332,0,-5.753678544093877,1.7187531037115336,-8.4849985422872,-3.7183497319447767,-2.704314624375372,-5.3800724357889855,-4.712863600333402,-3.388744002410803,-3.7630423266944484,-4.643173360630354,-4.188820389213919,-9.784997598917137,2.344272102990834,-11.213620799991926,-13.541215145527275,3.2514324630897833,-13.667000362106677,0.20237078474466919,-4.168085870916227,-4.817812182373186,-6.084768606825018,-7.771132718271683,-9.516464557485886,-9.531206837051224,-1.7758843047178863,-6.302195184212083,2.9825109172550968,-8.602833212739572,-4.580678998591189,3.1670000789433015,-10.083924715761155,-6.108860865469589,-6.4479535912540955,-4.727500603092566,-5.698302845568461,-4.567284827760728,-2.666763505067525,-3.348569581403206,-7.176573480204015,-7.709609757149717,2.6351152761121757,-8.004637818207554,-14.975011619152095,-5.13179082739748,-18.76820005276442,-14.618984651203258,-15.441704170934564,-14.843356334577322,-14.114605146700448,-16.002434241851937,-14.222792943703617,-14.967565351997052,-13.9903167867757,-18.771359534395106,-4.868546191380502,-13.080718194762632
1669969954.400463,1669969955.396065,13.743211030960085,14.738812923431396,4.0,22.6855168586068,0,-5.260410061271475,2.4555281106882427,-11.15191480174013,-2.496831681514345,-4.085205538428356,-3.9309005118655707,-4.1441135906874536,-2.994009854704766,-2.7474499721851697,-4.223945423113888,-6.924189206782934,-12.053392810178885,3.369914241113716,-6.800770807687382,-8.393853725843792,4.93487227602878,-12.81675644844854,1.379955610806551,-5.919532214301828,-4.30188905729162,-0.7590212135808563,-5.682939821151322,-6.945346866913767,-8.912339668115376,-0.9039822144990567,-7.558955700131373,1.7980135914070796,-5.297765971461921,-5.940863680471843,2.240244302402344,-9.836290893888778,-4.693775056611543,-5.803840751619585,-5.38689556906562,-2.8196519299929115,-7.407559802933465,-8.158827725160917,-6.254910938561771,-2.8229189576968823,-6.33530391886195,1.9601036352745316,-7.111680412726371,-14.335549791667539,-6.874630389246047,-17.56543185537968,-17.00967054234184,-16.322245230602885,-16.840124809172806,-10.112420733070497,-19.04260623715928,-19.134463693861193,-16.27179579407271,-15.126864725948517,-16.028528577967595,-5.121674087525488,-13.739007718299256
1669969954.650339,1669969955.645941,13.993086814880373,14.988688945770264,4.0,26.172213706071506,0,-4.12507534827213,3.966071345235251,-12.681998614164133,-3.0987315052034803,-7.1188242759793035,-1.8679608306625979,-4.111586445209187,-7.057953811412396,-2.910338071206417,-7.823316344321434,-7.782361356214709,-11.740253962458805,3.2855120588802307,-6.530076179616914,-5.00494596322822,3.0536811054499626,-11.62186904343602,3.3165415160409752,-5.609594399659804,-4.044480953915679,-1.558318877061575,-7.405412648873356,-5.227705876107464,-8.481143173958863,-1.4440299250466166,-9.308022637288113,5.097163598185657,-6.7399407258056065,-5.477909644034527,2.2654959154746126,-8.21512658987006,-5.635273004103399,-5.55582069333957,-8.440583062631937,-5.533663004782357,-10.773080911976358,-11.178082130433447,-5.872119823996336,-2.1239251409191806,-7.716084710752002,1.79185365800332,-7.704957198580816,-12.247105154701272,-7.30802053555109,-15.38958843334935,-17.32534749752125,-13.591066986677117,-16.07854144990077,-12.584978301912502,-16.72896949915485,-19.776518173113796,-14.58943220037379,-12.506719241314798,-16.523284404874637,-6.371083644545813,-13.511382927224966
1669969954.900216,1669969955.895818,14.242964029312134,15.238565921783447,4.0,21.548053953614538,0,-4.875092648363153,2.4562520214466104,-12.503450855612975,-5.34444448536723,-7.010929162816791,-3.934730072006609,-3.791955563233139,-5.626624822167612,-4.479796120500165,-6.9431920061523815,-6.702659672520923,-10.115813127406241,5.791689227233274,-4.480987226170124,-4.377684030666195,-2.2724816764426197,-10.53426287334726,0.5518531179815102,-0.34122033664584905,-4.304184720029842,-5.66102616677073,-5.872102519565315,-8.142393145068663,-3.380019108215163,1.7568175741656429,-8.755467260376417,4.861340756065768,-4.4743763684363085,-2.1136189207053353,3.343815937336996,-9.26142685905399,-6.5472907645288005,-5.739180034643647,-9.324073398472231,-5.9427624231202945,-7.2801651820909585,-9.783085630307994,-6.917542517989177,-5.863942496981435,-8.957694279642862,0.7005702828954042,-4.39230713941417,-10.323838843662983,-9.47963787149464,-19.572978531128555,-18.316856018504502,-15.717157816012424,-14.903113311146264,-15.160877669007027,-15.253156568639067,-16.64074179987443,-16.32124958394045,-12.237032020865314,-20.80600826024497,-8.721192641412182,-12.762815570126342
1669969955.150092,1669969956.145694,14.492839813232422,15.488441944122314,4.0,21.108918041647463,0,-2.7351389689995727,-3.4541184181713316,-12.417282846423031,-3.7877876092392153,-5.366465531098403,-7.5431533716234345,-4.3694172997313485,-3.6219930517328174,-3.9264796443057906,-7.860191353589889,-5.709730603115997,-12.660372626656113,6.197589730441713,-5.3606510933249085,-3.7462316302759335,-0.2623953017517879,-8.618097737855825,-3.032754654901214,-2.0472581814862294,-3.496870714242907,-3.284076378371876,-3.1501008732644227,-6.4466913232533996,-1.8072753797946124,-0.14796513350338733,-9.2005487994858,5.75396078579932,-6.233007462222325,-2.2476116392541647,2.467348226145011,-11.270984461961039,-6.9666887640317965,-6.726399679401858,-7.380086533855747,-3.0561160414512174,-4.059477260310878,-8.939726494280407,-7.9758906185168215,-5.825662838105393,-10.411757464032522,0.20822315455897009,-3.292197636077309,-11.004011565620882,-8.78930692584637,-20.003409539318277,-17.221501844476442,-15.225082965344994,-14.262978554461485,-11.51606740657169,-13.459457370666374,-16.789474005602074,-15.948975868348,-11.572170705865892,-18.438293059102538,-7.613568625159819,-11.73224423625415
1669969955.399969,1669969956.395571,14.742717027664185,15.738318920135498,4.0,23.86869472069761,0,-4.492907476026774,3.5323771562173576,-11.296223282611068,-0.7192781601203962,-7.265147769033423,-8.062467285191842,-7.857379414383199,-8.036675551969289,-6.78451770774012,-6.173740612142567,-3.8658413274729995,-14.9160409438443,3.3727167008558157,-8.176753006320478,-1.0921497088445686,1.1254549310435082,-6.362975261238847,-3.1450552684726496,-9.609013116781428,-1.9433910666398024,-2.5422909669274194,-3.7716697504979866,-6.242404751726855,-3.795205108615693,-3.265095730444142,-11.885826252696,7.761801915376609,-7.833773744137903,-1.8858269505596947,0.9406695516703222,-9.433457776957649,-3.464855555639824,-7.127027745369572,-2.239670716866799,-1.5486729521377842,-4.964205098491675,-6.222530841382885,-7.088466047613159,-3.824988440695548,-10.388179089204481,4.0154385934102965,-6.359548918240159,-13.206702320109471,-6.699133240934431,-17.661426887442705,-12.477417980399103,-15.63196759333476,-14.892454516621356,-13.354156021398696,-14.922478999338844,-15.651306287763763,-15.492490405368837,-13.823798201255562,-15.713288294290793,-7.305621733330357,-14.527614965848858
1669969955.649846,1669969956.645448,14.992594003677368,15.988195896148682,4.0,20.30734041942605,0,-6.777840914104897,7.402419932785639,-9.149107154855463,0.5594846459666941,-5.937218331861618,-8.846656973471736,-7.164511031813875,-9.890023991586414,-9.622915001717011,-5.732989197725517,-2.547948259088952,-9.302462630878741,2.1068416998962065,-7.586368709228952,-2.6511239625703613,4.792779320893049,-6.526034975166489,-1.0533807802727377,-7.212586112484573,-0.833190365235421,-2.7315081080334203,-9.03487177667045,-7.238306831836619,-7.8383378368074865,-2.303498997675956,-12.309458527623693,7.350355800739772,-5.654638230551758,-4.003926143250309,2.452650883926084,-9.050918768108795,-1.8963385364908563,-6.256044050391278,-2.6356325761677346,-3.596603948540675,-5.8843984241252345,-6.852376155645735,-6.075952911852264,-5.809977577395468,-12.331472092907905,4.271266719708953,-8.341568453080445,-15.860542251093843,-5.445760881681573,-18.13079094622212,-11.236410013718999,-14.328036073181647,-14.385958866130109,-14.665148044192055,-14.524715389031686,-16.339196846340243,-15.022365746944907,-14.541040019350561,-19.22677518015933,-6.587061555027053,-13.502901341831016
1669969955.899722,1669969956.895324,15.242470026016235,16.23807191848755,4.0,22.70711140635263,0,-4.532422969303584,5.481023728189031,-10.035026561958311,-2.9305035354697404,-3.7333306354296933,-5.781843768042586,-6.813871808026076,-10.129152100080889,-7.653199145790829,-5.045140907782226,-3.4730822534699834,-9.96511012443727,3.6172718709751894,-8.90310590053092,-2.1486099689621927,5.110502262607249,-11.642392673021607,0.4699517417362032,-6.323450608171855,-2.070186011534733,-0.8344445785297308,-10.964455687065248,-8.971213323381361,-11.269043247677002,-2.2795089462494817,-10.707380854540997,5.4959268908659595,-4.534574972654078,-5.753693967094114,2.3959870942178947,-7.144985178013389,-2.317676312570782,-2.030839561365902,-3.584730951275808,-3.899346990924376,-7.703602568212711,-5.942726479419833,-4.97173619446312,-2.085268023575446,-9.382771424332223,3.46859142713924,-7.959385932033567,-12.560336712857838,-4.879340090679174,-16.643790321258606,-12.319516686892399,-11.464739520273255,-16.66734148121045,-11.719810997947981,-15.358859146835098,-13.859134437594328,-13.800894807689673,-12.509317201081808,-18.040205501424435,-5.540991742849424,-12.169651370136155
1669969956.149599,1669969957.145201,15.49234700202942,16.487948894500732,4.0,22.07312439702169,0,-4.5369550634993985,4.188546643790311,-9.295080641897528,-1.4949936672724498,-1.7084603840364467,-0.7209632293871073,-3.066433960262314,-1.932611397657396,-1.0851722920482394,-1.6157816206581033,-3.0916929254926453,-11.737036085556625,6.108230705710587,-11.680858016791406,-4.557702946258868,4.769842613628056,-12.648945436961823,-2.1608607449747037,-4.6897120256521,-4.172185446426495,-2.769267718961963,-8.911747659861422,-8.660010176643555,-9.794594472414879,-3.4480055860034025,-12.091231460859305,4.54949357764395,-7.327569295625908,-3.539000507490776,3.7519987150944436,-10.737862798770873,-4.424294031920105,-2.3660281820957536,-3.369749801394963,-5.047670628891215,-6.55827091662575,-4.2525375160353205,-5.093393936974016,-2.00322457736792,-6.594854547682026,1.7674222835395907,-5.725033094725646,-9.948862463274978,-6.827949104140396,-18.106457806671173,-13.062663917910317,-10.057224860099394,-17.098040057061624,-13.40830878683678,-15.142576855485592,-12.215036426234601,-17.048450122178117,-14.008719677277597,-16.425532692557784,-3.9313919803202224,-13.071637824526732
1669969956.399475,1669969957.395077,15.742223024368286,16.7378249168396,4.0,24.588088970796207,0,-4.941443128945357,5.503962035239708,-9.012183185752004,-2.3588012107056997,-0.6441967444207832,-3.059162996733577,-1.982820804201686,-1.8756091926960736,-2.7580827745505623,-2.7825392712088988,-4.785400490692599,-8.025290621559579,4.286303225771762,-8.208224203571612,-12.25491225669404,5.470793949624682,-12.670487772895601,-2.60666635042242,-2.7123135471931747,-7.139527718288198,-4.759999498137227,-3.8829632048212965,-4.366809115609241,-8.257656707651577,-3.145884666478253,-12.673980775865179,1.8417984410101456,-10.074385541040844,-5.0828435986856935,4.649291206859241,-14.945609896162129,-1.2883666517699752,-3.7622468569564314,-4.8330313471469655,-5.1299105110570515,-6.253806333369582,-6.930429842287456,-6.378244986945933,-4.431596612111944,-8.928521850957186,2.395286915837133,-4.725029950011046,-11.85701906037812,-4.030632500678125,-20.18967439124428,-11.301144193596517,-12.318108533595026,-14.911154898987942,-14.703633731824826,-15.112281308129612,-15.464151051893595,-18.135383134240854,-16.444589836309635,-16.927182783593803,-5.466919271341632,-12.14065474493612
1669969956.649352,1669969957.644954,15.99210000038147,16.987701892852783,4.0,23.7343888450164,0,-3.8582429270258665,3.5330054602263767,-7.261655429125408,-4.960110713666673,-4.847246839681684,-5.504491843604868,-7.161910730885831,-5.428286783626684,-8.109368278316014,-4.035811148716446,-6.285781710526973,-9.755163152309592,2.24076224379989,-5.9924608685451535,-5.620071517983554,3.524025845996508,-10.383581200341588,-2.2175122599669383,-4.025032741486408,-1.7100182315893717,-1.065759908510411,-4.1902142816021914,-5.2811625775799085,-5.859661528824685,-0.7503570367269302,-12.207108793455122,-1.1616500708781272,-9.430895706757042,-3.230614135841865,1.2797272119771046,-11.844771186059763,-1.023116022179916,-5.891576035923112,-5.9221552904967805,-6.703998700252207,-7.147058871910942,-7.0163953432327295,-7.557600983399553,-3.829912655459975,-14.430736832837825,2.3187253459857087,-6.549798506443626,-8.997813224294815,-5.8697857387949135,-17.371728876274894,-13.038086947439865,-15.317646644617405,-14.463804290682383,-13.615888194257412,-15.672449599178124,-13.646554183619939,-19.092002107994517,-13.04972332954208,-17.169794371794488,-8.384669008374372,-12.28491366035078
1669969956.899228,1669969957.89483,16.241976022720337,17.23757791519165,4.0,20.560551092640665,0,-6.705470314593374,2.2091601112953088,-10.027965117671013,-5.168598755110153,-6.402516356205714,-7.974340988833867,-5.549632689071865,-3.804156450377766,-5.626195748788984,-6.895739205675238,-4.465626450148496,-11.54700413470213,0.6808612018008131,-6.178307137025582,-4.849870714685554,2.0848592206587475,-10.306696063530211,0.5167936646055122,-7.4079337584221765,-3.2294641721940187,-1.3644273011530768,-7.38112057177335,-9.962190325314761,-3.8342716043126885,0.27628013902800574,-11.09063319084936,4.026225058610517,-9.507232151854135,-2.2387898920726226,2.001493040447209,-11.092140372265726,-2.9559522094346997,-5.6221342845814455,-5.013037403912529,-3.47905888906636,-7.20505274287889,-6.107107688704478,-8.359508220340635,-2.255285175746499,-16.973440735679297,0.6872079752161471,-7.546669452445901,-10.125144860152691,-7.071540597031561,-19.624337903891714,-11.325607489078127,-14.519876152338407,-16.7279332188427,-14.987653377906845,-18.094345752214505,-13.663114221626468,-18.299151868113963,-13.641104149768902,-20.010055431720154,-8.193617056190257,-14.93969629211623
1669969957.149105,1669969958.144707,16.49185299873352,17.487454891204834,4.0,24.539475987037093,0,-7.4508621666018975,0.8708066983775136,-14.034951230953352,-7.258051096450594,-5.37669097429189,-8.372248801487952,-5.933606668935051,-1.5011797453371907,-6.9801770836117605,-7.065554547410391,-1.0512268111175402,-12.82977663376756,1.6534265451844656,-5.1693607951549,-7.222763388339671,2.9388503736277345,-11.266238224538176,-0.9396398813894481,-7.101150106776154,-5.786442797256716,-2.5607053876381736,-7.538452142805712,-9.541789705756525,-3.2309273840249957,-0.4070078887960992,-9.18435641608938,4.337574477640109,-9.714913829277416,-2.8717632385778553,0.13880042680348761,-12.912298726191986,-3.1238908275997535,-6.707793052400234,-6.876312698411249,-5.845431888657673,-3.942059986605786,-5.49388381185442,-8.36260205225421,-2.209198773424734,-12.328127577050743,1.8710282602370976,-4.422350303237021,-16.47552952549859,-7.599595337240139,-22.76438236545324,-11.108531964625858,-14.136597323051877,-14.94747331625062,-17.058419869078286,-13.568417702473868,-13.888682194421808,-15.91662691459306,-14.359843031148348,-20.73895374302233,-6.587611824333459,-12.980122899384728
1669969957.398981,1669969958.394583,16.741729021072388,17.7373309135437,4.0,40.24345180237794,0,-6.150099227604984,-1.4597017548050484,-15.659514370342363,-6.740836329320694,-5.77297820843545,-6.496861263872102,-5.632252320945942,-5.077230870020763,-10.008412519320995,-6.06472437202669,-2.0211280525791198,-12.529866988247209,3.1083022289585704,1.385240742218544,-4.949089867122391,2.688596509831522,-9.84764126683039,-4.394408058362423,-6.317957867360025,-8.216037892199747,-3.6467504211310997,-8.37265081053741,-6.794549927237003,-6.199350018013553,-4.779140093395002,-6.827683451488095,0.662358717202223,-0.7809966742248988,-6.110375995378322,1.0414885979075164,-13.842870898893253,-6.220863239100087,-6.22352146762011,-5.603368414879616,-8.116056037582277,-3.530863384737933,-6.668045752445079,-5.4611570784970285,-6.649251974453367,-7.752795346469107,0.7495458577734646,-2.253583813621158,-16.43178827450394,-9.372906219763493,-21.366132844041644,-13.325165388826877,-16.164461345356848,-15.782054255050413,-13.236440722276505,-12.291163210432991,-14.059138643369755,-12.617322412859785,-15.587902685820607,-19.568709571646096,-4.964405354737029,-11.453345369257104
1669969957.648858,1669969958.64446,16.99160599708557,17.987207889556885,4.0,110.14619550206069,0,-10.905668088074611,-1.2239858152456975,-12.403649820859252,-5.822468528629567,-4.8033105672219705,-3.1813025432545583,-6.479028761053492,-4.27002326703328,-8.844920780788776,-9.147184772163676,-4.149924668750073,-11.263244413242868,7.484928853573072,5.141257077755976,-3.2048005102541084,-1.020456499760247,-9.094587293830669,0.5349242971094605,-9.383472191028957,-7.4838354296600915,-6.673083040708607,-7.91076296207799,-5.7753065838762465,-6.718924702547955,-3.3530535426423604,-10.378126399672109,-0.040155468659356985,2.695807221574575,-10.25497796046917,0.7186134441169533,-14.555092138907415,-4.175508626031682,-6.923224928779272,-7.164314652768603,-7.269471885352015,-8.705598992754526,-9.771596756017233,-5.179242023742448,-4.01524192975408,-8.841956536275575,1.4644525080661008,0.5129970801395298,-14.254778190321316,-8.309887287296254,-20.827500734235112,-16.247342144915994,-17.339721313477508,-17.083505283046037,-12.456807486435695,-16.876844590546533,-17.713647546929355,-13.81752415619627,-12.103622254939822,-19.271672976740724,-6.907915274195284,-10.090409319673983
1669969957.898735,1669969958.894337,17.241482973098755,18.23708486557007,4.0,123.01702110949053,0,-9.094251616814145,-0.8352496772707181,-9.702491120303016,-3.7402871883566933,-4.740327714661702,-2.575427760252296,-5.88112500400391,-7.113599168141923,-6.89122796221378,-7.639244965084737,-4.141360117502158,-13.496462188215204,11.114029530440918,-0.6500065888687985,-3.879580942484976,-0.8358889815938662,-8.233998370736094,-0.18359434830344545,-8.979396233763108,-2.9213931569052236,-4.13059130692686,-5.172710534475473,-9.373288685321961,-8.177037924164452,-0.3710006674349062,-9.194590026863855,3.3831303689633656,-1.2440301743640134,-6.8972616930558175,2.2818946853134925,-14.166228190678805,-5.73770657137233,-8.682342158176251,-6.588673877925201,-2.994109585818853,-11.508655141848653,-10.19291458309012,-3.486936452776448,-2.862154105944335,-10.86526078635998,5.07156697350521,-3.223836133631292,-12.595144548240256,-6.167028670221024,-21.306240930372972,-16.584505949549374,-18.099887231141413,-17.310279408923645,-11.069781317249412,-17.895058796406325,-16.177339492714673,-10.692606240316657,-11.384856181553896,-17.943867409812,-6.2539229767605296,-13.168074998898039
1669969958.148611,1669969959.144213,17.491358995437622,18.486960887908936,4.0,125.96295945777541,0,-7.799551217960785,-3.3758320960853627,-9.647686296395905,-3.1880181453534795,-7.698260683177855,-5.108051903284316,-4.877636238361459,-7.243356636128793,-5.631678114239077,-9.429147239046396,-4.163244979893028,-11.230352862212708,5.476648845634243,-6.274574786449189,-3.639540136616816,-0.9469870756335108,-6.9819730395032,-4.83200237443076,-7.850391505596441,-4.774553340979627,-2.9861003151495917,-5.7891835972692,-6.978015324282769,-6.27342810131172,-1.9432340826552108,-12.673208088267424,2.0736054853350177,-6.402073677872023,-7.487128583188749,1.697312761820315,-13.16710843208201,-10.27166258618049,-5.417566196197533,-5.5471303600550605,-5.044376003560015,-11.670689057385017,-8.199166159085198,-4.932952710751622,-2.856865115355944,-13.06822990698091,2.2234370535481855,-8.28921505531699,-12.95725193167396,-7.259035666752829,-21.7426160624617,-16.289172058842553,-15.641919603647395,-17.599798384943007,-13.623166566423325,-18.600959605455316,-15.449492270218624,-12.33344741595351,-11.294384279803825,-18.677626921964624,-5.879872664210957,-16.17958129405543
1669969958.398488,1669969959.39409,17.741235971450806,18.73683786392212,4.0,121.75560641790176,0,-7.284731603618995,-1.1480929565429296,-10.422303669507434,-2.2504915118066444,-10.939057062447056,-4.875587233496878,-5.87922079865415,-1.5059032339695855,-2.5988984084792444,-6.183012985161755,-4.303738431212466,-15.38150768013159,-0.8061637298080129,-9.6907623346426,-3.8780181212774845,1.2169655541985545,-6.438005424214191,-4.072329707174803,-2.9925520545416173,-4.365331480732378,-1.2655816104025468,-7.4098471765522955,-1.1887282966633284,-3.1877760970602487,-2.1532122465787022,-12.231818994660896,3.8058959612472276,-8.688863611513757,-6.183623470517561,1.9186615551413697,-12.782953336659205,-5.084968508592183,-6.569252177518012,-3.8768973187890365,-5.742134214124331,-4.863319602425523,-6.009923764764524,-7.277243964024236,-4.261782958118325,-10.979179360909558,2.11561951299145,-4.102880331061069,-15.146228540872412,-7.076926542151688,-24.227332983037,-13.444850844243145,-13.662936412320082,-11.902910804857129,-14.453184906069197,-14.709585349509357,-16.871996419949557,-14.281282018133354,-12.317704805101178,-17.404670644533027,-8.095934063435367,-14.004715010727164
1669969958.648364,1669969959.643966,17.991111993789673,18.986713886260983,4.0,67.53791844462376,0,-5.9281670290869215,-0.24930031682769427,-9.101494075572814,-5.035637542906947,-9.662676040079763,-7.868389908097518,-3.324150264896022,-1.5140750787177537,-2.0757576521555974,-4.743441536790493,-2.7085160549084963,-13.917149784135844,0.29112777906948095,-8.613967394005876,-6.502567246656086,-2.488090332421341,-10.200077778753563,-3.5384650980528893,-4.054170011094333,-2.198540025278561,-2.5379054053179138,-13.182033573929928,-3.7583991987654723,-7.2042808434847805,-0.9818409081966348,-10.123437252312286,4.738332864394633,-8.404115012686859,-3.8488755766778926,0.6785991837014085,-12.868132418411955,-3.6660357564202273,-8.543354610813225,-2.7317479199172223,-3.9428866679766825,-3.677989626735909,-4.75337142137076,-5.166449557011151,-1.6169673663240713,-8.631696471592393,5.014848771842624,-3.9206602694986263,-13.104633748312352,-8.220344670486352,-18.483064711921468,-15.448920790895937,-13.785056472036194,-9.622754195917063,-13.333774642797803,-15.058642829150223,-17.39705453206864,-15.254679100307488,-11.073896538463062,-16.623618981096875,-5.219478670884829,-12.93678593619764
1669969958.898241,1669969959.893843,18.240988969802856,19.23659086227417,4.0,22.52467502436299,0,-5.020158675188443,-0.528844604711151,-10.534604374630575,-5.978235690036858,-7.7920109704597245,-10.301756372912955,-2.8220383084418477,-5.574742333467815,-5.4132068876619375,-7.917518157534644,-4.094539634358173,-10.313325943619095,0.10600416491864156,-9.810471316475928,-4.990375552259392,-3.483049837159498,-11.222638300321673,-5.57294315125655,-3.6299386446482336,-0.9753278373679815,-4.276749214508328,-9.313401887382518,-14.301901555850026,-9.307950000090873,1.8243344363690106,-8.909119208744539,3.278600662405205,-4.124003003163085,-3.385385981713052,0.3743320642740244,-11.331775851521384,-8.540534284729532,-7.965760431279727,-6.266383041717354,-4.853314260937626,-4.334455945433162,-5.140451622684004,-4.694990946474599,-4.903701685015734,-11.909153456963592,4.520689365764633,-7.326360187333327,-13.724134207879807,-6.025123946333632,-17.942979691226483,-18.06587644725561,-15.02235599985557,-14.482770025294343,-17.967537378970707,-16.395563760899364,-16.857223101864818,-17.042023103638208,-13.098058355478589,-17.55671753140724,-2.9486908401690797,-18.932532754087767
1669969959.148117,1669969960.143719,18.490864992141724,19.48646688461304,4.0,37.260375869741885,0,-5.629673880771508,4.337351828786775,-9.075218177455355,-7.29739983113234,-7.562111059591393,-9.766955537149048,-6.557113687542903,-9.338363759189939,-9.185241977449826,-6.357985040783355,-3.3420318698186797,-12.580161390714801,1.7115631414367822,-9.535614419808123,-2.650945842756838,0.21320453600570974,-8.16491247476382,-7.848659580441457,-3.4224875911784194,-3.971280727126544,-3.485243091912685,-4.805832339595225,-13.613119515920356,-4.57813870077649,-0.32231592486332494,-10.677879004356,-3.1530667630643006,-3.9699013311888915,-2.652308701768818,2.976652995097577,-10.168538534644993,-8.442711583881309,-6.5648046797927115,-7.477524523941506,-5.564899272583811,-2.9822360632363365,-3.986107381021214,-6.514893334366203,-8.44050249049253,-11.5779549434384,1.3057151128792377,-7.500381849401542,-14.056504656236058,-5.832050961759961,-19.64670269275828,-16.397020290386596,-15.168922866047048,-15.554164595482487,-15.503779924861218,-16.552246277811037,-14.069958424376868,-18.979441104814853,-13.364271351626025,-17.86955884255139,-5.590566401688035,-19.02208996468028
1669969959.397994,1669969960.393596,18.740741968154907,19.73634386062622,4.0,49.754578777907724,0,-7.967087438389916,4.25810405538895,-8.696463736579798,-6.767740098619611,-12.083563977242838,-9.834726081760959,-6.244386026251814,-12.569351716786967,-7.874281791970242,-5.365508838105249,-2.519143566401363,-11.323278146122764,2.6978783484401268,5.897404662524456,-3.619315573828526,1.5595799866755724,-9.77972837281201,-4.687874475296582,-3.9876338780870797,-2.518593866243167,-4.183215545167878,-0.23961521589768936,-7.264739321994146,-4.934144795462086,1.1977627606276775,-11.382459173981038,-4.301744460681839,-2.08265340255429,-4.165918977686096,3.8821502693111287,-11.292794929213379,-5.663566250722986,-5.7048835898496275,-5.222174297061302,-5.647176392405555,-6.478061655047894,-9.081235074891447,-7.621678181473673,-5.340347527444548,-11.650735936620048,-0.398295136844335,-1.0256843241674944,-12.75551100768893,-7.72433141253746,-20.108645410497946,-13.81867744253515,-16.098744071609936,-13.60294437404658,-15.871495786056276,-16.712666286603746,-15.163455600089577,-15.385844995225257,-13.034575279222164,-21.44466394008903,-8.232800433793475,-8.327022833864865
1669969959.64787,1669969960.643472,18.99061799049377,19.986219882965088,4.0,50.94579969754513,0,-6.256982796688572,2.256427952514144,-8.079604939290002,-1.9515632425195828,-12.168220678569593,-7.682056798002891,-6.1036057574230975,-13.822018686932696,-9.95070749916776,-7.055283991428855,-2.605815995829363,-8.70998954282716,2.1663422669480425,8.366639141145843,-4.550479314874414,2.96959815474086,-8.86930486798825,0.4144805217362391,-3.763219172868286,-3.1273581421576164,-5.394361998851219,-3.589763869535578,-8.429712925469163,-8.359023952640088,-0.9657757428801108,-12.565398402849851,-5.617056237305396,2.393710077981458,-6.225695876162166,2.0563215111356907,-8.518681934445107,-0.8498948202556587,-4.547009272497089,-4.572527641465297,-6.757658737431705,-12.318016140455759,-10.505356995264863,-8.631146382505436,-4.357423798518293,-9.598002372493378,-0.5635953095589533,1.1761902599961234,-15.003045470688336,-7.104993150395126,-17.64322946333622,-12.867370598185008,-17.019110040187698,-13.320194892144858,-15.761810648141012,-18.980897911190567,-16.88296001736784,-13.974068367228565,-13.07161203858646,-19.396533799607994,-8.64465275582876,-5.8452099346858795
1669969959.897747,1669969960.893349,19.24049496650696,20.23609685897827,4.0,52.00521213052203,0,-2.108393147266158,0.8290908070851076,-11.157162775042078,1.478309392347553,-9.207219761740863,-8.443052851842424,-9.362325179718649,-11.107244088391644,-11.560721821453797,-8.524045216234224,-4.016383031035645,-8.153170226682949,-0.2533183890194969,0.9631067483301813,-4.765275390956475,1.000929616292581,-7.743667154360539,3.8213001305892806,-3.278633135131201,-3.1760144199489786,-3.1641734897672533,-6.222689700595122,-7.925605600195821,-7.597307632234544,-2.8602872215378765,-11.723697882171614,-1.788280371749587,-2.94186137520303,-3.893934274790753,1.8775346702572597,-9.24387063643819,-0.3047697723267957,-1.7807800213528902,-6.175592540028419,-7.633137449143178,-7.8659860207199515,-8.10501646364494,-9.845664646757815,-4.992306082094988,-5.762794579169441,-0.9192977405445057,-4.79393801503951,-11.654477568195905,-6.381795757085333,-20.039753243277683,-12.598254623871446,-16.333521958990723,-14.396317427900982,-15.146180488456984,-18.808461983735597,-15.88915090102281,-13.485624707733477,-17.780128280066364,-14.60649390587362,-11.701536617776098,-13.269434192849815
1669969960.147624,1669969961.143226,19.49037194252014,20.48597383499145,4.0,32.934187499725255,0,-4.266311662648504,-0.9216167264011537,-9.413099059838462,-2.9125513161526015,-5.411097652447101,-11.091221019689696,-8.248374609971885,-7.190624487832157,-9.78699510578069,-10.220827073044266,-3.493746172077289,-9.181344684190547,3.003557061093354,-5.725485431618833,-7.644620892380255,1.1842155723210015,-9.477831540060821,0.180320976361453,-4.910815078630326,-4.60237704044437,-1.9562989043984946,-4.1100017436690575,-6.732754185793839,-6.659663695627892,-1.9506567502356986,-8.525160521672536,5.217545927747328,-7.854411607683247,-4.362998143751336,3.1907307102850595,-9.375664264020575,-2.671615033903427,-1.3031817400212282,-5.480246893932748,-5.41505716789211,-4.8783601694967755,-6.057849632855843,-5.4215061808717415,-1.729497983222137,-8.626140297679862,5.245581883173656,-6.768430729104265,-12.377598353630173,-8.092228094811839,-21.02203963953784,-12.747615028439283,-13.545151337089132,-13.802698603713337,-13.011521657050436,-16.26610089929234,-15.945327871041412,-12.818822683124868,-16.604459646883008,-17.692011027746673,-9.359890024055446,-17.050262151607576
1669969960.3975,1669969961.393102,19.74024796485901,20.73584985733032,4.0,24.54032064608661,0,-8.888394321186034,2.7784333460752615,-9.900447572228469,-5.328977918114979,-3.403957635923387,-7.318974541490979,-5.687558838379699,-8.037620102705361,-11.660884766735666,-9.219780293337598,-4.20858392996538,-10.337060595436373,4.347128038110314,-6.637455905387314,-5.989421640259965,4.334989860513316,-8.737923683927432,-1.7681162649983728,-6.597870033054788,-2.858168696633261,-1.9585937567160416,-5.974555518634236,-6.8528247841152,-6.608335792601555,-0.7653839330646545,-6.007611360074153,6.720083281231002,-5.129858263360964,-4.309004360277618,4.666756713657121,-12.257751732955622,-3.784578681789455,-3.237737682952242,-1.1883722831409351,-3.21545810885529,-7.114845443805667,-5.126618704110158,-3.9419103019809807,-0.8257576742573123,-7.181923775683686,4.8814675737064235,-4.095045573528203,-12.488176734456948,-7.202514145780561,-20.602980943569378,-14.732000044571972,-11.508352330785298,-12.505864211766655,-11.661625375684167,-16.55894060015385,-13.380060358418557,-13.623120971236,-12.092407537979655,-19.487619949541944,-6.143264696761685,-13.00228205406686
1669969960.647377,1669969961.642979,19.990124940872192,20.985726833343502,4.0,18.744346747484187,0,-7.0593275043728765,1.2651162183453912,-9.306952893534557,-4.6939494991265995,-6.11928531859263,-6.34222310481205,-5.778984642552373,-9.084610641716116,-12.361438584086228,-7.6991653684503465,-7.218167084390941,-12.344313283624423,3.570184492775173,-5.696334339031227,-6.282130571464144,-0.5932475266613616,-9.33253234816247,-5.180435906891269,-8.136513382756576,-3.0156728927798104,-4.955133870543689,-7.196547493264589,-10.524614304517382,-7.442403171797745,-2.6168461437951707,-8.165032694559816,1.8893116104583496,-6.717717884618157,-4.924945044427391,0.35382765172442865,-13.97460427336984,-6.647297867065323,-3.6085487639664695,-0.9207007410725953,-4.915171886504907,-8.609332949042873,-6.287171888333458,-6.69882828582955,-3.534814859134168,-9.510783461542296,0.17345869014068757,-3.8540255748013874,-13.122060921009579,-9.919064713918575,-21.327436399730267,-14.146465232289675,-12.863352025204087,-12.233885632421654,-15.85318908987297,-17.08970930385633,-14.15320795018091,-15.707940025670341,-12.191295051175064,-17.6840914003838,-9.823088422183961,-11.592740484127885
1669969960.897253,1669969961.892855,20.24000096321106,21.235602855682373,4.0,18.0158330713015,0,-9.41211090555167,1.7438443509001078,-11.11199117659713,-6.235567995433956,-5.278934759832127,-7.248034669336459,-3.3569460780571436,-6.417066673836185,-7.517879425169246,-5.162250185639829,-5.7959306479153705,-11.01441882790261,3.6838552733293417,-6.348463692754258,-8.753733212678293,-1.5728506126752826,-11.520854370496679,-6.523755133418198,-6.59437413278078,-2.497605469203805,-7.846955060583422,-10.01201371117749,-7.707438920595255,-7.438853673451547,-5.202055111594555,-9.545579516793275,0.2163455095179578,-7.9247410688714135,-5.950291623636444,1.0822634983572696,-13.113389302882787,-4.9760738795256145,-4.948069429595279,-4.53976666464847,-5.093261601427824,-7.684195053950584,-6.6455890207644766,-7.461112484046986,-5.014020261249516,-9.334200022491173,0.11066844051740002,-5.860924565033274,-15.21690470975975,-9.703228278629691,-20.04522647588248,-16.07502447508959,-20.346582167652805,-12.556638816155514,-14.710663048160686,-14.23471397160159,-13.720061385850375,-16.991182392856594,-13.587767150454164,-14.893596177921822,-10.36594605669914,-14.188356297161802
1669969961.14713,1669969962.142732,20.489877939224243,21.48547983169556,4.0,20.734354648001702,0,-8.56983952833677,3.6171084443942747,-15.16684892926513,-7.1193958019512,-6.452552498219247,-11.481391075201067,-2.212708935912377,-5.564418713999401,-4.438730299751516,-5.04977481944915,-3.537634258160656,-11.738022237878752,2.237540929337776,-8.404260655463672,-7.355769708116108,-0.20870674694445274,-11.70114901566947,-2.676080948621562,-5.369298817346156,-3.6986953088372947,-5.005147350891052,-5.876210162281932,-4.156665242528987,-7.823947054561682,-3.472628442777407,-8.703831050496857,1.6739341470164852,-8.586612378523675,-2.9065978037273332,2.5385120810632826,-11.569165251343566,-3.69700740777146,-3.832554410408071,-3.25375301824437,-2.0380913998851247,-8.005043243589485,-8.336689983711453,-5.149947460865274,-1.394603561531556,-7.482861274702895,0.654597455564979,-3.561380352656079,-14.492733146549423,-5.500605963814193,-19.59091305707231,-15.273655075718771,-18.009849786482626,-10.973776293336586,-10.17500376564543,-14.86910212146385,-13.322443077568638,-13.746008041172956,-8.62770139599998,-14.989206720641377,-8.592971187666398,-16.946972970809433
1669969961.397006,1669969962.392608,20.73975396156311,21.735355854034424,4.0,17.100254923746764,0,-5.528813460152007,4.548109469858676,-11.771767445778785,-4.414529398456358,-5.546091653814398,-8.021728491762765,-4.305689416462188,-2.738391115838148,-4.2508152188891675,-6.996655103384909,-4.830297721532606,-11.57532638063844,1.5233663163140316,-8.732173324969022,-6.592519997268158,3.3000184482101407,-11.108903630989866,-4.347319952250832,-2.713014450887527,-4.1049626649607465,-4.085961552914278,-6.347607058261345,-5.234278831246702,-9.242601650186545,-0.3533656576691188,-7.211816840588531,0.5335200633219195,-8.546263244945527,-3.7274058055861974,3.6449163777825384,-10.110010372054155,-5.085413477757807,-5.805936114160475,-3.9801244343425473,-3.870266542443019,-8.183013567673834,-8.173334769442363,-5.828105930218912,-0.9466368408882753,-10.419750396031265,-2.727202904142511,-6.261365328577767,-13.4072286215361,-4.738811356409734,-18.377915775084034,-16.264613578246706,-18.512547340559973,-13.258776106376814,-12.446796909656149,-16.279391785408098,-13.917763802671757,-14.02285968338148,-9.946784442750822,-16.877915999908577,-8.837615371384226,-17.003166507586293
1669969961.646883,1669969962.642485,20.98963093757629,21.985232830047607,4.0,17.51210205123412,0,-5.752018276294738,3.909318474839323,-10.145932173199519,-4.456902019451395,-2.9659087062716196,-7.090611236053773,-4.112455700460053,-3.412725695855115,-7.546505390815064,-10.584645534373266,-7.506598870408365,-7.638788810355919,-2.3752935289754236,-9.540227481892204,-7.07455487395209,1.0619877147212797,-7.822087014243886,-4.660239002902255,-2.080283092267092,-3.266251555171646,-2.653943193148278,-6.346476211740493,-4.4039303386438675,-5.832096135062442,0.19913537309189283,-9.32075221810192,1.9326154747769486,-6.011790141303952,-6.957408416259448,1.8290384570632168,-9.127171201298511,-5.296120246142753,-4.527262869582941,-7.7464682314317646,-7.353244830448251,-7.548666374958098,-8.710650283052601,-8.263142380396614,-4.235824353144611,-11.25572932111627,-6.096898627714754,-7.610408607670327,-16.627199596461264,-6.202759848557163,-15.227041851299653,-17.322338502003504,-14.650403046985295,-16.303927286919745,-15.905835434226614,-17.536408945292518,-17.89562518514981,-15.07795084032163,-16.069087373320492,-16.767097706052617,-11.794306991652153,-16.728423392425555
1669969961.896759,1669969962.892361,21.23950695991516,22.235108852386475,4.0,21.056316909936818,0,-3.0499539067046215,-1.2967419016748134,-9.4474924419023,-7.705739055137917,-3.4143202972413587,-4.346883385429499,-3.2900595059589306,-2.7724440490473548,-9.37448182104826,-10.168597477896956,-6.471457481608487,-9.000079428414919,2.9926370574249272,-10.455565474876177,-6.2059466507325265,2.002875939500202,-6.940348703257758,0.41608611111799265,-6.871174085384894,-5.053162615261488,-3.768011394993983,-4.62270519368343,-5.83032490725759,-1.9475197059381117,1.3268462411030986,-8.300599115856935,2.927099472427004,-3.888907849060032,-7.060144002727928,0.8943160619923958,-7.438775741585743,-9.271058911246271,-3.3867987741093843,-2.9633777720977657,-5.65387268988156,-10.306349455171397,-8.787237279459196,-8.83067529610062,-5.757920950650373,-11.259975779606208,-2.7609568567975207,-6.8831875755933964,-14.932510976909498,-6.941662867844382,-14.228777358667681,-20.665333061600716,-11.510991749595261,-11.437539337420901,-12.946766756397835,-17.41050849183897,-15.998299645612608,-13.90143963014843,-13.734042035403268,-16.64153644598668,-9.361847965063712,-16.119857710692656
1669969962.146636,1669969963.142238,21.489383935928345,22.484985828399655,4.0,18.06874212609313,0,-2.3189364567288666,-0.20520612638067687,-10.550534486777718,-5.562106785559925,-3.9200953404223506,-5.473574440417762,-4.009282776006029,-2.6519868693179047,-8.707758494548187,-6.084803240329606,-5.297599653703346,-13.762470959943517,4.13666140591692,-10.701048834522407,-2.4797874197355503,2.6551949950869886,-9.835028985882149,0.9162936759106444,-6.107418152725276,-6.66635536274804,-5.078912499269082,-2.0586358583526225,-7.085872743961255,-4.325734609046186,1.784915560790901,-15.027579427150105,6.7939833715355515,-2.9441627469735283,-6.252164017635885,0.06599231342153807,-7.823387987829528,-8.571314040757118,-4.954011931701286,-0.5426596336860185,-7.979935543720278,-8.56747318106656,-3.9446490171541004,-6.969268473922585,-4.003771892428139,-9.347526144155916,2.4410482648077765,-10.059428361122329,-13.861257260529367,-8.553274942400357,-16.19524776623107,-19.767809439074824,-12.116270248707803,-8.333645378940659,-12.543570329587322,-15.56426737512673,-13.480542489767737,-14.160052346801681,-12.232569442295706,-16.382208877877808,-5.065371721104852,-16.487715899508576
1669969962.396513,1669969963.392115,21.73926091194153,22.73486304283142,4.0,18.306311778907162,0,-2.843627349787285,1.4417934721334076,-11.284408183563006,-6.0771881640484935,-5.981672793947075,-7.154769502220671,-5.683679976615147,-5.065251726855282,-10.266267389008716,-5.894165938831816,-5.199070942887417,-15.401429617324045,0.3566827018948105,-12.097717597200859,-4.36218966477959,0.613808041975109,-12.09963300447952,-2.0008377111432902,-2.707290405369323,-3.98271063398321,-5.288242821958763,-4.059384254878302,-8.25997758549718,-6.59261329229257,-4.10550941455655,-16.31889789309588,5.760222577491664,-8.086131323526436,-2.893259742729905,0.2901471616247702,-11.1162223963867,-6.705621269840156,-5.505880798367703,-2.535142440780903,-7.235316785623988,-4.789097681585436,-2.953308634640381,-7.371385936924634,-5.33057039455856,-9.020331182262256,4.3709447655027205,-8.643176086852364,-16.95093208393612,-6.452823746367718,-17.96883100833615,-15.218636379192546,-13.544104319661594,-11.280252203542595,-14.619978886167736,-13.367197637891595,-12.445657319482844,-15.63228674021408,-15.573227946055807,-17.802514605816906,-4.264697295448536,-14.02541560319402
1669969962.646389,1669969963.641991,21.9891369342804,22.98473882675171,4.0,22.445772927836074,0,-3.5483922320198764,0.78584122108684,-13.547405668492294,-9.989397153493197,-9.384395287079748,-8.016747534868394,-4.9508467367428155,-9.329652092339694,-8.721881456198691,-5.428232346214389,-6.108533425122592,-11.96023176866941,-0.14429846082155356,-9.671656448732868,-7.769963479294367,1.459271506158911,-10.522163681071108,-1.5156602119235423,-3.621444793486248,-3.338322448953399,-5.666078264013765,-6.601076479173854,-8.830599627693074,-5.692308337717572,-5.404317748182876,-14.471465609557196,4.088091124423635,-8.960030876166385,-2.3794124755669586,3.293492567619185,-13.903723137557893,-4.033530774925083,-9.43260492225399,-5.588631744706562,-3.867937332942631,-4.286458317585837,-5.393325628600421,-5.62271226262549,-5.497740768090404,-7.103040265101503,1.1519298140757441,-8.3668513241937,-18.32163209853676,-5.770679145048659,-18.270617272734526,-14.805288330615003,-16.925446151054228,-14.115249570957618,-11.908355432031755,-12.29937882958301,-14.443590272896486,-14.292826810890242,-14.432943961633274,-16.621288626842958,-6.429707218458274,-14.690571457799503
1669969962.896266,1669969963.891868,22.23901391029358,23.23461604118347,4.0,19.9110266808832,0,-5.707560764142251,-0.756190158897234,-13.648525514682248,-5.724324129620397,-6.709805783309104,-7.190224599966919,-4.597100910860568,-6.894300501571141,-10.916441645795844,-3.359058008366077,-4.977513668392268,-14.221153529400292,-0.927101825417602,-10.364791443737879,-4.038468724832077,4.9190323739329775,-10.530362458405072,1.8050690111758874,-6.466690004814328,-3.706061451489899,-6.968779380308419,-4.421671516714464,-6.169929609602982,-4.647496500069053,-0.6912402737695421,-14.788320181841817,4.148247380448246,-4.385272201873753,-6.525329283121585,2.976608637729697,-7.649945140735004,-3.7870890904412686,-11.818784433088243,-3.547429529507898,-3.427806874644558,-7.13717539335072,-6.462187630088393,-6.007345041079017,-4.070856496779569,-7.370836168219825,1.8859162825203883,-7.882721772631417,-17.706832554030477,-7.279972485371404,-18.561614833247354,-17.795151383933103,-16.908291138986126,-15.20123306386533,-14.191367526389927,-13.981839090030634,-14.499261732695043,-15.473027563723395,-11.538763248193632,-20.943105214990247,-4.623027123576669,-15.79787604341222
1669969963.146142,1669969964.141744,22.488889932632446,23.48449182510376,4.0,20.19907624312286,0,-6.230914454146879,-0.06954709096153407,-9.174466761140222,-4.018250939739453,-5.948552038619849,-7.994317295512409,-5.836896662652945,-6.18048537672842,-5.175086607883815,-3.609069206274204,-5.818354108543043,-9.963863354890634,-0.19495050233582062,-8.326813002997381,-3.559152546048473,5.243853315593375,-10.65252598456137,-0.08511930223700183,-5.904846805303322,-5.809960655666364,-7.410141728348752,-4.304825190598647,-7.887166993554758,-4.67913247364922,-0.2729723911322648,-10.717769444582448,5.638909891910169,-4.6294768940073725,-4.780886449175616,3.3214300255384983,-8.274481323732179,-7.001248787639577,-10.369233444402422,-4.402886617770872,-2.5723400960176654,-6.334931408128681,-6.961886013805467,-6.115332034014882,-1.9288675144475718,-7.686839678279283,3.58067238592938,-7.514985973839585,-13.593786612423635,-9.1507233114265,-17.226696607815757,-18.395135802570465,-15.904099143901105,-15.843756288191134,-13.641021599565379,-16.923962292372092,-14.154403490998643,-15.076478868890892,-10.05050956455042,-21.6680814358865,-6.403037310031556,-14.539509121001357
1669969963.396019,1669969964.391621,22.73876690864563,23.73436903953552,4.0,22.34549478117301,0,-7.432049706569403,-1.6139212759322128,-10.899736635602961,-5.84945226010401,-3.805079142427117,-7.029311360328827,-8.694324667614131,-4.4257911204920415,-4.0341222942016515,-5.699556534296455,-6.239374698012838,-10.452313389296856,0.10206328307837836,-11.260493686802102,-6.67544744455098,0.5591937037858962,-8.841566023453476,4.043056047024372,-2.34384760793945,-5.487747399980733,-6.395290330738509,-3.1580755673232694,-2.451569878666923,0.30505941441485424,0.9397805399120462,-8.804299117197822,1.9754658937360614,-7.570708216357163,-4.7385067905663565,2.374179739810756,-10.438581002251691,-4.9835024836347985,-5.606375202104078,-5.565600032885161,-5.316551431488862,-5.867845088433581,-6.315928322049836,-3.773669818837298,-3.1803031924380116,-11.009570728098,1.1098116649639678,-6.245308821507127,-12.80868979275207,-8.556820970410923,-16.94994424912767,-13.186601990443712,-13.136414845225888,-17.15657581714494,-13.019073525436598,-13.46438260608468,-13.104798653838955,-13.466361146936386,-10.739351972619819,-20.325534422254368,-12.331550659007494,-15.265089699060827
1669969963.645895,1669969964.641497,22.988642930984497,23.98424482345581,4.0,19.938813711588384,0,-6.711794483163912,-1.318567066422135,-9.66813349074651,-7.516124004514092,-2.7965350245359764,-5.892677896398899,-7.456045229144779,-7.529042402622574,-7.3075184270017814,-11.196597729533337,-3.65401455272623,-11.09247601022222,-3.3663123307979403,-12.40163449477015,-10.23316317318982,3.8807655945719475,-10.058694737813097,3.498497496590508,-3.9560669234481862,-7.96224679042332,-4.1030353248482925,-4.501634893124696,-1.824155809700686,-0.33335237999535383,0.6974010949250404,-11.57636300625164,-0.6318080476971581,-10.082426190831626,-6.698622107264941,1.194997163017357,-10.334156735228854,-5.434154517120756,-3.9165759497494217,-6.305844140132485,-5.966581573797896,-6.1015922432290886,-9.910960860039186,-5.638655640550381,-2.988157036041131,-10.553221535429305,0.9923657748116042,-8.408807521290715,-13.261282010590246,-8.94181959643032,-19.047213267786322,-13.552382184735546,-12.85846925124368,-15.227584119463419,-14.053877444270192,-12.235893642613817,-15.95824554942789,-16.11154843724226,-11.412915744083614,-18.785610890935754,-6.485649475314529,-17.347245415273203
1669969963.895772,1669969964.891374,23.23851990699768,24.234122037887573,4.0,20.440128652944253,0,-5.652177503534056,-3.6129962636341366,-11.409806032387774,-6.937408212199962,-6.57005926354214,-7.23227154180342,-6.528724283507868,-9.545333131108526,-6.503398847554211,-6.509624163095307,-2.270066225645013,-7.9944491886499165,-2.695334683392744,-10.705538976418698,-9.289132112118509,2.491540862337851,-13.05817717494753,-4.207614119929267,-5.284303674572235,-10.031506941806521,-4.404621880169839,-9.142647366343137,-4.47844338304212,-5.716365264444897,-1.832802050340978,-7.302473279746664,0.9027573813245644,-6.592121325536939,-6.647290673689836,0.5658789546141202,-12.127457896966973,-7.654838306328829,-5.0753743102751345,-7.016577091006766,-6.962952297324194,-5.1235299842760735,-8.30309876130038,-7.408700004385462,-6.173354252242081,-9.080951723854817,1.3268038880219568,-5.243786364219389,-15.246785544575982,-9.58308937989636,-18.8334688452006,-17.980614421375748,-16.58228538010529,-14.328798076749141,-16.761530761819476,-12.629490882147202,-15.587137577334811,-16.76616299091386,-13.609003429424684,-19.473860489431466,-6.301951404675662,-14.701097445686965
1669969964.145648,1669969965.14125,23.488395929336548,24.48399782180786,4.0,19.94360755974238,0,-5.237562070654933,-4.649683458545412,-11.061889207640053,-5.393621053838222,-6.183814811114722,-5.218418794644571,-4.416292837660589,-10.486463755710291,-5.420834970239715,-5.208233124570494,-2.3296764049728593,-9.240924530259457,-0.7814909452309118,-7.121441277499705,-4.755176669892034,1.2250164146825204,-6.974350914738658,-6.858364115013136,-1.8553611982166345,-5.337660817930749,-1.637724001357067,-6.192890128640115,-7.872001237737674,-8.844056285930087,0.17456522240417258,-4.011668811422783,-0.37124868658658694,-6.528208613453799,-2.9361196102715508,0.21773611310360375,-11.949467950115809,-8.844096037118007,-6.626818226565839,-8.08542434411083,-7.051882240888751,-3.168283050648718,-7.844229889877933,-9.150969985038095,-3.8319694338094794,-9.948911383986125,-0.707134581989878,-4.602441060545589,-10.986444100680137,-8.286820646013958,-19.01481882028041,-17.625300142731234,-16.021408286515143,-14.847359921948202,-17.39570245289667,-10.549523453183753,-15.323577778360091,-18.691340356869603,-14.625619841435771,-19.44069859164945,-8.62215571063441,-13.59909788886158
1669969964.395525,1669969965.391127,23.73827290534973,24.733875036239624,4.0,22.638327423266258,0,-7.281687975718622,-4.724040468642704,-12.68252868190805,-4.810406019973314,-4.869977910286227,-4.610817532321311,-7.019713523323537,-6.814996869307299,-4.85904367600514,-8.454601693007763,-2.9895953191044056,-12.85212635450836,-1.2030071572086203,-9.068620234165502,-5.197183875326161,0.6965777095451932,-6.400358275870235,-5.917906834552754,-1.9733652959834083,-3.8061275430026424,-1.2265871860807547,-4.1967078932609105,-8.644307751839296,-7.125760562753869,1.2955970298378996,-5.511770677279131,-1.8362240724051277,-9.723974148753937,-2.264293979100967,-1.2581568403987342,-9.161497042811185,-9.879369520330595,-5.576513196163917,-7.000302318929067,-7.187242545888905,-4.691633790327346,-7.641767076572039,-6.002017854042391,-3.617843626169257,-10.906901029548399,-0.0008648802291194,-7.985470005781425,-11.265959081432,-10.216421564230485,-20.847663650586696,-17.72620581589983,-15.549684393294644,-15.580005024296902,-16.622371060070332,-12.753361261091921,-15.998969773489096,-16.619369100741043,-15.894387726128175,-19.459633459359978,-8.526036499004524,-14.892881901878612
1669969964.645402,1669969965.641003,23.988149881362915,24.983750820159912,4.0,21.680969662189582,0,-7.1773529176437325,-2.940131190555645,-10.071011434461514,-5.4487584068844965,-6.43922394924353,-7.698510433623309,-7.5824299496335446,-6.426827076630765,-6.427872683916228,-6.196192546285735,-2.3276931546568975,-9.940262134696988,-0.19033046338335974,-8.693113259650993,-5.19159809556796,3.7793386093348467,-6.313200580273116,-3.08348983591302,-2.4401708110744873,-2.9839089657073803,-2.8230392982376125,-3.527916078651052,-6.914963169931248,-3.5603542728015993,1.8159768828292,-10.400529987533316,1.0807589303633274,-7.802137213787223,-2.8120943385462027,2.2625801039958,-8.680372843836741,-12.236298058825945,-5.23060951539936,-6.24280069674811,-5.7076797237954535,-4.344161998952735,-6.8162869021608685,-6.313056500830671,-7.649594428933497,-8.798327801654864,0.6779840717396111,-9.227581725921448,-15.312159775225364,-5.305776889470807,-16.466195773947312,-16.37508609965231,-18.447117908351093,-16.154034654010616,-16.755794432602,-15.159896298520408,-16.095636971492443,-14.460421143378149,-15.074940429052523,-16.340537918423905,-9.009163116123238,-16.54556875356905
1669969964.895278,1669969965.89088,24.238025903701782,25.233628034591675,4.0,65.433545253677,0,-4.911251513469366,0.9512891086692323,-9.326290793538037,-6.373971806243972,-7.757067751092319,-10.690990369536735,-7.275105014313599,-4.737629479539531,-5.439713497133672,-5.9401796720872655,-3.274470405598175,-10.333816192750112,1.8605373181778462,-8.737841552610337,-4.5814316177597805,3.025308458683491,-6.441554834098087,-4.814130093206339,-5.043422802420351,-7.163644566282827,-4.802956036927572,-6.490701732924458,-7.460968153089835,-5.341007016911881,-0.09158817243180961,-15.411156419963062,0.9654815529182106,-9.022809223681275,-5.300508366584752,2.9539017982181766,-9.855619225027766,-11.519877717831156,-6.21432430258669,-4.50695429491736,-4.207550002591166,-6.211878346175168,-6.126921827087958,-8.968601350825548,-5.433801504345599,-8.708929097988275,0.4261831261418132,-5.971094996931484,-15.199841454737147,-7.052710031336876,-15.777309317244034,-16.82747673229692,-16.584966746082383,-13.831605640923492,-14.486790854903829,-12.898964680304896,-14.350415482044072,-15.223469994166933,-12.895618704399844,-16.927550786596417,-8.559896313970972,-15.27645095914867
1669969965.145155,1669969966.140756,24.48790287971497,25.483503818511963,4.0,106.06923079927383,0,-5.015519976805902,0.9209662762280548,-9.040538334122816,6.42029340436717,-6.023685874725187,-10.097171996960824,-7.176730945940623,-3.5123059402756738,-7.340590290490837,-6.798088882097649,-4.731060759480895,-11.47357622609885,3.516188825197263,-6.310612731264435,-3.2735577277282113,3.134117915949282,-12.155417208857969,2.633602142639533,-8.183509795691394,-7.496056291408699,-4.658368757040572,-11.729586957914213,-6.105414961849158,-6.6133551291222386,-4.358702393160904,-10.429165023791068,6.119126585323469,-2.743280541823927,-6.833293430702156,1.2414325302579106,-14.229144635959901,-2.5311602003999143,-7.728650346278203,-3.4872388172313795,-5.666730067320335,-8.062139453858787,-6.553474265527886,-6.507304221403239,-2.4779854590070327,-7.8063125813420555,1.8585727413306925,-3.505201315350177,-16.045049750324186,-9.98156463677759,-19.077599649305224,-13.33774102526986,-13.654327862124426,-11.899861360735276,-13.878810615204014,-14.528655015784333,-13.23135618347061,-17.48309304791683,-12.280841937939366,-19.336446316429093,-6.60785047565823,-13.258750670096763
1669969965.395031,1669969966.390633,24.737778902053837,25.73338103294373,4.0,113.35942285228354,0,10.42262705845005,-0.48730914856005125,-11.892879394563993,13.95781357888433,-3.4154673790420786,-9.306641739035799,-4.036185459426947,-4.920541562251841,-8.304552540994447,-5.000268078432977,-4.028807632533117,-10.740620435584635,2.4262599367597124,-6.616417791400595,-0.7196653497216899,6.866126284540809,-7.895711047190889,7.867803270821058,-8.218065117946832,-5.117136847539547,-7.8346704826528315,-7.601121466124127,-6.556587086566795,-6.522557853094833,-2.730535273246233,-9.732362751596856,7.295838047592906,-1.385985317439033,-3.062676017342374,0.7132825234132288,-13.114352266349146,2.247476880042378,-4.664625434291108,-4.701898750637751,-5.153556860416906,-10.619574256667644,-6.781084532407365,-6.986784011931712,-2.8597140294534635,-7.319414985535707,1.1761053500389573,-5.591915304676986,-15.11331856299395,-7.855380513236544,-19.05418928216551,-8.625285511046144,-12.530067151894514,-15.119886479380419,-16.429417565395575,-17.363505593988005,-12.94625716850765,-19.364069191451925,-14.314707172380714,-19.648865569019094,-6.2845290951001385,-15.09373124935484
1669969965.644908,1669969966.64051,24.987655878067017,25.98325800895691,4.0,122.73506883918273,0,12.956386247819227,1.9883058957271993,-10.66979778973476,12.76480284246638,-3.098432006933916,-7.475357060470906,-5.833631999368263,-8.345212916572406,-9.954943116294753,-6.634459497721908,-5.533359295850767,-11.698045576648525,1.382199884200873,-7.473730190128709,-1.0724234051785215,5.330190403919771,-6.555590614655367,4.095169933035455,-6.145441294138465,-5.241520759655916,-2.913875373319023,-7.2895880143697225,-9.764159993959392,-10.17451201657536,-0.7883924268746763,-13.294161081845656,4.912415748612872,-5.989663937522628,-1.0091654343446026,1.3161986736464535,-11.426880306470979,-1.1240498779883796,-2.3929777817573354,-4.058097789064847,-3.9169437035917842,-10.3483010183759,-10.747675449762433,-7.115837333852317,-4.690442562498426,-10.568302204418176,1.6652125309417511,-9.00454381327134,-12.216368272824463,-4.571422541674784,-19.31987743952835,-9.11279702709763,-9.564578247665485,-11.841964567462412,-12.916660702241433,-16.1254493425945,-16.22633827070588,-14.3693159202722,-14.935451274783642,-21.09843107670356,-8.167879647378221,-18.093090596792663
