stamp_i__desc,stamp_f__desc,latency_i__desc,latency_f__desc,minimum_cq__desc,maximum_rms__desc,data_fixed__desc,eeg.af3_8_12Hz__feat,eeg.f7_8_12Hz__feat,eeg.f3_8_12Hz__feat,eeg.fc5_8_12Hz__feat,eeg.t7_8_12Hz__feat,eeg.p7_8_12Hz__feat,eeg.o1_8_12Hz__feat,eeg.o2_8_12Hz__feat,eeg.p8_8_12Hz__feat,eeg.t8_8_12Hz__feat,eeg.fc6_8_12Hz__feat,eeg.f4_8_12Hz__feat,eeg.f8_8_12Hz__feat,eeg.af4_8_12Hz__feat,eeg.af3_12_15Hz__feat,eeg.f7_12_15Hz__feat,eeg.f3_12_15Hz__feat,eeg.fc5_12_15Hz__feat,eeg.t7_12_15Hz__feat,eeg.p7_12_15Hz__feat,eeg.o1_12_15Hz__feat,eeg.o2_12_15Hz__feat,eeg.p8_12_15Hz__feat,eeg.t8_12_15Hz__feat,eeg.fc6_12_15Hz__feat,eeg.f4_12_15Hz__feat,eeg.f8_12_15Hz__feat,eeg.af4_12_15Hz__feat,eeg.af3_15_20Hz__feat,eeg.f7_15_20Hz__feat,eeg.f3_15_20Hz__feat,eeg.fc5_15_20Hz__feat,eeg.t7_15_20Hz__feat,eeg.p7_15_20Hz__feat,eeg.o1_15_20Hz__feat,eeg.o2_15_20Hz__feat,eeg.p8_15_20Hz__feat,eeg.t8_15_20Hz__feat,eeg.fc6_15_20Hz__feat,eeg.f4_15_20Hz__feat,eeg.f8_15_20Hz__feat,eeg.af4_15_20Hz__feat,eeg.af3_18_40Hz__feat,eeg.f7_18_40Hz__feat,eeg.f3_18_40Hz__feat,eeg.fc5_18_40Hz__feat,eeg.t7_18_40Hz__feat,eeg.p7_18_40Hz__feat,eeg.o1_18_40Hz__feat,eeg.o2_18_40Hz__feat,eeg.p8_18_40Hz__feat,eeg.t8_18_40Hz__feat,eeg.fc6_18_40Hz__feat,eeg.f4_18_40Hz__feat,eeg.f8_18_40Hz__feat,eeg.af4_18_40Hz__feat
1669971678.134311,1669971679.12991,0.0,0.9955990314483644,4.0,56.64352953534131,0,-6.764983535900696,1.098614159740291,-9.322057443889483,-5.653209142255835,-1.0452056363792281,-2.427825226808899,-2.2066254104580283,-4.560175823256982,-4.27622215021765,3.284558206926299,-7.500606296028563,-8.901183254629904,-4.933282529713087,-10.31036166038904,-4.697109191526247,1.5680123711607408,-11.077797138380792,-8.147441315096708,-1.9330388160820053,1.797025031431887,1.0210760606394043,-7.779981855587996,-3.136359018507045,9.26243613835745,-2.4985342935684454,-3.3425147309476317,-2.507769020830926,-10.545973560856375,-5.5812599584818585,-1.8569026159382136,-6.962087099342228,-1.8136650482745507,-5.152791125823749,0.9018116328389676,-1.9996233112711366,-2.9586662408925846,-0.7731319093713986,7.572306558547362,-3.768666272722628,-3.5129707242637407,-2.18048152907641,-8.311516571902382,-14.629297377980146,-8.433529234182927,-16.671648201562263,-11.017374054306327,-12.586126925121203,-13.983936608084221,-14.652988457395523,-12.629416043077292,-11.826759447238619,-2.954491174753759,-11.651287187089686,-13.62941002593673,-11.596442527076864,-16.78271583035282
1669971678.384186,1669971679.379785,0.2498750686645507,1.245474100112915,4.0,48.583763836012366,0,-7.371316810057602,-6.8081374293490065,-8.404225296617419,-1.7237745353890068,-1.4738458269423114,1.8054839718685245,-0.46781865017184926,-8.412631401154375,-2.7817404189142083,8.194482017952659,-6.796485168911079,-4.685978338627955,0.0915483509026796,-6.773684742792431,-4.479027295882538,0.05068558877203675,-9.040835487617665,-2.941810831969173,-3.7938535354457836,-1.702505139205419,-2.2543843701179824,-3.9208670683895255,-2.5075266867722585,10.914162845509722,-4.6989417559863025,-4.314468502023812,-1.4954602326768571,-6.638708491374128,-8.32433091364651,-1.267261063128795,-9.622561542228036,-3.677386977453149,-3.9611156398330216,0.3306428765528218,-2.6099597477923187,-3.5859066052591313,-2.834804589702104,7.845148030463448,-5.347406617885468,-5.501313802640012,-1.0047073801251891,-11.907579289943913,-16.297395104612463,-10.44932274289095,-16.59727448641613,-12.22557958022473,-10.577274622259441,-8.341648487702676,-11.880728247131671,-14.25566955250288,-10.773937392718029,-2.4492471941626586,-13.573551038288084,-14.213370351083238,-10.925074554764828,-18.44439306587188
1669971678.634062,1669971679.629661,0.4997510910034179,1.4953501224517822,4.0,50.440518437648024,0,-9.239714390655841,-1.3674590550008714,-8.311473338834212,-1.138997448621764,-0.7873730002878303,4.790020363654887,-2.867528762422747,-6.689040375973123,-2.376756278494519,11.037894567365132,-5.2297852289421956,-4.798209275844257,-0.6493751204329206,-5.389478932671478,-5.10018223936835,-1.917371390416061,-7.101306028356815,0.05707615574508158,-5.523355773278125,3.31887050065647,-0.20591227575614823,-3.11682708784397,-4.5728909152684905,8.972048974916158,-2.2953057921895734,-2.8868846385749314,0.20561186760428318,-7.629844936448327,-7.2059921322015965,-2.237734022444437,-8.930561942304038,-6.700300525439928,-2.599223936380918,-2.4923518435798315,-0.4601557700134801,-6.324274295335755,-3.8946712776453047,7.603049994964212,-8.144267325414733,-5.45414567979225,-2.196427887503129,-9.422220600583898,-14.56896121990946,-10.07702955325346,-16.126733161656645,-12.723900084611223,-11.956410111348468,-7.735148787707544,-11.582818087130098,-16.176524120098737,-11.262305978810446,-2.4821349694764723,-15.21116400938549,-12.249608021053247,-10.857960469028223,-16.65710762429408
1669971678.883938,1669971679.879537,0.7496271133422852,1.7452261447906494,4.0,47.52064675173066,0,-11.92623762582759,3.0074103117086795,-7.918222018226642,-1.4927889640117504,-0.6960771007273402,4.388419126698328,-2.287936102814804,-3.6882193172625644,-2.807299358084909,8.093032344215906,-5.582358328934895,-8.046362782590963,-9.390216700409162,-7.984018889326421,-12.305338780525812,1.5572729664690386,-4.915680819081624,-0.616224740428085,-5.5325472967340605,3.380399019902364,0.6614748634525586,-3.3805233722740278,-3.0607951979134853,4.831248387811461,-3.638776528438447,-2.9678106017653456,-4.986762399053744,-8.835617505444489,-2.610962020539297,-0.6151332862881268,-8.976762984773092,-6.834633625150212,-2.1504245780629363,1.1407315173403128,-0.9041482269815344,-7.672806156458279,-1.4541529001970288,8.933036069883805,-6.361175576421168,-7.468855161672842,-5.437056594518294,-4.662896496557355,-10.532021660102334,-10.028833281980013,-17.016057156126465,-14.55425099292475,-11.273154219250326,-9.311021208771203,-10.22583605752936,-15.591334053725967,-9.599382538381603,-3.5258894644864824,-14.173739258317802,-12.182934944100683,-14.642640922451253,-15.31725095252976
1669971679.133814,1669971680.129413,0.9995031356811525,1.9951019287109373,4.0,24.525236027503357,0,-9.060073238027943,2.68764685870973,-9.262663959470302,-2.3632382174063467,-1.3827245551946432,-0.9590580354317556,0.4695803861493347,-4.6025963044620095,-6.203432900863581,9.330704732446641,-5.353654171148371,-4.033799333264453,-7.429106402480279,-8.678966925567034,-7.676036624876662,-0.5102667051045422,-3.559772603104962,-3.9775348991665407,-5.268753237679411,-0.6502901142383783,-0.3270588393584587,-2.620148176329419,-4.697758262084023,4.799666590329367,-6.166674154597992,-1.6386836160624862,-4.301431598593586,-8.077148556408595,-6.860337904056317,-3.386923884765347,-8.115028311026965,-7.443726961525298,-3.9094520999563076,0.9291515592584919,-0.9362598234291896,-8.113932499134247,-2.384676589021604,5.127208483745446,-3.5325151763945115,-7.806066708629384,-6.090364170047123,-7.080684209236875,-13.080215111388627,-10.594041523600149,-17.131704325577225,-17.493080078522333,-13.093556246076965,-9.670482220678094,-10.177500779255972,-15.02464513641385,-10.168882266277596,-4.327597765248548,-12.110110509469582,-13.276779802872326,-15.219011067419023,-16.573714648362532
1669971679.38369,1669971680.379289,1.2493791580200195,2.2449779510498047,4.0,21.177282528259735,0,-6.3922483564668475,-0.4243532466620243,-8.51047572776711,-0.9055043699967004,-1.2118415924751205,0.6580222798970669,-0.26624588081604905,-2.411062580326529,-2.6971955119841335,7.188416474158257,-6.628003052075452,-3.967131668092578,-7.9080317238636315,-5.633343584732787,-7.7607531840179,-2.962109353838505,-6.291713185945529,-4.061646494774517,-11.182133280326152,0.0680918519850785,-0.6469394250618248,-4.056096258288046,-4.829176178799126,4.849280577510334,-3.0963010045166195,-2.7639670675046935,-3.3020023762384634,-6.353023628775791,-8.18434276948636,-7.505784685487811,-10.43067785054431,-4.29499777600694,-5.796028574029657,-0.9514853825267823,-3.09426256940655,-6.494497293427121,-6.164021632404205,3.9169835822115706,-4.901313194594917,-3.403365196141225,-5.95289656785272,-9.976871811792567,-14.873211432986402,-13.388492425990638,-17.361813187641474,-15.041381409172219,-15.444496594685017,-9.44622505283946,-13.518224972063862,-13.956665917778812,-12.036698073373373,-4.541845007134709,-14.421213622983311,-14.997781696622832,-13.496737071866917,-18.473371886398844
1669971679.633566,1669971680.629164,1.4992549419403076,2.4948530197143555,4.0,17.983330545619328,0,-3.598432773988499,-3.952327388141088,-6.884748738089966,-2.4271864142123216,-0.8668217975802666,0.04532372151753902,-2.727275757204193,-2.3025927839642617,-1.5168558838208623,6.249179664272572,-7.325622962016335,-7.581722053247514,-5.99140229535565,-5.44610571890479,-1.7880844438791659,-0.4621979338416479,-7.615605901833668,0.39339637472742595,-3.6429307725153945,-0.21819628783141737,-1.673794145455179,-4.5113888312349575,-6.169392294987617,4.758114762473327,-5.454742010901173,-1.420714841156598,-1.1115070719518962,-4.678914456739491,-6.843870446659431,-6.835996191459913,-11.091538313433029,-2.872576797857232,-2.9278763788542084,1.5264529486488543,-2.2569591632885837,-2.4776507669650547,-4.770250404372459,8.435449761288217,-3.876642486972566,-3.9420989389023395,-4.045822933123956,-9.687150562186744,-15.792749491409246,-14.031825433841218,-19.219150219428734,-15.301337934623248,-10.542823972426469,-6.644444097073005,-14.527704573312437,-12.734579330683564,-10.497837366043468,-1.3556188761506132,-12.577812618506773,-14.341173811399731,-11.530770124084588,-17.528565392398768
1669971679.883441,1669971680.87904,1.7491300106048584,2.7447290420532227,4.0,19.050247260639537,0,-5.25720579833914,0.382076372006842,-9.569877966478193,-6.1795028595913255,-2.0898221645108817,0.2519402428780671,-1.5399289823556892,-5.600185785578709,-2.881863081800887,9.244557627011782,-8.645863901625749,-7.833990209798124,-3.3327942104953068,-8.792245762411145,-1.9369257878591188,-0.1974857564293028,-5.4153731384995885,-2.76471926065327,-2.056688426431255,2.6265348441314043,2.990699876696707,-4.148552530176443,-5.208507500530023,3.6674865476252583,-4.600730316770677,0.421187403651547,-3.1151828490186952,-2.4781908165180506,-8.23217097765821,-4.4375609141880705,-5.462056843313103,-3.4201270235113244,-3.2553065911207018,-0.39945845905284194,-1.8346743780531338,-2.3650768601638377,-1.040741628281363,9.311184887315871,-3.409745322879789,-8.634398708318498,-0.2878002661494488,-9.450886682882881,-16.334204159019176,-10.474711693358321,-17.08757039826732,-14.966583693491302,-10.32590045078603,-8.811631490407516,-14.139829540530176,-14.580867286848335,-9.13071740700547,0.4977753236037899,-11.11669563814187,-13.449600383872937,-9.451132903505936,-18.13623115571967
1669971680.133317,1669971681.128916,1.9990060329437256,2.99460506439209,4.0,18.839375760057365,0,-9.71066884595764,0.685423743353703,-10.799169529584901,-4.10454618982922,-2.3718413390163144,2.1816503699953294,-4.642954841843823,-4.729709509227269,-1.1014561339733422,9.982112846748239,-8.449225142603012,-6.423066299959917,-5.109046990600689,-12.896292945258915,-8.268196256658154,-0.38081801634266765,-4.262106292406928,-5.35142494723252,-3.8710415786621306,-0.018506581906838668,-0.4752266835627144,-5.58135936620031,-1.2538803032915582,8.417319882693535,-3.287483762655815,-1.7602858936364472,-3.097257812550951,-7.008623680947283,-9.177361343271224,-1.0088249786436272,-5.99227958163738,-0.48201527978987413,-2.1702589946127704,-3.0224439217785557,-2.4065958104005887,-2.8776725907725336,-1.7078787447527168,8.380817353373223,-2.0584396398190457,-5.1031144837560225,-1.5412896745723663,-7.62148735859559,-16.417998327652,-7.788319044415331,-15.832781934086482,-11.49483254290488,-10.913388630610164,-13.401447210432133,-9.653403708245719,-14.02374999753974,-10.18360318772277,-0.058446560569138994,-10.807024842250009,-11.706671276970358,-10.771487682519918,-15.758769365513736
1669971680.383193,1669971681.378792,2.2488820552825928,3.244481086730957,4.0,17.410289550003686,0,-5.849044785692612,-3.3407730392295254,-11.00230438498431,-0.35065596456714165,-1.4685313006025569,2.7703889237048958,-7.292587891306617,-2.7339544850183395,-1.1825754110593394,6.786837038404867,-4.748520924130969,-2.5895755846717754,-2.165626124917019,-11.947138100304375,-9.156731268873248,-0.5042579950539882,-9.816231405135316,-3.3839407065482767,-3.591761536400578,0.9960206241740649,-4.719818760759819,-3.286924766562398,1.7856778749947582,9.417990147243998,-2.245986499538864,-2.2118072070536026,-2.1325790544353183,-11.608180996079442,-5.762191000619163,-2.8361143538956854,-6.502443128495865,-2.0122352724065906,-0.9365105830388978,-0.9468269436557014,-3.329338129915909,-3.09192981074557,-0.491534513077317,6.96043222620059,-1.541852781645229,-6.045481007355647,-2.743117808755598,-6.993589562283537,-15.163791261715163,-10.008804322172022,-16.18174341056188,-13.564062940792791,-11.447806381474663,-14.947399398940895,-10.790928322788096,-13.167824482407378,-12.83885852093345,-3.2754816380135128,-11.361807321688083,-13.75874766254336,-11.45764915720485,-14.898742183332224
1669971680.633069,1669971681.628668,2.49875807762146,3.494357109069824,4.0,34.68209366031731,0,-6.281400855539502,-1.5619461773530001,-12.064505010468045,-2.4070992780822795,-1.2190048818369372,4.8191521446340975,-3.1696501122921217,-6.080946533732627,-4.6717304998516616,6.115263407305566,-4.4776387419936805,-1.84575534015702,2.948105155889597,-8.88598812156978,-12.085439291688111,-0.2067998931292162,-11.051358449681807,-5.871492161308716,-0.21316004721717532,2.7266985752724198,-4.267845818328025,-3.502669364650186,-0.6200343914141812,7.859579033070857,-1.9369931755933538,-4.627510592245565,-2.80117445088033,-8.979272393063267,-6.704474230169033,-1.4622882525388419,-8.838705977793898,-4.554360808102784,-1.5612020018734276,-4.204749383065886,-2.2515101494097847,-5.530728999261871,-0.49964163398201195,6.100319432765176,-3.1104951290078064,-4.732085586537018,0.026319151403684172,-7.994522183346824,-16.200480632414106,-9.383615504183103,-19.538019503985645,-13.385990141613615,-11.015362991622524,-11.618952393589577,-12.663226331538361,-15.177471849207397,-16.469722635511886,-4.170673477529341,-13.402703528161208,-14.643266339210637,-10.4195903327794,-17.789853110697134
1669971680.882944,1669971681.878544,2.7486331462860107,3.7442331314086914,4.0,56.36616442044035,0,-4.580538204710779,-2.058232459936175,-11.951070747944033,-4.104457052264441,-1.0308023014835515,2.940920744894843,0.10905375209561946,-8.843616875915698,-4.772091228269297,9.547555025745325,-2.2144260248704777,-0.9854700353418999,0.20832625895459533,-9.296803697102566,-3.7994426846790796,-2.4052946858209845,-11.691113751376935,-8.489125138240425,-3.578028921324589,1.9450129148943973,-2.446352628532428,-6.023354963481201,-6.886406987662559,3.6921154402584233,-0.711408483963792,-4.204292865274447,-4.566149791501354,-8.112586362293584,-6.796164933924632,-0.834196578174166,-10.111996218995907,-2.2488233893013816,-2.9193721541667346,-2.4966393761837082,-3.049497259278529,-6.199677270284846,-3.3319646279889463,6.224149006539077,-3.8293539257399027,-4.525750354695639,0.23579999550334574,-8.586463727992694,-15.569288235264079,-9.413557303757045,-19.790889575090276,-9.955903546207661,-12.996369634532494,-10.008003134603673,-13.729538546866937,-13.365763377503423,-15.966734773996869,-1.5659015697234457,-12.488130849363529,-14.196938855020772,-12.710373200133994,-17.52606801561903
1669971681.13282,1669971682.128419,2.998508930206299,3.994107961654663,4.0,79.57088874474437,0,-0.4540858291363048,1.1441899787117205,-7.93816067512498,-4.2567728385675165,-1.113217446961344,0.5868096107624899,0.5494600291148466,-6.315554282646435,-3.3790667929215443,10.077074328680492,-3.4061006500488364,-1.469106327977763,-0.08579532330925317,-9.76909205453888,-0.7755854418244956,-0.4787956220478835,-10.415499789167681,-8.045478944718257,-3.3831555026978815,0.44930662223296725,2.41341080475,-5.542612866144728,-4.911406873859795,6.8017496440063585,-2.595459845680227,-1.9791556692019059,-6.422363104705281,-13.734577581286375,-6.476961531973022,-0.29391827387356273,-6.151444202014831,-5.267207449020655,-3.201353255291735,-0.5650566812251598,-1.4833131777856714,-4.242612802438607,-2.6630305951783773,6.459581647125155,-5.904016021236645,-5.492631052805218,-3.0511202261587247,-5.535117028259675,-14.477233044806695,-9.693533276807496,-15.803757718934442,-11.505099528542605,-15.847714407745181,-9.13552732729227,-13.14838280077838,-12.630642393960919,-12.949016334249448,-3.3628651575391197,-12.646611449974205,-13.436827452997571,-11.639552043431232,-15.36014868511649
1669971681.382696,1669971682.378295,3.248384952545166,4.24398398399353,4.0,98.899061645026,0,-2.6367132607426926,2.767209960877941,-9.046584403152492,-5.250189179718825,-0.021128028500797556,2.878505211670033,-1.2477491843129411,-3.9548786285976263,-1.752201929602324,5.495188527943552,-6.216701346675605,-4.0306831046159814,-0.8111073745787236,-7.41025469261444,-5.030695087429998,-0.491733366249712,-10.80978490569594,-6.509256316509951,-6.1096746636977795,2.0942354223873965,3.2294817368894844,-4.637315402754604,-5.138243971158916,6.099040132191562,-5.552392162686239,-4.2628713119250685,-5.7362162156450704,-13.808716939954948,-5.590491913892018,-1.0617504410226497,-5.751771228336774,-6.431913489947464,-1.7894136344999567,-1.788763222415081,-0.4038771047324735,-5.1067251108858835,-2.908680053894412,4.388750675389379,-11.009464099081521,-5.347686108133178,-5.359541808828356,-7.374825996608059,-13.045688015468448,-9.564067484029392,-13.234310406568596,-14.227482000608342,-13.981016408900826,-9.426793308899526,-10.400742156871452,-12.85747690118028,-12.108284553222502,-2.7085675195972807,-14.600228092326173,-14.425594285739683,-12.12247394217868,-14.453766656105092
1669971681.632572,1669971682.628171,3.498260974884033,4.4938600063323975,4.0,107.73343689973353,0,-3.3619383136652354,2.574347186407844,-8.056691462491836,-3.3414969361538827,-1.1520223992126004,3.272114258304243,-1.7850353586324164,-2.956342356471564,-2.033841665894949,8.503393612978549,-8.716247551523477,-1.5430515740880426,-2.7601922866114545,-3.941588674828459,-6.568891995203381,-1.8830172790563593,-8.67052927050264,-3.0502877532440413,-4.462677049156191,3.594252340254656,1.528245479206725,-2.517772784112956,-2.70108564565359,5.108066486704546,-7.1508402027622076,-5.621081629003619,-4.041082276536266,-12.714890842016434,-5.477803509497534,-0.7861860075200413,-6.74096406498699,-5.138681397214551,-4.053903401836286,-1.9681092726078138,-3.0471352482473324,-8.078076691926704,-3.959200805306292,3.958485236314,-9.2383080404383,-7.918960990167387,-5.206470591400683,-8.53709924500401,-13.673458554500266,-8.933589337551224,-13.631736509467721,-12.886094394146381,-13.555503055616018,-10.103594294868955,-10.279805709630953,-15.518287645607995,-12.56262356674382,-2.811498169090897,-14.849025702192545,-17.984574404512635,-10.665485794152934,-15.920473260885515
1669971681.882448,1669971682.878047,3.748136997222901,4.743736028671265,4.0,104.32136766017571,0,1.0374882723457595,4.8243715386589505,-4.9986237157627,-1.1250936074818336,-0.4557618914634146,2.971403777113041,-1.828990069691521,-1.577516503016283,-0.7743579651989392,8.69831611521843,-10.173043861090196,-2.2620309149946274,-1.1467150993161954,-4.08654979897077,-3.3782336559155364,0.4556629284746824,-5.486647376933815,-1.3068735636252637,1.6015462369549571,4.934420896421229,-0.5547790574356813,-3.2326240672301845,-2.905135490455165,4.122910742267626,-4.4726624591862665,-6.506463506987173,-1.6119638296411167,-11.808298654029299,-5.828110925267314,3.123138910509322,-6.1034313861164,-2.621914444071401,-0.90877350672618,-2.813423955250656,-5.213896713101345,-2.3294185644951493,-1.4004254719720532,6.738236006878554,-4.882746380454024,-4.792180489286157,-2.298261297338483,-5.184701501065611,-13.75805713093561,-7.237390317490851,-14.738566856584752,-11.333616591124716,-13.30809700700539,-10.305005004248804,-10.285501751703848,-13.11825169701881,-11.473729080187162,-3.7024326906867735,-15.298399383287363,-13.606241458851486,-9.037995376868036,-13.586730454419545
1669971682.132324,1669971683.127922,3.998013019561768,4.993611097335815,4.0,90.75632628340882,0,-2.2286979028816862,1.6048362747281097,-7.118858806855859,-3.57796190624309,-0.9453143968728878,2.2001549722524656,-5.961565438864184,-0.5491465950282843,-1.6417021089584298,8.656072274269931,-7.383983227398925,-2.6037872039110814,-2.7499232598649677,-7.253766182714886,-1.5949259311244133,-0.25487658629774046,-2.5969923570721694,-0.1251540924362372,-0.5791931372749493,1.0803493718263664,1.904220501672265,-1.9363840561655925,-2.811231941707757,6.301147919903772,-1.1267199657373013,-5.991235634488209,-0.9734997688894215,-8.180870314304101,-3.951810121536898,1.3534841302021772,-5.848689309940605,-2.0879634373754126,-1.6696537899367034,0.09134597612040873,-5.904162834435115,-2.010456866744918,-1.9245064417297426,4.124132153663048,-4.954034681711278,-6.489049718701354,-3.03559789288859,-6.053566294404141,-12.725991353937298,-9.296824539775638,-15.36279349931402,-9.929631623475869,-12.79050432797148,-9.691479115359874,-11.0283498802172,-10.21099923493091,-12.554635970169803,-2.259713169553884,-12.924129991102637,-13.74280570665066,-12.072455980452187,-12.276210967111144
1669971682.382199,1669971683.377798,4.247888088226318,5.243487119674683,4.0,70.75927232248745,0,-6.350671968396618,0.3161378217688482,-7.765252378513844,-4.452878679981765,-0.6123837292926854,1.9671638789766543,-3.0617997198659697,-0.19676075701491935,-4.338286016161526,10.894964510254608,-6.60718671868235,-2.1113235699332527,-2.7469265250251382,-7.810312915071886,-4.237313217498098,1.6939289894451026,-2.5226797825657976,-0.18127666307107657,2.623432324601762,1.4132314140105504,1.8564216853779203,-2.05404686294297,-2.0379207387838294,11.503559243481966,-1.9611367533830664,-3.67287551780346,-2.027423917954895,-2.802390260582774,-6.001448189069266,-2.7979746540115484,-9.67942910041275,-2.781724208063979,-3.7059011265891604,1.442078072423374,-3.5005433081478103,-1.638507466443998,-1.5947105652744091,2.4780865066814615,-4.4470587396178844,-14.335136076914967,-4.862726317195175,-8.671961655470893,-15.079289165940073,-11.244941533861592,-16.392356677897567,-9.784065228798557,-14.209435723857268,-11.316060290578134,-10.731992833560408,-10.037742612321082,-12.335065611759628,-3.510737820574138,-11.74451667416979,-17.065311550691163,-13.939275947121683,-14.535300358992895
1669971682.632075,1669971683.627674,4.4977641105651855,5.49336314201355,4.0,36.997503038952495,0,-7.426495263444497,4.270168647165073,-6.654810048580156,-3.824638991414875,-3.6800890259583157,2.9199325248310375,-0.48648690084704993,-1.2076379122116712,-2.7125313981533035,7.520104380394504,-3.7007259664230316,-2.076678339338275,-3.6099029265604443,-7.8378835541113805,-2.6903957266859093,3.23251475730209,-4.0557433180868045,2.2431047349411823,2.3966284729178775,1.0509574752446,-3.1196318687317524,-7.89639534213542,-6.219445427016327,11.782561361936539,-4.49591811561258,-4.625790687843055,-3.426223425406664,-2.5576441377793993,-4.604299272884099,-0.32574199861470426,-8.388789094412584,-3.558414210330721,-3.0275175608831004,-0.02960693949558529,-3.4375741986461867,-3.8840298116592558,-0.32240310755179913,6.946457421931099,-5.27275576942592,-11.47845566909766,-1.5820199263851042,-7.5107897403452615,-11.792943896891572,-9.161760291827315,-14.518576300395727,-11.047505006760108,-15.853366109239072,-8.815488975693897,-12.278537597192932,-13.692370274848765,-11.890314373822669,-4.520758988822002,-12.117471515261137,-18.66569600156,-9.598860683800275,-13.890941465848318
1669971682.881951,1669971683.87755,4.747640132904053,5.743238925933838,4.0,26.94415366136647,0,-7.6710147752922975,3.3027608634922245,-7.720826555807287,-0.345129563296373,-5.8250749842702305,0.4507818528513938,-2.0770282387364745,-4.520903824115093,-5.202633312210279,4.156031187782291,-3.0860084580705243,-3.691439241276197,-3.614424742665122,-7.913172552720092,-1.719105808007434,1.3357320192684228,-6.416832425799885,-1.1209248992458645,-2.7809968375570233,-1.6393824272656228,-6.175256695323897,-10.481652482161913,-5.0224672208232155,1.6740314981212392,-6.88915094425912,-2.987297409441851,-2.230615989144943,-9.886749434777943,-3.198549514219909,-0.6818828200726129,-4.6061208632167405,-3.5775018611803597,-1.2217094309183956,0.31742630697149304,-0.8497174552023687,-4.421452000246786,-1.9731033688094928,9.83041494769634,-4.997144584722619,-7.943902083491917,-4.03502877426463,-6.546427842088008,-11.025923127494766,-8.565420930667361,-11.529153694055324,-8.656605695992742,-13.202316792254381,-7.509879963393622,-11.375757951244147,-14.550119083452254,-10.711785075551429,-4.3641943173244275,-16.484007758576162,-14.1560172583849,-11.699619380593308,-15.874788136838081
1669971683.131827,1669971684.127426,4.99751615524292,5.993114948272705,4.0,27.19943731606324,0,-8.898466255558615,1.4897512083572995,-11.094346087108969,-1.6464077719212775,-5.612678970234112,-2.536568667964023,-4.24413192187211,-6.509699748020328,-8.223697746113151,3.9677875749410574,-5.280519602256584,-2.677944287334048,-3.870247349632922,-6.7683654972403104,-3.235203267294158,0.2984836597317039,-7.946537261220753,-5.0786141036192065,-5.204069227052073,-0.8336071560432851,-2.4599942925109146,-4.7140863416006855,-3.481502941976361,3.6634447293318226,-5.1440246017687885,-4.0908315654030485,-2.73967976091154,-7.395662864714345,-4.137211985208908,-2.3271534351890018,-6.9159887212855935,-5.670018310796565,-0.915736722791304,1.5032338231422984,-0.3217580140552137,-6.104971414977323,-4.808044052881028,8.231775230966221,-5.6541768114040805,-5.001130946408861,-6.063318991303433,-6.029441997190293,-12.240767351806301,-11.384647114372825,-13.766095754452214,-11.779504425432396,-11.46249806990374,-5.696986282875141,-12.905212706040832,-15.176589940590109,-13.996454213713278,-2.903027176752211,-16.654824920005296,-11.18176757140809,-14.638553737606475,-14.590873635600396
1669971683.381703,1669971684.377302,5.247391939163208,6.242990970611572,4.0,36.62249390891444,0,-5.7339300994665106,0.754141314257786,-11.745166203890932,-3.1978637174216034,-2.7648449440789644,-0.8076829098168703,-2.780496197609743,-3.2580195624276733,-7.017261456071353,8.069569393422743,-4.593457132672629,-0.8645104830593076,-6.554964377856905,-6.015400583883181,-4.546738555909561,-0.47901590732489774,-5.734894228741543,-3.599285940061696,-5.518814776478711,-0.8933805337397615,-3.099230479861213,-4.165010746228916,-6.5261805624777205,8.915457765416292,-6.0359409163490065,-6.0783219042180106,-3.726389038532656,-5.238049880871689,-5.298799007760082,-0.6034457066715129,-7.386583061286956,-7.327288560676163,-1.3099139634275208,-2.106705915326525,-0.1603621697253628,-6.950603818121013,-6.339200453383783,7.40135105699952,-4.28791737820096,-6.085243522396635,-4.921037151410839,-4.5564138611843354,-14.135375030495004,-9.530468557017581,-14.392436356379763,-19.139120728611513,-11.35680695308215,-7.750587286641062,-12.632565170787437,-12.908772093330983,-13.430827324614638,-2.961257563756617,-14.04852345866587,-14.151298460532226,-11.334678347165985,-11.666666559351334
1669971683.631578,1669971684.627177,5.497267007827759,6.492866039276123,4.0,40.34455070745648,0,-2.7180403524257817,0.41002827511958834,-9.824119015341418,-0.8302550374741742,-3.1058477036153405,0.6641073780827268,-1.5402551501242157,-3.6626959440506486,-0.8216598609069725,8.188864924109204,-2.8791254392302914,-2.5722127348085304,-1.061102367904694,1.108967061447614,-7.638364710135182,2.388759171207091,-3.759118437749545,-1.6371644853657514,-6.473438466328249,0.7534080299885653,-4.047441623527342,-4.177250639900933,-1.9272290791998614,9.247734234493034,-1.1947571747019643,-5.979226990614276,-1.5221099580256867,-8.723586886457449,-4.775262252752953,0.6502915085020717,-5.330769513278536,-5.547628351823048,-1.9986612123379826,-2.462660280499394,-3.7991356011137767,-9.095931760694896,-4.239080757072063,7.441971918967526,-3.5750080345734894,-5.466250097892936,-6.39897133700514,-2.4823145417627703,-11.728336590619861,-8.171993188168237,-14.884741169105741,-17.294351560204547,-12.34578313624768,-10.292818547359097,-10.636057075476646,-11.24328467857584,-13.67822307621906,-0.9401387840133315,-11.988787747315195,-14.110430426514286,-12.391533554048532,-9.583529034239614
1669971683.881454,1669971684.877053,5.747143030166626,6.74274206161499,4.0,41.849853442802626,0,-1.0417019422229252,1.0103352706820705,-5.7872328482701985,-1.3586665089989227,-3.102352799873333,2.339031453914115,-0.8584644997074529,-4.119706304213283,0.41789984159262333,5.138752243002576,-2.5914808343627946,-1.8651111076221087,-1.1842088518790426,3.6870903048247863,-2.6093478265808203,0.047835928755020345,-5.511578073058148,-6.185149334057743,-1.8015550959788316,-3.8503916975631065,-2.205326833571008,-5.935088806712416,-3.0143943181669237,6.821288097694975,-0.013899853092565098,-5.164638910326195,-3.295494582118299,-2.8435530922713297,-4.438855189929182,-0.7683320128597914,-4.576911241987433,-3.424073078849619,-3.3524003759257215,-0.051614967702746935,-5.449774258067311,-5.745636650325352,-3.6822329906792195,6.741123528307056,-4.435509934040463,-5.1547334651644015,-6.406655554160226,-1.0150769438044809,-11.944984003843334,-7.926422638768587,-14.19669649196984,-16.013974894953783,-14.12773432060157,-10.344834820368181,-11.509019650993334,-11.322777457290663,-13.362888765704437,-1.7036444865456926,-11.881020021246995,-15.727697466306541,-14.089522180038008,-10.012194208733273
1669971684.13133,1669971685.126929,5.997019052505493,6.992618083953857,4.0,33.79809005062321,0,-1.7666110803867094,-0.6839258801797847,-5.8502716026586175,-5.7044512268364445,-3.5745454486753925,1.1439869085793024,-0.7012209304285849,-1.833519457624846,-0.20711612166579824,6.335533223512867,-5.048468186011319,-1.663968680869927,-5.6740753629111715,7.058293430716011,-2.3601352193291474,-3.628354688869471,-2.7173637439108638,-8.364462842778169,-2.1675817382560956,-0.7727094356717608,-4.643735075999952,-3.6157040064854185,-0.6401031797568526,2.845500233352128,-5.426980065024589,-4.40074851896206,-5.622538826788422,2.143259056253697,-5.9023489702906655,-1.4731703721322107,-6.778240819095237,-4.488352325613176,-5.057426688093941,-0.8116592037112792,-3.386346121831587,-4.086119090319861,-3.6114142495677273,2.3701414252186623,-7.099990304211358,-4.036328806930204,-5.511970204565392,1.4899967292055991,-15.901070115890121,-8.12250640511553,-14.335363860966856,-14.592323511065455,-14.410820503140071,-10.797202697441165,-9.957630487309487,-13.020136800803728,-14.861295294621646,-4.6634900426440575,-13.932113488836483,-14.11930457669966,-16.238215700274033,-10.99297023876802
1669971684.381206,1669971685.376805,6.24689507484436,7.242494106292725,4.0,52.920192754185294,0,-4.355460250947585,-1.5798947740492064,-5.638705585048135,-5.497453700642079,-1.1581135969971401,2.213423255794559,-2.7590081141514666,-4.1499650862091695,-1.6781388028167774,8.347984602228903,-6.538761036903771,-4.175075651052241,-4.645077460778407,2.0436904835197116,-6.76873544028306,-0.08002886668403743,-4.649782547655361,-4.966260947986996,-5.834975522247924,0.6826105499810768,-5.032146088859538,-1.9872041163497232,1.1261787164282047,8.313555610301943,-8.058275592147318,-5.446809711204983,-9.140000946219333,-3.2691643934485604,-4.419782793672783,-0.5341211300364751,-6.358895501955677,-1.5298531235976078,-5.517822083522913,0.4151615927337471,-2.4085721712919277,-8.42230351123729,-2.8558087906087937,2.4123464776608055,-4.67844584654038,-3.0526972240285795,-3.9858178659689876,-5.0396617638322265,-14.33728630333694,-9.322742073153504,-16.05940080268497,-13.78657343740668,-12.799389809553368,-9.338819761213356,-12.309629058254064,-18.466080970947424,-11.627766955908669,-5.824748171400521,-15.715436223095633,-15.484415423986391,-14.062451077035224,-16.668617515302774
1669971684.631082,1669971685.62668,6.496771097183228,7.492368936538696,4.0,53.68868030268246,0,-7.299603190902469,1.764162606884968,-8.657872679152753,-2.926881666781261,-1.5316287214739777,2.3252663029827176,-3.7340698266862926,-6.502474625320314,-4.700348196180376,11.270014329189678,-5.89393756466428,-3.523034354744933,-5.244522616402239,-5.5855959276791065,-10.34830725626695,0.7405482699244064,-7.629387990368817,-6.306790871110053,-1.8273098819911997,-3.708935969554278,-3.891905285780041,-1.5100841680156756,0.5058436843218773,7.717079295329665,-6.6380952213283715,-5.828314328110093,-4.572883461591504,-7.973858737998979,-4.316944242592225,1.2287205005594823,-8.313150383878435,-0.39460082243919514,-3.2209105858312053,0.7123669997697415,-3.005471437475577,-9.075527824426729,-4.206437615281516,3.346095556478437,-6.660281324469553,-3.879635392155753,-3.2298617803451184,-7.447145485870327,-12.852278762527618,-8.809919816943367,-16.446352268160574,-10.762327273883843,-13.821639785038302,-11.775525615357946,-11.86897084569652,-17.27606494739166,-10.858225768708,-6.051873567242008,-16.976611273373045,-15.132434533206974,-14.967661498690452,-20.945916332896548
1669971684.880957,1669971685.876556,6.746645927429199,7.7422449588775635,4.0,52.71807169327754,0,-4.889084690700524,2.5431754647567475,-11.672881056089516,-3.025105801978149,-2.7393037353386616,-0.3180884320602958,-0.5694509702452724,-5.591925086778548,-2.789169231897964,10.995360118676397,-9.253344499971362,-2.5516471231899573,-8.100971013334151,-6.858922279524564,-5.096940056697441,0.8396350828091048,-11.281736706414359,-5.11174808942453,-0.36285686527218447,-6.063162619839049,-2.230900234357969,0.41727245852306294,2.3741202759026034,5.404000937863591,-6.94595421009007,-5.110702184277612,-3.906039794759054,-5.716415591155314,-4.83735000719221,0.02445240517050097,-7.552292511189254,-4.3375744777522165,-0.37873983114945725,-0.790582466892798,-3.8039791023060716,-5.7893195684064755,-4.734359611769251,3.5489652914942087,-9.395090458854554,-5.341529833788924,-5.885599932069345,-8.826080168122655,-13.969432455345864,-10.916038468108107,-15.94226406828859,-13.23509437113892,-14.700408383339191,-11.4600333556613,-13.371577356563051,-14.185353633513708,-13.009732056936441,-7.12442160279028,-15.738147393506491,-15.103212333059721,-13.984015234672587,-21.32034963405884
1669971685.130833,1669971686.126432,6.996521949768066,7.992120981216431,4.0,52.70367954517864,0,-6.2630501134894,0.8191651916123309,-15.99461333075867,-3.672516638557392,-0.5400653951231755,0.6308544770402873,-2.2744984136571227,-4.402132783979439,-1.8102204814796041,7.1565716331609694,-10.009139989247437,-3.011603348506136,-5.981315892343124,-9.930561114784313,-1.92027582192307,0.02441192118292943,-11.927692973040449,-5.19664571945362,-3.501359028561443,-3.5320378910339723,-2.184636388441458,-3.89562998853024,-1.3395609048388346,5.91761238857978,-4.695529953489265,-4.464900835559106,-4.410237483761707,-8.24344586470822,-7.31644004024432,-2.5780631660726154,-7.736691103315451,-4.54924559499152,-1.9565817858215833,-2.6077307344667155,0.49730391444226024,-3.366506060665824,-4.0995979597167125,6.726607715600817,-6.601291988517187,-5.439786164961889,-4.4822032829061875,-7.212808778714398,-14.840677547948726,-10.279978692001357,-14.687827342613053,-16.01665004002516,-13.1440913883541,-12.569755483232099,-11.19238105299174,-13.756236509619004,-15.745534183300467,-6.327410413590039,-13.865323812756117,-13.867660875838821,-12.36519641022902,-19.48799231481585
1669971685.380709,1669971686.376308,7.246397972106934,8.241997003555298,4.0,19.331880100778097,0,-6.379429042073261,-1.4135194434058829,-14.330201931981598,-4.166193598069915,-0.08648293446179606,3.4396796966233585,-3.0069433422399254,-4.7390782547062535,-5.732743766536719,5.004509814209555,-4.0116439553301015,-1.018863514167934,-1.5184819738985036,-5.418136724837116,-6.5696561559330995,-2.362115476585613,-10.782039365856303,-4.409677252096263,-0.7728790316543556,-1.7311625902981278,-4.25054469486036,-4.339554717982423,-2.6454343653963313,8.36778935798585,-5.628291173166239,-3.8305792818316964,-1.0561647351215144,-5.710340328664194,-7.580206595746204,-5.771541700767759,-10.420315288440099,-4.4334146245179245,-3.875808860998978,-1.2785105934008913,-1.5832497126093252,-5.351809490616483,-4.961245218242905,6.851642490885311,-4.009575012473685,-5.466683693714858,-2.1604938793178707,-10.735204996198684,-12.650943033257144,-10.882537162679926,-16.459950811742406,-13.977855332139962,-13.066724236399846,-12.025735417385345,-12.958482722587526,-15.312763323483786,-14.757227117867679,-4.341319718353888,-12.893794166055276,-13.913854767725475,-11.701916109874595,-18.340098269755735
1669971685.630585,1669971686.626184,7.496273994445801,8.491873025894165,4.0,18.955838301396472,0,-7.8293293395775745,-3.3940609229667578,-10.728612165845668,-4.780325330283866,-1.0962113508900737,1.539237383445321,-4.096930616520496,-6.052428046026988,-6.314630682529717,4.980408893874245,-4.999491537294641,-4.288050419805604,-4.180242056032327,-5.6658125704013775,-2.1869814341923695,-2.474980122608589,-9.347488546521818,-2.548946211070309,-1.2344367211709903,-1.9071997521841682,-4.659830702827425,-5.12979402652144,-3.0546009102218417,9.991110552737087,-4.769397969627924,-6.123782692937474,-3.1661212442800664,-3.5798865786653007,-6.907736769156338,-6.134581188314661,-8.39305829961704,-3.894886469898039,-4.452182401302892,1.4457491359889298,-2.557615675298784,-8.608242459972708,-3.938140775389203,4.277724902817538,-7.120480824473113,-6.360029674520064,-5.617831175916371,-8.625893987838815,-12.821365746625414,-13.019888291274944,-18.570224579424895,-14.970324193458186,-11.753145003271253,-13.874148872456322,-12.023901239536137,-18.196002593401243,-15.01062246421011,-2.515399908862341,-15.796734971852285,-14.115515258985038,-16.274531659296237,-15.674702712643015
1669971685.880461,1669971686.876059,7.746150016784668,8.741748094558716,4.0,65.61007979391923,0,-8.262215833066064,-2.828138122915295,-7.736939482179814,-3.9660035637071234,-4.906696463711031,-0.7305222686592171,-5.32251503696457,-4.9695256070161555,-3.007911399507633,5.210938622788529,-6.561947374546296,-5.635339381275928,-7.679442575465373,-8.7300824488076,-3.168555520792581,-3.0324959848749424,-6.744125526161908,-1.996255722434865,-1.9619292138201434,0.43227535346892065,-4.677180410011415,-3.3109069366146797,-1.0994978539590186,8.259472405909275,-3.5227996180508154,-5.727266852359554,-2.742793080366736,-7.17048916360786,-6.39225685733035,-5.482808853248629,-10.801407637647147,-4.7848169448487665,-3.2426759955137534,-0.30988334881580387,-1.2480495253151023,-5.325483773204054,-2.767556638773161,4.861078367472319,-5.418962644701828,-3.6599176380726077,-5.432447433026287,-7.873441618109521,-14.149547301309543,-12.172576211768272,-19.395850864858872,-14.52883993904333,-10.501965735199303,-13.127257785365721,-8.719311636279022,-16.978234797840543,-11.420802502681699,-1.3814266924579668,-13.23554253309293,-11.679771076682815,-13.392194138766287,-16.231777323866304
1669971686.130336,1669971687.125935,7.996025085449219,8.991624116897583,4.0,79.06145724996628,0,-6.088525075082952,-0.576626045868954,-8.144214100701006,-6.103688430311424,0.2679425728994367,0.4123337724659841,-3.6525282888758754,-2.3185657414948424,-2.443563568082353,6.3178025113062475,-8.416125157976374,-4.28893515481528,-5.853101896910972,-7.838052351770192,-9.443300771272416,-2.8171975520897607,-12.152230781764931,-2.515798427173746,-0.3454629888620869,-1.022077881624923,-4.2803494262589865,-1.5491186551421632,1.2614070276143439,4.64813307657884,-5.993289761818738,-4.7068663380358675,-0.6473413818980647,-9.968107716121601,-3.383216141706653,-1.2960793489274904,-12.981073758156292,-5.401977348016027,-4.021783936205293,-1.0132763870528678,-2.226878747302102,-3.6666935710687607,-2.382289746489179,7.881373418737162,-3.883026354294619,-4.539776050013391,-5.523060613460729,-7.360040179035268,-11.65065077717761,-9.58536531342598,-19.25413318897437,-12.041012681332766,-9.392206452552317,-10.208687282704325,-8.867374358429762,-15.09423741026147,-12.503859147288019,-2.1996089811586748,-11.933486638775474,-11.496540701290066,-11.547993634533453,-17.65462417995166
1669971686.380212,1669971687.375811,8.245901107788086,9.24150013923645,4.0,84.03405366558458,0,-6.941328814178508,1.910406373718957,-11.747841477771559,-2.431980845521356,3.245351783896387,1.0451499638535635,-2.2283277385742455,-5.488833247262592,-4.070746476162871,9.547200240409419,-10.410220133847151,-5.8291309490535115,-3.4377901325467954,-7.2502539676060875,-7.016196360952577,-1.2842880571578366,-10.375077302468668,-3.06489879368953,-0.8497479766348536,-3.555880953994465,-2.289323238848999,-3.3418183970394235,-0.03299538483258791,5.562157148919882,-7.231367919816149,-8.462920017616986,-3.042458409606164,-8.548667168935333,-4.046883869331061,0.6672654598028205,-11.181245960837437,-5.073147056341599,-2.109261681552467,-0.18266200767805538,-3.5835328225193983,-7.41744155434728,-4.82676394231997,6.6228787827482405,-3.3444535448848893,-8.324043096634796,-5.909915534712499,-6.390394632478903,-11.91842728030897,-7.412439467498415,-17.250216205250496,-12.282245871465154,-9.2075338469738,-7.9423492297478955,-10.360330929196584,-14.29760432433892,-11.603443257952524,-3.0004357565165067,-11.509610690688639,-14.72411588146182,-14.48898679199596,-16.586766523686954
1669971686.630088,1669971687.625687,8.495777130126953,9.491375923156738,4.0,83.89619915495632,0,1.3450117806756323,0.7911259894175755,-6.838909710243519,-2.1441520031842582,-1.378128785797045,1.183468434561839,0.8472113739725085,-5.522118711045327,-4.899690823192614,7.8491644925178985,-7.183033400765569,-3.5050750043605676,-2.525759122215245,-2.410905511862165,-1.0246378920511783,-0.46733362061898454,-2.1215918180933824,-1.0588777049898976,-5.801383973564899,0.7030034768974723,-3.040629994126837,-3.3358681621715607,0.8694016469793865,5.199460006201805,-5.880440300340527,-7.355607248441551,-1.7839232978877146,-3.7284237329393344,-1.5250611234933062,-1.8058204833691298,-4.42986910658269,0.3993776072782184,-1.5117651738256397,0.35906384995531276,-2.2696479807846175,-4.096639782424965,-1.027721570737081,6.031001956792213,-3.3898399816643447,-6.856554741523068,-3.9972682366109673,-2.784310977143389,-10.879701004407679,-9.927923458331568,-11.506143462008584,-8.522876975936573,-9.112798894317098,-8.214540064813363,-13.106177850830193,-16.450520562749865,-9.299659583337391,0.09884476771782172,-12.859177927071489,-12.700038183569962,-15.55150261473276,-11.880129716802852
1669971686.879964,1669971687.875563,8.74565315246582,9.741251945495604,4.0,56.394904062384896,0,9.007698136741068,0.690386797838653,-1.445563721542178,-5.685033159151061,-2.693763312451839,2.5639058857328942,0.9617185518525186,-6.804107224250671,-2.965352298012492,7.681513587361552,-0.8285397049611709,0.972616031081931,0.8738085771870994,2.8023314050792587,6.204949104080746,4.241784571281415,3.502697797623511,1.9458226913483234,-3.9124820248624865,1.1016885258879907,-7.001886739070638,-3.548511280436169,-0.20035713325997603,9.113186601157777,-2.495813491258438,-4.837078979811857,-0.15165162458097178,1.9712313100158438,1.8756363846181978,1.062617474224076,1.1725218012117349,1.6048966427638005,-2.405973329553019,0.939326052820012,0.734360194306029,-1.5428663842819632,0.7125667737223458,8.701737080897402,-1.6041520875774806,-5.7503017686367475,-2.964529436886205,2.506811910495277,-7.980273402877373,-8.595026605710272,-8.63083155469725,-8.994826903459884,-9.085138276035208,-8.887056306098403,-10.196901035174085,-15.109327379941217,-9.61980635119476,0.9506905338477328,-12.407370477213595,-12.187240287977165,-14.242258939834292,-8.398320481078049
1669971687.12984,1669971688.125439,8.995528936386108,9.991127967834473,4.0,38.94162260154704,0,6.681346561528859,0.9390575753174961,-3.381354103495316,-5.2753068186816945,0.45386897788323666,4.002861820495223,-1.3111297644197104,-4.085130291899692,-1.5490193795714342,6.438598491001249,-2.8547546744447527,1.6236117529753427,-0.15780419315543273,-1.622661872366467,2.8652591830294187,0.32799329878452765,-0.020786865262328064,-0.9468908527476536,-0.36727946262187383,0.501350859988394,-4.971264618669721,-3.4320268788632147,-1.3757951869052913,11.055919772364957,-3.4875374253478815,-3.146778215044701,-5.232696910646778,-0.6654496652791007,1.5097480561456076,2.1903271487633984,-1.3321260812658835,-0.3475198634229432,-2.834781416393395,-0.2897452350820594,-1.2135323218251677,-2.6029126620302834,0.8800490895149705,8.333532673641603,-5.4141930141455,-3.6545723083138606,-4.420929384268052,-1.6045866549392942,-8.499302233630372,-9.1786823318337,-11.81304715810581,-9.922800606602033,-10.90418083380558,-6.867547847418216,-9.124014132385836,-13.501257867878058,-8.179164106636437,-0.05803503270901632,-13.693659742736079,-11.203039985115826,-17.25807070528061,-12.049244129171008
1669971687.379715,1669971688.375314,9.24540400505066,10.241003036499023,4.0,37.24592707829588,0,-1.8804961999784828,0.05260644149417182,-5.768763595041799,-1.5225943002309466,0.4664074124035395,4.0792680115641975,-0.7173831572870937,0.3879343458389092,0.30536657873808704,7.912135354493305,-3.9314478364183887,0.20819152440109362,-4.410038215794985,-7.859545230661496,-3.7316847179117514,0.34304697196810985,-3.983410037275216,-1.8616501647822747,-0.7866815453869411,-1.004495338120213,-2.9833921552351352,-3.1593146482988126,-2.4685478289729064,9.612685987697668,-6.374909798679057,-4.524130994674128,-4.697357616875989,-4.210759520433643,-2.4046772082065475,1.646196916272601,-3.9068259062139465,-2.1721721909413017,-0.6665468418290178,-2.165257320306595,-7.822856441392232,-4.096790114876661,-1.6044464879376916,8.985409655314076,-7.22417351720324,-1.9999675836603474,-1.2238570843192669,-6.912391471670405,-11.341848780805119,-8.255682150401753,-15.244832110916581,-12.86041911338807,-11.363550139692073,-8.272811228118796,-13.01193132379934,-13.373127730499593,-8.704853891255786,0.06439322667088876,-14.632713398687468,-9.351991289181749,-13.05039335155888,-16.17899178690533
1669971687.629591,1669971688.62519,9.495280027389526,10.49087905883789,4.0,30.39087334262401,0,-6.279567322948864,-0.14362988855112502,-8.345216143472653,-0.2142795242479245,1.9227511471167846,3.2698104895810993,-1.9187996600323298,-1.3606923292378215,-2.1537896582610783,10.656605785672493,-3.8712530042876754,-2.1510764915728355,-9.295615223928127,-8.44764751715502,-4.856508743764047,-0.6780550473883675,-5.071161413692593,-4.135795810676606,-2.1244223431288223,-2.5301667887971986,-6.986354307343005,-3.791560444098321,-2.2089409458701317,10.021157945500761,-11.458388236627815,-3.484794929938504,-5.881174424519115,-7.683037811999267,-4.2814494577961755,0.2580298144128831,-7.5027183131707895,-0.47180266189682873,-1.0422146595149187,-1.787707589874787,-9.34012897109239,-3.8634361664975767,-3.046171989111105,6.107318243432581,-6.963956230699672,-4.644645660685952,-2.992640048521276,-5.926836653555777,-11.145226931468562,-9.462392678540155,-17.10753390280077,-14.597676464697836,-11.527488741965797,-9.516100085096026,-14.734148472887664,-14.625583528048614,-10.0971854700202,-1.9305842225770036,-14.139609736942983,-12.620923825475352,-13.51348367395838,-14.68812625127094
1669971687.879467,1669971688.875066,9.745156049728394,10.740755081176758,4.0,18.655784454522358,0,-5.693284036624181,-2.062066439303036,-10.953650760709994,1.1437945478357645,0.16237077032235467,0.9898599819506017,-1.8544950829882834,-4.488294121633829,-6.097778205116569,7.779328143014368,-2.2816466221244425,-4.164337084843621,-7.37240506139085,-9.764914446407984,-5.655382200139084,-3.3852178477927666,-8.744152956369875,-5.486928863325062,-2.5668127826187748,1.7715012104473882,-4.613535068659974,-3.408472559307738,-1.5199446718444356,8.48366214582899,-12.321294696809492,-2.729901064652196,-7.054038035286637,-6.349013790878036,-1.3863928768936602,-4.6981635143115845,-10.728558949244087,-2.1207057563076437,-1.1234014183133396,-0.5072178820278628,-5.690472962634306,-4.456420411605717,-0.9158121356613984,1.1361596432652712,-9.717015352610723,-6.541529574123399,-9.744065472565627,-5.547500355891838,-9.985025127918831,-12.236756119931604,-17.553689349470027,-15.576096327848177,-14.002624351925547,-12.048016938074928,-13.63406414125167,-15.256770273387037,-8.117614216435955,-7.17937141438591,-15.096063491480983,-12.3683740852961,-16.918640710527555,-12.530061677042275
1669971688.129343,1669971689.124942,9.99503207206726,10.990631103515623,4.0,13.391016085720931,0,-5.059804793086654,-3.523016084697499,-9.286239734078997,-0.6698469742889289,-2.3928945929157424,-2.4050389788378794,-2.241246639185912,-5.4197235471118255,-5.580014543650402,7.1440552705044045,-5.334424869845171,-5.544014539379988,-3.3826445681833466,-6.738133440896295,-3.8842627902420874,-0.12166305129117194,-7.980023381738098,-6.079076940774465,-2.7162463929240195,2.090773006714878,-2.2359422320174676,-5.422464814969875,-0.6385593266769651,3.6932047856686534,-11.299811721524357,-3.127092602100052,-8.380293663287551,-6.662449930431718,-2.8121819315909944,-4.489804122718211,-10.569419614395235,-4.323504641278398,-2.2663948054021734,-2.985095204145194,-3.483929597745041,-3.2517125006454424,-1.1820267996731808,2.9373019565823744,-7.473754810221842,-5.913459902359936,-7.067453372880756,-10.373767620978676,-11.392700059056642,-12.10341618232084,-17.003576150031428,-15.71355704334364,-13.784161107818942,-12.730048586187499,-13.106025791713192,-15.468021625226054,-9.697592147362075,-4.509260400241385,-12.109327960110614,-13.417581394905213,-16.168980028293703,-17.53081384908603
1669971688.379219,1669971689.374817,10.244908094406128,11.240505933761597,4.0,13.105509148952464,0,-4.641421303405778,-1.2009768603337352,-6.0197971460314115,-4.35270823830879,-1.6915195948071688,-3.3702867846196636,-3.5097234307082656,-4.638652688261948,-5.284413805804958,4.864016922350017,-2.3938481710094615,-3.6856521797081476,-5.0941529470243605,-3.956423281432324,-1.8944095689641782,-1.6362302332418572,-5.666979379953404,-1.9800474398936885,-2.1986705678159795,0.6535273088891601,-1.7116308638271904,-3.136694567427069,-0.9481430513474045,0.7650832671728864,-0.7593555960067739,-4.581672739773534,-6.033510247616192,-7.235327074246549,-3.6903364499571256,-1.0877364272791112,-9.248998491585846,-5.198292593126002,-3.576222975353648,-1.4427551243606376,-1.8675656581064795,-4.1735884944975705,-2.10848753063517,4.234926359549949,-5.373942772502821,-5.803501882282809,-4.894791646071466,-8.386352157704046,-12.64915956011867,-10.74593186320862,-16.420790811208413,-14.821483854219748,-16.42807763062335,-10.26786055691656,-13.44083460029334,-14.878015135383972,-10.720766432916895,-3.948463106442623,-12.002964053919989,-13.659354799474501,-14.7582032608699,-16.581946867659248
1669971688.629094,1669971689.624693,10.4947829246521,11.490381956100464,4.0,14.766859819948188,0,-6.965258270261225,-0.3622487491535293,-5.132454735637384,-3.892786152479349,0.8472259577586043,2.33305247384215,-8.264887763998878,-4.137639822155726,-3.391763761087834,7.652586253225293,-0.8977960108017051,-2.8520176817352856,-5.920271244090304,-6.980631577759782,-0.3339351088095344,-0.18716043511922895,-7.5030301621476925,0.6336775501237293,0.3028568356655391,2.218990930066465,-2.258452026604371,-0.7338013958818528,-1.4823814815298983,5.806591288099005,1.887147620052732,-1.2983543964441548,-4.572808125734788,-5.211502382223886,-1.067482315445767,1.5081076731839205,-9.819143601484129,-3.3460470589470996,0.7906883959973808,-0.4749886575843131,-5.1738519358587745,-5.263376141691354,-1.9615592574487168,6.55347863536042,-4.0015308831395995,-7.292983508770964,-6.940409757118159,-7.092174169165048,-12.01200399200587,-8.323308312777678,-16.307224219984068,-14.753400390961108,-9.95126090960246,-8.605081355964941,-13.862124204728772,-15.04649602994671,-10.504044504433985,-2.430065346343655,-13.146221111895208,-13.273209093494938,-15.654614669499464,-15.705920557185733
1669971688.87897,1669971689.874569,10.744658946990969,11.740257978439333,4.0,15.113489636125124,0,-6.2687545811733445,0.8474956290674558,-6.028411240372441,0.13580186471353392,-1.9464221895610105,2.9587091458886072,-2.478058088150259,-3.1958041265834582,-5.360655469035677,8.762382171348296,-2.055231995184394,-0.6723819940932083,-2.448287409509255,-5.602678974772038,-3.259732415885219,-0.2824314053059378,-4.08491233360167,-0.21359104700006087,0.055973438318198454,-1.802778367534887,-1.8884236632103657,-1.6693416530979182,0.7286206541153133,7.860344663102753,-0.8908129442629577,-2.8824133912107417,-5.1571339664770655,-6.715950447545626,-0.9858462870652123,3.476560710869014,-7.465014372065383,-2.355320239623193,1.688854243727742,-1.6125630981015102,-2.9846607465357393,-3.869922953947227,-3.3229807456857334,8.944011045532616,-1.7676612329190884,-4.141169230254685,-8.756096083904337,-5.241506835117891,-8.574431677138023,-11.480263533430975,-16.144422788681336,-11.935904031052615,-6.850707211374721,-13.409580692504672,-12.298785275360926,-13.829039829457223,-11.155644365257924,1.7807269774132268,-10.849783161545952,-12.847821944482714,-17.13563995763774,-16.227403529916252
1669971689.128846,1669971690.124445,10.994534969329834,11.990134000778198,4.0,27.18627329785254,0,-5.02006284577675,1.0869027177200472,-8.728991667279608,-0.7658054054894567,-0.9601509242276841,3.5145770892346007,-1.3275268561325781,-2.6650706913423825,-5.968786782114337,8.780031470161894,-1.2771614672533098,-2.717178025857065,-2.3780347537448483,-6.433755286223324,-2.360401074091797,-2.31490648645543,-5.043659146217068,-0.2680967916135649,1.8068114426776671,1.6223391119003672,-0.0440555860080729,-3.882887608495021,-2.4773713340467225,5.710219614846196,-1.8559205318169236,-0.931735041839657,-3.7018940894373387,-8.405766439525252,-1.328660518411905,0.6437105826305975,-5.188721038073626,-1.1419316256436205,-2.4206225794795198,-0.2626141047985791,-2.800200715679833,-4.126002442907842,-1.151945423757764,7.077814768893847,-3.636511818831206,-3.4354808382317383,-7.541238928906367,-5.898512993776638,-9.946182695261433,-10.994781501174133,-15.04032476895109,-10.054639749461938,-10.121013555853452,-9.467714611178058,-12.780229269843113,-16.66933836530804,-12.817062678696065,-0.15583660719402764,-12.334652843736533,-14.624333362936483,-17.285385044914776,-14.467976159036702
1669971689.378722,1669971690.374321,11.2444109916687,12.240010023117064,4.0,31.694347872688393,0,-8.684846456443863,0.8494030520984499,-7.152726131280426,-1.4391740263483075,-1.6511172343849967,2.3630105360820997,-4.259026538922032,-7.369477633021551,-2.796581602023327,7.764315569791625,-2.4927234335749233,-6.4557655810244,-3.344851775659507,-8.096700072711869,-4.7988193869819735,-1.2300635153605042,-7.170326001328662,-3.77823113335422,-1.9187636135295656,1.5165492252183854,1.195199495697896,-6.105416857285042,-6.248768392638928,4.2911975265532405,-1.4813245718448735,1.8023578155358777,-4.704414035614874,-6.938907372753022,-3.5833847848337443,-2.332568169995928,-4.702627813093807,-4.139191817061484,-6.233133658165642,-1.69054603343617,-6.2471239022524365,-4.400996929170235,-1.7083662027796316,3.159423942925606,-11.673673671751757,-5.462269724439742,-5.982773026488094,-8.956739350755917,-14.792350257241381,-10.4390266475113,-12.203524111232355,-10.715481438981717,-13.529166974611249,-7.819861041716029,-13.719835777202196,-14.36742184035106,-10.47788569856985,-3.876241890977955,-13.971583879831076,-15.184423738622941,-15.01827432305964,-14.300370909042343
1669971689.628598,1669971690.624197,11.494287014007568,12.489886045455933,4.0,31.95163347683448,0,-7.3358952759515255,1.3808575033401826,-6.5969811593660035,-2.4475148731212464,-2.136523022319004,2.685247006903255,-4.289702146373679,-3.0080377735150883,-3.149442936280282,8.181230108885536,-5.194624564072694,-5.6037651099605075,-3.2511718281378217,-7.370889345972572,-5.02555917809866,-1.4087333685973218,-7.099027898936394,-2.376387388915576,-7.755699185394594,-0.011450377221409779,-2.013894707808783,-2.4561707993347803,-0.9272862215304463,5.713977101618002,-2.237134360936857,-4.687864163572078,-7.013754752318966,-7.266318973054195,-4.8070105218928125,-0.5216307783064236,-7.128153608559994,-1.4877531435595401,-6.0518446092588185,-2.241871614171256,-4.21206734202645,-3.8741593384233033,-5.777719869571067,4.017028551568471,-5.853261579982404,-6.672301507471863,-4.653581183571295,-10.935200549726767,-13.113907952254934,-8.22328553481759,-14.604333739773864,-9.374130618380956,-14.477364987412326,-7.469886801315906,-12.150451871045897,-11.629327938404039,-13.448235361217955,-4.321513289041269,-11.367354410000601,-13.154063626463854,-13.300978858049888,-14.520676994267918
1669971689.878473,1669971690.874072,11.74416208267212,12.739761114120483,4.0,32.28377903041764,0,-2.4174279523552404,0.42167217668160145,-6.866484257878479,-0.3540238638394483,-2.4199132406931563,0.39787066288258893,-2.2154343964220375,-1.2864712400295841,-2.978272651822959,7.869511851863452,-4.479702141764685,-5.202720793061683,-3.726041813730532,-4.16125826735497,-0.9645956722748801,-0.2900757438846383,-4.183276156561014,-2.1599066030211693,-2.0023484339277813,-1.7807265006722846,-1.6225288295322655,-3.493505274069124,-0.96341325026702,5.5752062337194666,-2.9313118540960836,-6.093850963764358,-3.8509527050476233,-5.349078016267162,-2.407544513004119,-0.4079672640195223,-5.542249882715469,0.07963044222070643,-1.7351375857756957,0.475582330775752,-3.286716402731881,-6.21785650215706,-4.795311108409093,5.333141349531564,-1.36115020344014,-3.533402225045778,-3.7804026089543346,-10.526889423337684,-12.279956219883028,-8.118962535902629,-12.825586490806804,-8.782979692829807,-14.144070898403353,-5.73543734813657,-11.746013703140498,-11.028529722979869,-12.72022333422925,-4.0374604081740015,-8.74705655813068,-12.272292787982536,-10.791458321782518,-14.379725650966309
1669971690.128349,1669971691.123948,11.994038105010986,12.98963713645935,4.0,19.968718470669206,0,-2.6183690722121202,-3.649368910071193,-8.169170540923545,-0.35704537278325266,-1.856044677665341,-1.3663799547106987,-1.0430558300824049,-3.5049814461613655,-3.0642698697251705,7.258724343265138,-3.5722484020698464,0.9372539037086879,-6.121133916458695,-3.41137242485392,-2.02054658479857,4.296669754189801,-6.108994941893293,-2.3426723246861276,-3.0422882588747404,-3.114279918696395,-0.6437722839573026,0.4219278284244835,0.7460167673629421,7.91898706901173,-2.2529837714440646,-2.373268964688647,-0.6744819465457312,-4.765938425184866,-2.206165381158119,-0.1746007847181252,-3.5836870454828555,-1.2469561933544207,-2.31092217392004,1.2302022451410257,-3.580883803692383,-3.462614692172094,-1.5667577567407038,7.917236297555657,-1.4914869979980767,-2.5985079452254194,-6.719589085198509,-6.559829228849305,-13.731119337743793,-12.116957339031632,-12.252023124530819,-9.688834053384639,-12.136768153738283,-9.063226876961762,-13.489537762668487,-11.206592084915473,-13.807310735751308,-1.9535161251827131,-9.440944077598862,-12.402034789085953,-13.39320205647043,-14.342466290203312
1669971690.378225,1669971691.373824,12.243914127349854,13.23951292037964,4.0,19.45880505275201,0,-1.7329435641595503,-1.6328206474599911,-6.769345485810866,-1.2040024693002342,-2.541923076984344,-0.0803144682165772,-0.08880508206881843,-2.14087639490873,-0.16881657400579397,6.749557770916357,-3.406157486532771,0.123042876746004,-6.333751104789096,-5.424216487320905,-2.303151783665051,3.9758325500692324,-4.3755455115304045,2.4939568478306233,-0.6911712917954096,2.8456979968700544,-1.3577201385446718,3.11541658470457,3.150311189131512,8.961038331403437,-2.380198271389019,-0.05808307518224788,-3.436082190144272,-5.180989676098372,-3.695483096542419,-1.4081555534535646,-5.886894075412263,-2.559430174454217,-3.371818157223272,-1.1460479110726538,-3.066051985669951,-2.2954530950470264,0.343864957457775,9.80796603837049,-2.709078994799572,-2.857422077073835,-8.35367848372348,-4.928671679262684,-15.081687355161005,-12.542879073510242,-13.647398176935441,-11.587765143697148,-10.92541997978123,-10.419862831367547,-13.708386298391588,-9.994528130648032,-11.012608313764877,-0.9564009743178044,-9.588575190550882,-12.714349451473346,-14.728877301118512,-14.826338565995796
1669971690.628101,1669971691.6237,12.49379014968872,13.489388942718506,4.0,20.791967115291982,0,0.3444646404560493,3.9956885668638757,-10.631115389554047,-2.792690215626727,-4.966127236399607,2.5839298515332776,0.05360509801967553,-1.3987021159390527,0.40729621443099967,10.060299549395008,-1.3609907258355924,-1.044265580673232,-2.9321346463207423,-6.498897719622466,-3.0862795701975667,-2.0912170691092036,-1.1169958757885694,2.466815498939084,-1.643432862384429,3.350672141650578,-0.7374471006651427,-1.3878665978854094,0.7849147219999347,10.708492231069746,-1.9045865814631202,-3.3304266281375328,-2.647225052231117,-2.956787886993367,-3.40687477215849,2.511874391904134,-6.914241328332503,-6.047993899529336,-3.7521254907442367,-1.7809589118874658,-2.5456476788306253,-2.484880957056393,-0.6536020465055697,8.590855029909207,-5.382423439694053,-0.16447733442748935,-3.0504780710016,-4.60325820135289,-13.541321362167665,-6.012435463392975,-14.095350146267316,-16.162109075609102,-11.867589868734076,-8.390819155106852,-10.964289182739119,-11.132040887488925,-10.925935078590875,-1.7898603538377034,-10.63606041213718,-10.378357777761895,-11.125947113352783,-14.682591124834714
1669971690.877977,1669971691.873576,12.743665933609009,13.739264965057371,4.0,43.580792067404865,0,-1.5465668400780448,3.4654622587413844,-11.014245707629764,-3.1799087293309007,-2.6466097603592864,1.467371811308581,0.9981956320854619,-6.5839901047601925,-1.839902766759831,10.943496190125275,-1.5010124240585574,-1.3550076983402495,-2.8419560208236683,-8.880635441260964,-5.416316512932707,-1.2830320188135638,-1.8570217160329787,0.723269031552979,-3.292380305740509,0.41998025646422804,-2.16083179575575,-4.278027463005181,1.5948177987890955,11.565853284544245,-2.3399784606647946,-6.162218498367908,-2.925011740419607,-3.6955369831448124,-0.5067817600268478,4.1563326783611565,-6.478981035530115,-4.7644453541516265,-5.497455885630165,0.6454373959487931,-2.816228176954378,-4.6729567914671195,1.1974961205764072,7.388335478796955,-3.200321252813647,-1.8240511559570427,-2.4519845013085626,-7.615140221472025,-10.67695367744175,-3.769764144547587,-15.727764901031493,-14.128399143977372,-10.414740757685951,-9.510817088140202,-10.847561289931,-12.147290383982803,-11.126846169876192,0.5390333380522353,-10.455246608287588,-10.904830580157242,-10.85878650927982,-16.870917342132145
1669971691.127853,1669971692.123451,12.993541955947876,13.989140033721924,4.0,61.9440007062312,0,-2.316590258680356,3.701784684111462,-9.551273838519053,-1.1162535953221555,-5.064433387130044,3.383582958788393,2.524943887341244,-4.313213299966849,-4.986130694102322,11.173810469979115,-0.8987939304051109,-1.2786259602476475,-0.5362748913673863,-8.553543559266549,-3.544005908541654,2.9672443212174695,-5.6966508957152335,2.033241471848781,-1.763118447936331,2.49371879384427,-0.2615044640612305,-7.331318624339801,-0.7299683381406107,11.864786999552553,-1.189896674572626,-1.2436474467777838,-4.689838567541983,-8.783425971158623,-1.8109220551556573,1.5673265999459665,-7.513849639445278,-2.0868800422940073,-2.2947958949635434,1.5055927395141504,-1.6657298599979897,-5.2596694361207685,1.797104664886098,7.536911837746592,-1.097710637509821,-4.4241578013958,-4.589737972734956,-9.874252005379432,-11.95938921164606,-7.450618277923069,-17.365064559911282,-11.570963298411945,-10.5532426868825,-9.044064600533739,-12.033271972578596,-12.723781192695174,-9.955644567926829,0.8805675567211939,-10.055284491754357,-13.97571058241141,-11.833790160622984,-16.880373089016828
1669971691.377728,1669971692.373327,13.243417024612429,14.239016056060793,4.0,62.294968287920426,0,-2.604269618438553,5.3947845525917835,-11.37046356737109,-1.946316339567101,-5.648694944250528,2.718853880728276,2.6674062830950174,-0.1226201550171444,-2.4583181825787,8.613776784558011,0.6712647016714574,-1.3029555837689317,-1.6602246720720273,-6.7633489942711424,-0.012574731369673247,3.0503146919270496,-4.657325967971162,0.7743690743441,0.8320256936304773,3.0547915295848194,0.29159069124438186,0.3851057069645219,3.273550681484569,11.218139538464744,-1.4596254529618535,0.5703009201403134,-3.9585948256411365,-6.202163387158928,-2.9615366009600184,0.64059834113149,-6.619288020636132,-3.0942402674536513,-1.8860586268802049,1.3603877607523809,-0.6973365100887572,-4.223336616795949,-0.04601115994700227,7.408605247861621,-3.4883585561767787,-4.366977484768863,-4.092212485243495,-7.449660831190554,-11.416083725654683,-7.172261421286828,-14.678384118974694,-11.312697590081516,-13.565046598963077,-6.158357654325456,-9.197945727649152,-12.67229172165033,-9.210277401142054,0.6038433778536462,-13.509491401362192,-15.602059971189568,-9.912093703776883,-15.128001170656484
1669971691.627604,1669971692.623203,13.493293046951294,14.488892078399658,4.0,62.45699745314856,0,-0.23020470203965288,4.6576984799564585,-7.326946594048756,-1.2995219371387092,-3.865003103202983,-2.107890630506274,-0.5396993759681715,-0.1507202620397585,-3.0392114264059122,5.796911663539993,1.8343587282304603,-1.903618354316773,-2.6365903405929125,-5.24192218774634,-2.2407910133286753,-0.40136790645658205,-6.818120025973564,-2.9851392443444587,1.9736865144247697,2.128899331718894,-1.467426194771852,1.7677700176395739,2.4783559357434095,7.975906687928988,-2.4060961589260526,-1.4508879893947912,-5.190592694576505,-6.940506463560282,-1.1958302338983486,-2.9785563634872325,-4.985018572022742,-6.024557629343054,-4.59524058938861,0.19066988470464077,-2.769075958093661,-2.3086951204509103,-0.22157626062495234,7.230482213787811,-2.6432489622494697,-4.57180024013064,-5.464086486656008,-5.622110533177952,-9.958780696282757,-8.77188092523545,-12.886840125508192,-11.649611550092589,-13.262641471891492,-6.6886772194026065,-9.861262816625636,-11.627025413170596,-10.065986761690544,-1.6330527740352498,-13.198668777310791,-13.143090185421261,-12.48224330495047,-14.672721645387227
1669971691.87748,1669971692.873079,13.74316906929016,14.738768100738524,4.0,43.53204267406939,0,-1.0340277561127327,1.669231850609953,-7.272637358403391,0.4989624347242816,-3.7955516661185147,-2.243669917750232,0.203533756512583,-4.414581944301114,-8.318252993377136,6.5025989655057455,1.0594341464218513,-3.877691877509254,-2.280783860946035,-5.542647642439592,-1.065211381218489,2.7015714008769325,-8.224593114306309,-2.9812275148703566,-0.08077242915775155,-0.29871370639790695,-3.503020649585023,-1.4424577288004172,0.8680975947432489,9.446040582717526,-1.089058918554431,-3.21887922656769,-7.398181193119877,-8.64907764386072,-4.5725356613465165,-0.9428735357743413,-6.092186141855099,-1.799706301507035,-6.7774628990307875,-0.7863089881436094,-5.383157372005418,-1.9784996941515185,0.37855608541555313,7.840597873797739,-0.03177729084048711,-4.057180799961382,-7.071903586945693,-7.497631970299445,-14.438872580892383,-10.07852013193074,-13.662493630162839,-9.078212707328495,-13.775258234804886,-9.492088815972862,-12.57342837588703,-12.407688521885976,-8.699329341965647,-2.1875043878959612,-13.409938069957656,-14.169881720511237,-13.425891637382472,-14.910373717998187
1669971692.127356,1669971693.122955,13.993045091629028,14.988644123077393,4.0,16.406889212959705,0,-3.467715327425103,0.7386140704778337,-7.181759406736362,1.0510359300774255,-1.7250228410485002,-0.35874790436605636,-3.7683264810335872,-1.9845007167635864,-4.771773490073354,3.067993542510991,-0.44847828236993187,-5.914266055135295,-3.4765621855981084,-5.864116145443651,-0.0007113188766647959,4.270022498568995,-2.99812639625511,-0.7481222363245374,0.34885576117185346,2.7730466791074635,-2.6120847139938435,-4.834574786055183,-1.0303250993362827,10.821002418211737,-3.4746734620741595,0.9956725755815778,-7.160088189603416,-2.938280466243741,-1.3599874535012901,2.136675647408212,-6.311028380434731,1.2443380591846689,-4.517797815980931,-1.2029394309123072,-1.0539307325010967,0.5038496470528071,4.311928476634822,8.745347518255729,0.19815085350245937,-2.615785210891019,-3.825659573165414,-4.961068275707522,-16.898786223723647,-7.176878132604278,-14.829930025458644,-9.29837958499876,-11.46801081042806,-9.193644660307832,-10.457212792803968,-11.323251318688758,-7.324006258097859,-0.5316672029023026,-11.800499087569937,-15.226920838517255,-12.54056146137696,-14.395143623985735
1669971692.377231,1669971693.372831,14.242919921875,15.23852014541626,4.0,16.468392751797293,0,-2.513328693560666,-2.7189465037533127,-6.857729745314966,-2.387168303096449,-1.8784980046329636,-1.9656492704464275,-3.704453819067377,-2.127573354566574,-2.5046896434860164,7.039115588126394,-3.471087795327162,-5.901286994655855,-4.399269912580212,-5.61640634363628,-1.4420390779271783,5.692926207994495,-0.35282545340359484,-0.24835540939407416,0.10528289306172596,0.8252857712441173,1.7984421073268109,-0.43956309596140325,-1.4149596185151267,6.498051285307658,-1.106614099055942,0.7971977203143914,-4.567443039391705,-1.933207100116923,-0.9049812851131106,0.8589731924942644,-5.335089922234442,-0.618781077304405,0.10036990582562466,-2.5154803543617223,-0.24228518524515022,-0.23666513480588766,2.4759121252031937,8.234281629718037,-2.044171968867391,-2.6903260851768858,-1.910947288797773,-5.126165531254206,-11.990008277871048,-8.228878348421427,-17.594714333158947,-12.330116361409043,-8.577380565157544,-8.64375116127722,-10.841917772819698,-9.752521319736456,-7.665963135577217,-0.6106838540061976,-12.709730383793374,-13.835334671068617,-10.351665559030376,-13.552371542207315
1669971692.627107,1669971693.622706,14.492795944213867,15.488394975662231,4.0,16.199207700779255,0,-3.1935986322187433,-0.14663451360044097,-8.263386021164772,-3.039884138779379,-2.9328837894091113,-0.20847280157855005,-3.045948498431194,-4.471234667267759,-2.4222403822792478,8.74885097226637,-4.6225192850497425,-8.841154274368023,-4.446204260875248,-4.978927590282012,-4.341325285927884,4.999181212243029,-1.5373972673475058,-0.0581807322006173,-0.3451133058016351,-3.1252597881532256,3.1731401774433117,1.5800289632173017,-0.6988052234455189,4.559348186238098,-0.24456568244971122,-1.8015909073482028,-4.983564312368013,-1.5698366664421157,-1.8295857641975064,0.631309241857525,-7.096528661699967,-2.3857688840712914,-0.9815290422609996,-1.9912773024560209,-2.1453670460216663,-2.1133614351280903,-0.8543499462252296,6.5733520606735505,-2.10706707691854,-7.594476634196491,-3.229520952338907,-8.152412159412188,-10.944269223392105,-8.380497114854244,-16.80047977413208,-10.923436202284298,-8.527638166801214,-7.1657467868199,-11.51792358572293,-9.165981166204691,-9.283547831868846,-1.8668671018224636,-15.950817210942228,-16.17965499873234,-11.453136516151565,-14.231021803770274
1669971692.876983,1669971693.872582,14.742671966552734,15.7382709980011,4.0,15.38506175828699,0,-6.480971894911653,1.9656725494562077,-7.498347253294384,-0.41895873425782043,-2.2166014570505377,-1.6524110127058458,-2.4813658141730834,-4.18227568810271,-3.9545777000335365,5.901263481863718,-2.934642682763304,-6.431041328839688,-3.2810175581826084,-8.990083446736252,-5.08739609808843,3.3153373130165837,-7.268315006515884,-2.877447030962017,-1.2170811918202125,0.6200065437190377,0.592752092055462,-2.1154795328414266,-0.03300266773993145,3.7844657487622473,-3.728528251028469,0.042371982513509376,-3.2448140143391804,-4.246529812012145,-5.7172132711525165,1.6056731487804128,-6.1491745713785395,-1.5667516247998363,-0.15698523248029675,-2.4640185137791275,-0.8519082961083564,-2.722952028897154,-1.0171841793375638,7.60450710776512,-2.564068647216755,-11.205287773751383,-4.923376199104344,-6.272304253932056,-13.676631864908249,-9.311833364989434,-16.950786615403157,-11.242019026577385,-12.353636720806083,-9.158690003842787,-10.30010608739034,-10.048513381357065,-11.068254439026342,-0.46429547960429884,-17.89028965138424,-20.537898135066047,-13.377692609186173,-13.550091013046547
1669971693.126859,1669971694.122458,14.992547988891602,15.988147020339966,4.0,14.659712128538683,0,-4.632424975375859,5.037396054247013,-8.09641236081465,-1.2522884181924958,-1.005553321548502,-0.7943790778320724,-0.5389658820900777,-4.021972647494104,-2.3769336250300297,5.706075226019845,-2.501505034068167,-3.1901593769282153,-5.329735301926588,-6.745879742952372,-5.1643526745726405,4.345098269701609,-9.011184869092103,-1.5999490261935616,0.1420627525501632,-1.357334632203232,0.014726147975308588,-5.220589705098607,-3.9626763151080895,6.567523372388705,-5.448852726176142,-0.5917438296169566,-2.9613247073595166,-6.284747729289166,-2.941750792415637,0.9374360079959918,-5.767025394706189,-3.125102429815354,-2.1794337312982286,0.6439845893281022,-1.5165594966617104,-4.024081233888829,-2.376718182994535,7.238931783280384,-5.011145886673387,-7.061151043688706,-2.3946928908837273,-7.324801185395316,-14.43398212904265,-11.737054798474787,-18.32773961196573,-12.806944551692554,-15.432865235303847,-9.480421650037638,-10.602773403734718,-13.345574662731224,-14.499080835571355,0.4015229014801363,-17.4241530213343,-17.277797083864957,-12.324415186944393,-15.551262168256253
1669971693.376735,1669971694.372334,15.242424011230469,16.238023042678833,4.0,15.947966600457493,0,-3.9641874377092323,2.684949901833873,-7.234661816652677,-3.9739926754204005,1.2416234424566714,1.412843019595855,-2.214296047154224,-5.483867100294118,-5.138891057103658,4.413557255845584,-4.098766263098526,-4.419744389210878,-7.259475753596676,-7.063263067578493,-2.0500983102204353,2.5546395670093403,-9.101208934423845,-1.42292283239404,-2.346610582742394,-0.3132671718866624,-3.3637282616807935,-5.670207837649719,-6.398282669866511,4.77398197386631,-10.466026924208256,-4.761272830946134,-6.383071585065528,-12.365563478017874,-2.30816238110156,-0.8296106365343094,-5.185016495536667,-5.060455870092609,-6.012827681692514,0.4806205246203143,-4.460650506570634,-5.9942903837454615,-4.090292888091926,5.175889844535325,-6.0104461956463995,-6.107241089878096,-2.729600365608176,-6.639068421708435,-14.49392337111547,-12.471890206108156,-15.053562547511595,-14.903240976515841,-15.224016316645246,-10.58006784875503,-12.760155987694702,-11.811261123679344,-14.473288340998064,0.7201395918320165,-17.57394047314804,-16.116996532637483,-13.163569503010958,-15.417643076875711
1669971693.626611,1669971694.622209,15.492300033569336,16.487898111343384,4.0,16.89531575771765,0,-4.655119192238199,-3.9855480356990034,-6.391476790042051,-2.1452467177421815,2.2923362605730184,1.1553124133530996,-1.8298807497340508,-1.5679484316118657,-1.272895590696665,6.8307701975942114,-5.747334346002529,-3.5907594548157835,-6.370661331843309,-4.701306691343284,-2.4506889847310065,-2.313608603255239,-7.520127023596501,-0.6783616140722043,-8.416871530912688,2.498655659264552,-1.9089845423144172,-5.266935914063106,-2.4994767556829327,8.816107016810694,-6.218600255737549,-9.899094328883807,-7.590756987103876,-10.704198642019236,-7.581616022578158,-0.645423631993447,-5.393214802084491,-5.292592412040666,-3.59906785317641,1.1949328550210627,-4.411362761281045,-6.189549611986483,-3.731756276726892,4.115759457906561,-2.415565595788724,-3.3235104015303696,-6.1103596314866895,-4.722778149931896,-14.904247657106842,-14.593547531298878,-13.710254825472578,-13.892095334007008,-13.822212718348494,-11.132022622644033,-11.784426531767657,-13.308359326031702,-10.85949484723584,-3.058667362854029,-11.01995473443245,-16.801252312994592,-14.932217596674857,-15.223931074113908
1669971693.876486,1669971694.872085,15.742175102233888,16.73777413368225,4.0,16.684792616482582,0,-8.351905585202026,-0.8016519241616913,-3.378376436445218,0.21105680902240803,1.0574022555734144,3.7243651549134835,-1.2915982270964432,0.22645379379911185,1.6512929122696705,7.387986439561017,-5.3587465602289575,-4.881089183269874,-5.40454396567439,-4.876051476412999,-6.365428988871638,-2.8481553364484884,-12.228085860470845,-2.4298376262676995,-6.351190977278273,-0.20418961041155642,-2.2841434163307217,-0.3983651091351653,-0.00320554365510101,7.762303583737068,-3.403339698303678,-8.859380560424713,-4.2019082727822425,-8.012434304140324,-7.848809483718714,-2.622068492174321,-7.5517681509346595,-5.021715208656835,-4.378553647983372,2.148450168382563,-3.309644825209037,-8.661918611811878,-1.6036640956710293,8.046705811094858,-2.258605353267252,-4.924271241730922,-5.0189589740480365,-5.995249463046765,-15.624526884547816,-12.141272514764484,-15.687976299126767,-14.107228744068747,-13.273454801044256,-7.4080515560576785,-10.662243335256385,-16.497654965286767,-8.618429880539658,-2.470995252844601,-10.965079725852945,-16.811754058817083,-13.453861018698369,-14.746883554369077
1669971694.126362,1669971695.121961,15.992051124572754,16.987650156021118,4.0,15.828078731034344,0,-8.086049464623636,-1.516393832539691,-6.071593937173043,1.173534064843789,-1.640296014247557,3.442941891843447,-0.16470676329000417,-0.9034202536419313,3.8441298591757977,3.3386267935311498,-2.570876446255623,-4.303333649072883,-5.669782178020853,-7.18250788724701,-4.562417430836781,0.21766283228160171,-10.399361729194105,-4.028047278978734,-0.2378086098982238,-1.021412716004935,-3.7551399191048294,0.19120159434299439,3.186770281912251,5.920739050027772,-1.302071276574772,-5.755123712911069,-2.8359355155846036,-8.876372356384298,-9.455825062184628,-3.055500638392159,-6.921325171966799,-1.6120037274169312,-3.0849602695909137,1.1295272821665947,-1.3552748691688992,-5.097253452419195,-0.1466640690218282,8.896254611393688,-3.9542270958321213,-6.70281370123427,-7.39227406475908,-4.908967961220867,-17.617355176173426,-13.436292374118665,-14.063885156962282,-14.144110516909256,-13.139416434414482,-7.493747827928071,-7.898332786784625,-12.007749180649041,-6.679296727989248,-2.6860203001382734,-11.855230089144635,-14.995271067647407,-16.775535450229306,-11.01291336452018
1669971694.376238,1669971695.371837,16.24192714691162,17.237525939941406,4.0,16.284180302258967,0,-7.989325133927192,-4.612947724802561,-9.190228194383096,-0.882107038048018,-2.429941328378246,-2.8436521082517996,-4.166874035807541,-4.4116081319951,2.3483649332201435,6.227503748221039,-2.8538225117292617,-7.76814523729011,-4.529746481241569,-7.927475768921476,-3.319767647326106,-1.069859054719376,-10.112360471864823,2.3807407577605355,0.5027940511083483,-4.743080501305041,0.7927339777316735,-1.390116362630482,2.411826740282829,7.321805107691741,1.6028939503153636,-2.7012739879386043,-5.943743282782811,-6.285319915977761,-6.7413013026787025,-2.7549239072574543,-5.8061823071869885,-2.588297200098926,-1.9785161919567182,-0.20227952507095084,-0.5499648908439899,-1.757439260849341,-2.1465486418191286,7.7496921838184445,-4.586481116980362,-3.6934091050612787,-9.545436109756265,-7.624095746895704,-15.973759349832202,-11.031551551171134,-13.062109485020336,-13.088963803209053,-10.12704892703843,-7.1452569003034885,-7.718559280024959,-7.930244369711322,-8.715822078729683,-0.7284563548254962,-12.627631681329783,-11.826423923454412,-17.92912741559075,-13.918164112420019
1669971694.626114,1669971695.621713,16.49180293083191,17.487401962280273,4.0,16.451542426829256,0,-8.48049238918118,-2.163415816562049,-9.209806146400425,-6.203170607216987,-3.0924092613813436,-0.3732104381915191,-7.533975919866562,-5.968993062958888,1.241470768606409,10.631512058327456,-1.966463918375005,-7.905205842114629,-6.072327581282005,-5.35074671022258,-4.645854442867496,-4.5623402394009736,-8.758703094360708,2.4755176095709057,-2.3312011653831286,-3.2979950291685602,0.9627345423331367,-5.330197257592277,1.9947960835685201,7.220309013830911,-0.2791967879645031,-5.002330590488207,-8.580585931194166,-6.912026732875867,-4.2690963038129155,-5.150687826525498,-8.409661028813197,-5.779314098781077,-2.312291954016067,-1.4665523667901588,-0.7492215872204754,-3.2342066300131393,-5.447135887511662,6.120932780171201,-4.368923782469435,-4.13438646530592,-7.631723342464314,-8.842185664588085,-13.574562757714022,-12.023526547657388,-15.955448467864265,-14.031578246887292,-10.848439180931429,-9.577079974731488,-8.213074142476692,-10.865839672831692,-12.548990133935746,-1.3637583976235503,-12.610111678375624,-11.415905500110895,-20.94253981179639,-17.589062279745384
1669971694.87599,1669971695.871588,16.741678953170776,17.737277030944824,4.0,18.02974157573274,0,-7.165309663281404,3.1974704514798464,-8.80153317349476,-6.5766237537272065,-2.910456899839901,-1.3569920948534155,-4.335612761614965,-7.3157894440079225,-2.6397798952310114,10.70873935902119,-2.3590758421839952,-6.184921061245753,-5.187646680606715,-5.208989021871766,-2.749275015190362,-1.9584610781547735,-4.729416709725161,-1.9464187725663962,-6.271469518156707,1.3806950675037037,-2.939880485512626,-6.279869821815145,-4.031711054494426,8.295311470265998,-0.9238338264966589,-2.5627806229325607,-6.592465315221977,-8.259905835331052,-3.4400770051662515,-5.762867188746159,-7.852877976408152,-8.480762483550452,-1.573937543208784,1.475175258962418,-4.831210386625652,-4.521275174734085,-3.5203282968045215,7.4500056011098,-4.703068739017959,-5.3004944544806065,-6.634068469618032,-5.702472702435602,-14.213417738645521,-11.842336284501553,-17.904420021261046,-17.213301262807832,-12.470815753453078,-9.351636400871573,-13.9533084400796,-14.53232515223393,-13.610924991100934,-0.45068398102783175,-14.255502767429999,-13.953259191078008,-20.15373788487002,-13.675673403197768
1669971695.125865,1669971696.121464,16.991554021835327,17.98715305328369,4.0,17.291437621678224,0,-3.3990886891117227,2.3776577728606405,-2.584518123911359,0.16109770771319032,-3.712705711682436,-2.6974285611515594,-4.67886997179415,-3.2318357908515787,-2.374141177529764,3.537119966504147,-2.504247197477012,-4.467164307106406,-0.599834530931361,-4.216752213798916,-0.1477449941466707,-0.35984403412175614,-6.0809612565648745,-6.437911207573222,-7.707429771941676,0.6480627276551516,-0.978151973073403,-2.1629702169788847,-3.786676140981236,11.569925902713678,0.02305975163396721,-1.133627638967006,-1.1683244901973122,-5.439213076043029,-4.087259079272106,-2.168278735959652,-5.730855507773401,-1.22133329864673,-2.8912672172257023,6.160250263373955,-2.4726843174239956,-3.7278739347083456,-3.8025395645963904,9.344858624528607,-2.499340944960109,-3.3302928596849557,-5.145782777693359,-5.039496093893541,-13.896939016010778,-11.268331489262772,-14.293366021372648,-11.392124527247523,-14.00463107484233,-9.767314940887182,-11.281102005583637,-12.463015441817145,-13.6536514939232,1.6031255863048455,-10.887273324596903,-12.451624891266263,-14.822074893804707,-12.211212281905809
1669971695.375741,1669971696.37134,17.241430044174194,18.23702907562256,4.0,16.465136599166854,0,-3.7680893475728277,-2.3337005292692017,-2.8313192036362973,2.1260668519256756,-2.6689108069936083,-2.8634639213340245,-2.736406744396586,-1.5133093733541152,-2.379663134383054,4.4393191837239945,-0.9760900218528136,-4.383487054616753,-0.22415557800234598,-5.109863628790745,-1.4611502964162673,-2.1109904422125143,-6.5439513753284215,-4.539490466191154,-5.755438732881633,-1.2977955945943656,-0.14570390807159084,-1.6799608005216706,-3.109602473415165,11.465464933094601,1.0742948926105593,-0.41101676653271046,1.549643030641141,-5.0957950694565515,-4.509213744475942,3.0024033612778678,-7.132164825008225,-2.41276678601974,0.8164265095372902,4.945233242239382,-3.581711944541213,-3.978583458825665,-6.166610149783057,9.139968097164331,-3.41233301233632,-1.2906706104097174,-2.258848740578526,-6.589117387095682,-10.616434747612352,-4.668010536638806,-15.127584526203792,-10.538749911733474,-12.215205962026998,-10.594418075648633,-11.4182258530244,-14.083395060342722,-12.917464217158667,-0.185629974031297,-10.171665559746552,-9.720314240141022,-13.08849156945751,-13.716350849454377
1669971695.625617,1669971696.621216,17.49130606651306,18.486905097961422,4.0,43.60047810145619,0,-7.932397691457366,1.1115777354835552,-6.6162875710919655,1.04607833204737,0.5839460067740712,-0.33262665215124254,-1.3466225954821656,-4.657029606638542,-4.863029095486015,4.495291350673921,-3.4504851542319144,-2.5482181468711387,-4.428920110859662,-7.440403438110032,-3.0296226095713523,-1.5757060555064106,-5.684970197428414,-5.9278162263513146,-3.3398232244593826,-4.802194412252364,0.041888314929863266,-3.227209540882991,-2.794922837998814,5.693935565578492,-3.3601188223132024,-1.9856202747571943,-3.7245466536908896,-5.211123375266059,-7.906872042702062,1.502861414510017,-10.129412547066586,-5.3064903661906895,-0.4531698311597051,0.49436584588640775,-6.796982947378164,-4.9325626640069,-5.72897135442215,6.0359350584311455,-3.858453833085644,-3.563254211755755,-4.289365543443447,-7.645700141413359,-9.759890411509303,-5.05974508077859,-16.392202484394108,-11.495616062933767,-12.679922014657933,-8.935618801363796,-11.809299180802137,-16.145754123676927,-11.936368511798186,-0.7544053993118618,-10.718327471955691,-9.944416042246218,-13.622796419633865,-17.01549737707763
1669971695.875493,1669971696.871092,17.74118208885193,18.736781120300293,4.0,45.72215639607672,0,-2.973413334177687,3.3630468308679697,-8.267022482385082,-1.6700276473280697,1.6561034521889864,3.817654313784927,1.320662676033897,-3.2942059375181234,-1.480643452119153,7.6858166801874575,-2.4864990459141496,-2.0219239174738877,-5.817908440349458,-3.7890902653587477,-4.795421914976626,-0.836921362482449,-2.996374738771517,-7.364501845340606,-5.385464328532806,-3.303639646157344,-1.2334377127477851,-1.9898860989381566,-0.1387246993337602,4.994909631971119,-6.531161458665994,-1.6506860182653094,-5.109147553607895,-2.67895214202181,-6.879492165970927,-3.3459310055178864,-6.576362048467736,-4.9935530257820595,-0.2096120792666893,-1.3425138816800826,-4.233286208585721,-2.415145435070441,-0.17702242469143786,7.4889872754176965,-3.324682495995928,-9.517233671425684,-4.969147600634911,-7.14817875959024,-14.701439200489752,-9.697125384853718,-13.190974059506537,-13.76707115220726,-13.03741243928167,-10.314439555559716,-11.766825338657032,-13.067839883112178,-9.831346072921276,0.0397149041903385,-11.000658069203507,-13.284009794104394,-14.126487162538249,-16.383202752981767
1669971696.125368,1669971697.120968,17.99105715751648,18.98665714263916,4.0,46.54086802349019,0,-2.01894409614635,0.9948511996156015,-7.461808359501012,-4.2116808632093985,-0.6851125431820206,2.274714874069097,-2.476581242691079,-3.964480370531647,-0.9403991808539797,7.3937726690728915,-2.068429969422005,-2.3484727344515544,-7.047925473055238,-4.704136531356249,-5.698836704491871,0.6850040992215376,-3.4241768176413645,-5.089941189344437,-1.5631147052436298,1.5649182056933273,-4.907801176263168,-2.6829213513204215,-1.0573177198394852,8.751024187986806,-7.417298622495179,-2.6790108222279074,-8.737399978433771,-5.83836609000395,-7.070219889359103,-0.8927524718403899,-6.483244797567714,-5.173321634697662,-1.0473480136104576,-1.7005324949595502,-1.6816999699047117,-0.2866993524492219,0.8999934059476856,7.706340929964881,-4.529122545907686,-8.751657474233731,-4.617911604731406,-7.572363088905241,-16.150520137177207,-8.543146643101666,-12.876933542931322,-15.13442854555712,-12.577426906350567,-12.232056759317217,-13.128720564426784,-12.200166612725427,-9.99969057625232,0.26057044417149555,-12.250655058200376,-13.285915654932392,-15.159115710803466,-17.21403996266278
1669971696.375245,1669971697.370843,18.240934133529663,19.23653197288513,4.0,46.86220566843546,0,-2.673314657746173,-0.6006268874434209,-3.0041199891346433,-3.0455622697592055,-5.470426816630223,2.1331294489098718,-0.34641585027216404,-2.26385526053246,-1.3210325175158912,3.576498064148053,-2.8812318633049623,-3.323523278143789,-9.787796807678365,-4.316047395778291,-7.459099641237028,1.887430107749553,-4.170756966279628,-1.6434789524138727,-1.7917753479192056,1.4538107194814698,-1.2680635535637317,-1.5733325454807359,2.218182564243622,10.772682985183923,-4.7659417941431395,-1.9839750418869817,-5.897828565373903,-7.485306756488783,-9.517502905073208,3.40236641745752,-7.970493473309905,-0.7404014966182684,-3.196878915494012,-0.03857462570533666,-2.817292242762104,-0.3633691468379399,-1.1961225771171984,5.020983776414694,-4.929455312190278,-7.553134090917887,-8.61416627993383,-7.598200525308666,-16.16718731850072,-7.298166661214883,-14.110039081008026,-9.885496206605396,-12.723250268125138,-9.937232612625714,-11.07632801355135,-12.461014840581692,-11.315931840367961,-2.816697010796835,-13.272848288398706,-14.31941611325026,-15.329072132634883,-17.93120545648834
1669971696.62512,1669971697.620719,18.490808963775635,19.486407995224,4.0,18.972608995058355,0,-4.756529955671114,-1.6785006756055214,-3.7840444692007202,0.3338994300258209,-4.99562592562815,3.056485860920553,-2.2417553035049553,-1.899482895909907,-0.6242104015943231,4.347225216399262,-3.9538444671504838,-2.900264681495397,-7.753792527355391,-5.532690991214681,-4.502867354823807,4.77633414696297,-6.877992827286628,1.2990284341666845,-3.5922712490244653,-2.5673630367903266,-0.3309466674747675,-3.792199258276896,2.4019418161516155,7.836344327098185,-1.2729975234858024,-0.9846762808342086,-5.414122755132266,-6.2630187944547675,-5.507484004980938,2.653685667212129,-9.567199477498892,-0.07589746612263228,-0.38635849258048605,1.100373858885937,-2.2443452480317005,0.08126552552781587,-1.6963311694810348,4.59766420756358,-5.872143590087186,-5.430554822402641,-6.595897450689928,-8.625176180182185,-12.0271309300196,-12.79216974593863,-14.980425440076841,-9.708736850299346,-8.681419333017566,-5.674961316503376,-10.074924533698677,-9.10158495852919,-10.89299444447018,-5.666870448618675,-12.404916458460821,-11.20030723968542,-15.678303936371469,-16.49515770022369
1669971696.874996,1669971697.870595,18.740684986114506,19.736284017562863,4.0,94.11505459313327,0,-6.024123305524162,-1.0141940678264443,-7.293602031225179,2.9601143194965145,-4.136920309369177,1.2497526448262382,-2.7562571634631916,-0.9827263733938431,-1.2125371957205324,7.102874970322746,-3.3081687835601112,-5.390525472312429,-9.544137189999994,-5.860654577702336,0.07491140176965742,6.505395955698471,-2.407738001378486,1.5422537319245886,-4.3970022697139255,2.6681158634890405,0.8634627109911222,-2.9107640897402294,-0.9224451382412882,5.4907708083155775,-0.5328328821262494,2.1875564819908986,-7.971541538420812,-8.02545395576793,-2.2159157104445515,-4.134724634296349,-6.673264344020515,-0.6589803291439361,0.8010695860761974,-0.42568390112158905,-1.7510750375872122,-2.976879351906736,-2.742508777692251,7.025106255510031,-3.5040831755468016,-4.247918184372124,-4.8751698116958355,-8.315175159062946,-11.58149498364885,-13.144525979842319,-14.441652319201982,-10.305084770718217,-8.81267340960824,-6.925425133039709,-10.050101581604544,-12.89218907783366,-11.669345931718258,0.14351024497563517,-12.319327293750357,-12.305859637203989,-17.542114633040953,-15.122157243248719
1669971697.124872,1669971698.120471,18.99056100845337,19.986160039901733,4.0,169.64383121911044,0,-3.5787398518174838,-4.416465207446679,-5.483465239151123,13.413317766833346,-4.918447519227417,-0.01723647213616554,-2.5008076149206824,-0.5258245189775216,-1.9981465601353308,10.693067145580407,-4.058237184170132,-7.449676441990452,-6.241284752372678,-4.905611602282167,-0.9348173720601244,2.3226904502844468,-1.066013739967401,7.386772900575284,-5.160161466082689,5.287909648513258,-1.0936902793499028,0.9752126733411994,-0.35060095621727155,8.23382420998583,-5.650197441852136,1.6454452064694924,-7.2757911863766385,-8.779557304287124,-1.127236650277638,-3.5642996165581966,-4.740636235860126,4.484147628608505,0.8899003422180722,-0.5388889124034352,-1.717054883028824,-4.95506564939302,-0.917604566439829,9.901063436135173,-3.399081014089277,-6.6189244431966365,-6.30259161339073,-6.511626747849586,-17.42964201979004,-11.070800032460003,-13.896256945562921,-4.5443372521185275,-10.390172921000145,-8.140186762058221,-10.608790579392569,-15.925036135878312,-10.715484980620971,2.8259818665021568,-13.453916013913469,-15.882638066909633,-14.29533439110628,-18.612529459377093
1669971697.374748,1669971698.370346,19.24043703079224,20.236035108566284,4.0,175.07629632064098,0,-2.33805770898322,-3.8766628781252854,-7.657366395505449,12.888015460822649,-5.284960838027013,-4.230476528373476,-3.473945570786074,0.02673281661022337,-2.1437738719276513,10.714617750434856,-4.793195745155048,-6.628787124973403,-5.1305056035237016,-6.46352954541769,1.7682909929218338,2.465206105170978,-3.8107559011971857,6.389660401464484,-4.698214458428751,2.4942072140250713,-2.4406251303976436,-0.5310316014779436,-0.3710817438738885,6.7969807727100875,-5.586222756026712,-2.3401179625581996,-6.652825394457946,-4.470147492607386,-1.2994452397045824,-1.7757436920713383,-4.1059281045582665,5.698783687193705,-1.7729503306147576,-0.0751782565277993,-3.75055954376378,-4.025100041498153,-0.9882513272280062,8.307334778093816,-5.767920478111087,-5.089682955590416,-6.081149627241072,-5.443801259997132,-16.02230522581752,-8.962814355920914,-14.105248596510533,-3.9053133286793864,-13.10372070821714,-12.750801349323822,-12.491548474113523,-11.630760144455952,-9.951399930136763,1.3687161776886692,-13.873826867941633,-15.921874013370612,-15.664431314124172,-17.48112657665034
1669971697.624623,1669971698.620222,19.490312099456787,20.48591113090515,4.0,183.64113110934346,0,-3.0157510740865643,-2.530549186228979,-9.521486150376766,1.198949969412806,-2.8921507882081126,-3.2723239224361125,-3.793969388275067,-2.416856905154646,-1.4350018297858844,8.55000556799422,-3.912423680091483,-3.74904370250464,-3.14020688300292,-4.840630766241846,-0.1540898424738859,3.5624788040043462,-3.584311413660226,1.7294862121282817,0.6954710647307814,-0.7141863441047841,-2.9037572707737174,-1.6013186071464716,-1.7199829360368275,7.155914262021125,-4.734746986721271,-5.660630840632046,-7.369789310436411,-4.513712651092419,-5.7801566042878125,-0.7098957541718367,-6.334328013822866,0.5051048175127375,-3.3604577246026213,-0.22440149833213213,-0.31439972414370304,-1.4125893438835297,-2.4969369875712424,8.16898765380589,-6.631076077519183,-4.393079632771554,-5.995355900166594,-6.4844386762709805,-14.976015535438323,-7.907893482134448,-15.900345748962572,-9.000407301144499,-10.31135104402129,-12.655693796516248,-11.623153005180555,-9.527357051722857,-8.615702861378336,0.9054008315709794,-13.421843361929122,-15.089137175692308,-15.380082220363434,-14.811454327192264
1669971697.874499,1669971698.870098,19.74018812179565,20.73578715324402,4.0,153.535311203245,0,-2.9194613749088156,0.4910543189494337,-4.490974297291149,-0.26643749329571026,-3.432869560045197,-1.0096937598253841,-4.105515842113076,-3.864140000681915,-1.4170167020757147,8.11269219477295,-2.319182294187275,-2.242975188088023,-3.5416147188538116,-4.560194701888359,-6.631193673170578,4.737410150309725,-3.079882123119492,1.253539514638905,-0.28613351107937274,1.5207968661657705,-3.361523847617931,-3.8155324961935855,-6.029097675493411,7.90355523794126,-3.8913848218927183,-2.7403536311490644,-5.407833449106017,-5.550705914437999,-5.213361040828786,-0.6511494480213189,-3.8622188763703234,-1.5111073708454457,0.6288841901017312,1.7940189585942834,-0.6215202799108922,-5.664419767856511,-1.8826974095155236,12.083942616990358,-4.763685945206129,-3.4581713968387815,-7.789611210034506,-7.514536782105436,-12.606587798573816,-10.384783403119453,-13.349020413695527,-12.010501212408226,-7.0285362840154075,-6.544858305680603,-14.720549227606245,-15.121299592696442,-9.868969645486791,4.0493846974698915,-15.979222603969735,-11.790314763402282,-15.766592055755469,-14.253809232179606
1669971698.124375,1669971699.119974,19.99006414413452,20.985662937164307,4.0,45.71581271135648,0,-5.8404260777296715,-1.9902143236786631,-5.5314092018113605,-3.43066698015034,-1.4615217842976485,-4.756867898347588,-4.509909465199196,-3.451864310045079,-0.21557798216057023,6.797157453357298,-7.591922422221583,-6.361288580746525,-4.024732501198121,-5.954713546799274,-8.370378946086568,-1.6451447950954798,-5.635829944943724,-2.5458106512503864,-3.3092900871695967,-0.5121571312889762,-5.222599539546735,-7.863710734218871,-1.7063317467287322,6.246387860309385,-5.207021125322449,-2.6678471326071875,-3.974771944603999,-7.735931171387188,-3.6473460811318894,-0.3689386666086977,-3.552473346581823,-2.091724099527369,-2.011055238817879,0.508457602786996,0.5459489379091957,-5.955745472708004,0.07412464942837814,8.786046194785575,-1.7422294035985486,-3.870377172285079,-6.762711205800535,-6.859414772838694,-12.036561403131174,-10.562554566720596,-12.994227720421854,-11.574733455580212,-10.065365218380718,-7.93513519626276,-13.221238312565335,-16.261955817094922,-8.455074136072575,1.8575736696695357,-19.321007643358435,-11.538416537428738,-15.92666844973115,-14.573068781645615
1669971698.374251,1669971699.36985,20.23993992805481,21.23553895950317,4.0,40.225237943767866,0,-4.135978043429443,-7.978748633659654,-9.582668620849947,-2.432609478438203,-1.0574909717180652,-5.800121947754419,-5.353881506444075,-4.888856075559093,-2.6719249478110947,7.112629151554636,-4.379748029981444,-9.067211422238046,-4.732396507854949,-7.5189272143134245,-5.3784812854177035,1.8717580565492846,-1.1621575276594203,-1.2668316351104656,-3.4877583119827626,0.26741941286734555,-4.39986330031609,-4.223475207640957,-0.8997026035677819,6.228120156480889,-1.6985485487277738,-3.854396139517544,-2.1300474465161345,-8.013425749046226,-3.078760610642351,-1.8856690989496625,-6.502470905811637,-3.3911042234371673,-3.9531224125848548,-1.5972023764419052,0.634269588301037,-5.826250953213432,-2.339701946265718,6.596870255209794,-2.4679746052642852,-2.802661747939626,-5.4917097229785945,-6.034585255190104,-10.777679373037719,-10.384570506414025,-13.942677862641425,-10.949256205257218,-10.663891204157201,-10.12609121782015,-9.815763246448997,-14.351259795882353,-11.51631588018528,-2.536283736375144,-12.43941235162305,-12.902747517574046,-12.974796436350797,-15.473801889691057
1669971698.624127,1669971699.619726,20.48981595039368,21.48541498184204,4.0,19.094898503170356,0,-0.38458656201560276,-5.211527671061878,-5.978343682617719,-1.750025909633783,-1.6637701056795637,-2.0551877686161317,-4.576223796478221,-6.105254121085717,-3.7162633476684133,7.806931070400584,-1.7634903301611236,-3.2537069405168317,-6.6067330601253875,-7.686292671413923,-4.484810372776228,6.021494007372448,-1.6640121678733075,0.49494821573800174,-3.451589108224502,-2.021127638420211,-1.9159951783795337,-1.684832877291015,-2.176746781528646,8.486067100353846,-4.344402104187078,-0.7193743238026296,-3.753366747739947,-5.172206894101839,-3.481446910723242,-0.6586798452710743,-7.599245059567254,-2.0041301341708473,-2.0791987840046438,-2.859589240900839,-1.4966380377292487,-5.774936680238387,-0.8965619317195219,6.772863862545031,-5.897197268544293,-4.150996284484921,-4.142682523944635,-7.325785785677205,-10.804679517278359,-10.074478462893197,-16.09384255323947,-12.849521540833369,-10.868767590721824,-12.032665332182965,-10.13467859847716,-11.803898429118167,-13.086238548084943,-4.899637027624836,-14.005530767906933,-14.777194737290415,-15.453678215830903,-16.109119520796117
1669971698.874002,1669971699.869601,20.739691019058228,21.735290050506592,4.0,16.051671540164968,0,0.28128466629089255,-3.3891491870593464,-5.193663726893351,-1.2719383151679073,0.8255201272765217,0.612216768895412,-4.409800023511695,-9.699004331509375,-1.8406384739520694,7.5611903585450975,0.07327371486119508,-2.0769199141474926,-3.9278304350746964,-9.560953898823849,-3.8565959757971466,4.6812561510030015,-8.530026775181483,3.307592942309621,-3.171032301367085,-3.234278003090381,-2.806775604669885,-3.8591993037654926,-5.28136869123291,9.832428971195624,-2.7862635073692315,-1.4421509063265427,-3.50224543932777,-4.906339617991338,-2.8179833035284356,0.8377993361726119,-7.117748073902607,1.903804580118757,-0.36269808103265166,-0.7904707749893272,0.6827946906665672,-2.2139046206228556,-1.3845655939071277,7.901681041417494,-6.198261100238045,-2.6384538986822497,-3.4387999729259433,-8.12936545522772,-11.759368867356685,-10.413764167849337,-16.391908098613857,-8.33701269057954,-9.066058709585597,-10.901643299858518,-11.118856036131426,-11.580459811078823,-10.3177222577939,0.061260445546534426,-15.307049419637071,-13.655006574297373,-16.522807382584094,-14.713952713368014
1669971699.123878,1669971700.119477,20.98956704139709,21.98516607284546,4.0,15.459318885321997,0,-1.0591095985584849,-0.574799957342816,-7.973819486735728,-1.2063373157704533,0.5006649622820389,0.05370956679931692,-3.589615968189184,-9.568850122947808,-4.123952537110197,1.4270448062330519,-1.0402684816504575,-4.16619865109661,-5.486158470531478,-12.774248339648363,-4.324357362031748,3.4473889064167764,-10.017134567184664,1.516925278549754,-0.2244234191871773,-7.302917464765631,-0.027694567271288984,-2.572695542774366,-0.41250450781892517,9.720240621700388,-2.4332994028366937,-3.1879618249338293,-7.239408325048319,-5.132982542380602,-5.828650114749775,3.2349443977969554,-6.921615404004625,2.478820042361487,-1.2444493159372585,3.665796663288032,1.782373253732263,0.3382340869382887,2.32180154713777,5.999505591145567,-2.943392476169114,-3.1754282694766207,-0.17541530997288488,-4.988024929516403,-12.273975949297089,-6.127227600458242,-16.915252090754336,-7.117696800469979,-9.349993373094154,-6.567109600957561,-9.723333598978709,-9.504297235994555,-6.218560856959221,-2.3235368333516613,-13.254263599903695,-12.87120668679795,-10.61484811021139,-13.729352509441702
1669971699.373754,1669971700.369353,21.23944306373596,22.23504209518433,4.0,13.23809022828713,0,-2.023367210004065,0.0968198638249814,-9.354353354704921,1.1732864445901212,-1.522163038119093,-1.844218288334028,-3.2520190902457866,-8.868471606336653,-7.005633564543733,-2.1743691385638773,-1.3921766019125865,-0.9436356693872348,-5.20672298866974,-10.130316014636428,-5.050702191691949,0.9655818659568836,-9.293502056824867,-4.144597754284292,0.3561358272680059,-4.3199477751757085,0.26198026564446164,-4.156078133219262,-0.2649054231334784,5.717769489640316,-6.203431996491533,-3.66794668095815,-8.52225297561025,-9.358460556853709,-4.576400009809584,3.23936796915198,-9.145960299115087,-1.939004545145394,-1.8580791337283853,1.9448335482636452,0.685265747671824,-0.7663336666926139,1.0482952544189224,4.7057635634004775,-1.774347097207238,-3.2098986178682054,-1.1173151216464803,-4.094252251271367,-13.547453350478031,-6.7013973696733045,-18.016252668278543,-9.413403150703058,-12.800438148363352,-9.297767892023769,-9.311405767305871,-8.031588117781165,-6.777391656192768,-4.953465835334494,-11.8871812106602,-11.821639525098401,-10.530322187337319,-11.844088944198239
1669971699.62363,1669971700.619229,21.48931908607483,22.484918117523197,4.0,12.844648560960502,0,-3.091625590009765,-2.225199732568404,-10.397851139965104,0.03434151430644739,-1.5140217743785138,-2.8685725267201745,-5.552991859971492,-7.3992408791645,-6.296178412742247,2.255843104197817,0.16763989850494482,-4.851641078759911,-4.778991950930132,-7.318160836051319,-7.481278508585548,3.6259478177670617,-4.072709169985272,-3.952276645016235,1.8485507782580122,-5.066759721266338,-5.206629172976297,-5.6171338817553345,-1.6521163442623352,3.9975911187967386,-5.173758936739544,-4.243749426173437,-9.336479991627588,-9.510942533851786,-2.634707931832497,4.357353931962012,-4.24920947949424,-1.432524603990169,-0.4185177337219897,-1.2766928342631099,-0.05433352436472989,-1.5459246966568192,-0.1593999744128537,6.990725254009305,-2.0263487721305036,0.6785414365113068,-6.1835724657577416,-3.6657382269142817,-12.755156297783758,-7.700718475090631,-14.969758760433034,-9.014800449169561,-13.574393812165106,-10.37041934112423,-10.66791047241719,-9.101629105986195,-7.4618873386462825,-2.200849474643069,-11.478232817041906,-14.46182092972098,-13.843536598315575,-10.4163873844593
1669971699.873506,1669971700.869105,21.739195108413696,22.73479413986206,4.0,14.290182554702143,0,-1.2378439277086069,-6.506847986061323,-7.538535110709041,-2.0887342133121316,-4.079514186175794,0.0001608853049300025,-5.633385077356512,-6.511676468578243,-4.856392180843646,4.825983883160622,-1.2242068365750678,-4.642867216330005,-1.5103982208589752,-7.4444708840262415,-3.168843847517671,3.056244568104674,-3.965907067998958,1.5481930239735255,1.3208136610514942,-2.9718322672080095,-2.2479692391220056,-4.3251848735802465,-0.7064112020390602,7.757161312762163,-4.500606281360463,-2.3297573143872023,-6.013282890985209,-6.893866842617045,-2.245242869636017,4.418787147115423,-2.8940402550743505,-2.7290980775825835,0.4953328268065193,-0.2284987856551381,-0.3698287071001552,-2.1157228057356097,-1.0194747641965,5.823050894571905,-2.654183436157565,-1.0541971187004224,-4.3296630256554955,-6.320230475955589,-10.160266204294576,-11.410843694873126,-11.69435955038005,-11.417348965769325,-14.266300261485252,-11.646483190016486,-12.263941713325977,-11.577585385783477,-10.366515255750775,-2.087046941211693,-11.511350715947408,-14.197333475828138,-12.94762928646527,-13.0795597588963
1669971700.123382,1669971701.11898,21.989071130752563,22.984668970108032,4.0,15.174673733239269,0,-2.4624211649254457,-1.4481485616088283,-4.94807301251112,-0.15428976441859743,-2.1732439696780728,-0.5278267479002234,-4.1782461197957295,-4.262416178657969,-4.036468815066623,6.9759369139473755,-2.3303711013312083,-4.368017858383968,-1.73233126282549,-6.660557792863786,1.5279237441012172,-1.661144210982708,-3.2948351547668002,2.8274380848606433,-0.8696688382937069,-0.13505281903541244,-2.4469677948749395,-3.7020196189146426,-3.6083047726345736,11.76815973659085,-7.924147018838617,-6.007395966205724,-3.6116165968763028,-4.317761330677634,-2.0092582173417433,1.29977216450802,-5.945691700697079,-2.696535821722988,0.948455192217893,-0.2990310717449563,-3.8273202310900634,-1.4434355186170402,-0.6600067345170189,8.011733975348818,-5.9645508965409295,-4.864321108042827,-4.136538791891616,-7.493914925651234,-9.724530503711016,-9.679742935266079,-13.359546210336577,-12.238384466597918,-8.759244012802379,-11.110650903352006,-12.77923186681119,-11.890794694434971,-14.239986481252316,0.9371694454219741,-12.73093122436827,-12.335401381181681,-13.487873864169025,-12.700564097364593
1669971700.373257,1669971701.368856,22.23894596099853,23.2345449924469,4.0,14.896864129253501,0,-2.754408286429743,1.6119395148308724,-6.876355393463548,-0.5783719935553205,-4.193066378842477,-2.8136099300076327,-6.195590539551649,-3.535962629109429,-6.880725485398776,5.965261266536381,-8.905518280890464,-7.267540570715289,-3.9687120528978603,-7.165354273781381,-1.0115151108963316,1.1656375897460938,-3.8005727976460433,0.5288047824335409,0.9502653506021423,-2.269099419744036,-1.6251902635830704,-1.9608967360893257,-7.188377823888711,6.143170839388148,-4.323111718061142,-9.034225180156552,-3.0167670609022212,-4.700746708981388,-1.592091632691557,2.557017956545061,-6.270570809660553,-3.5819265861251686,1.2698045238007314,-3.1142851959441553,-3.677762137555435,-3.784125343974545,-2.3503071657462464,9.213690004803603,-3.476685319389276,-3.230710950398697,-5.111493431429231,-5.31886766852586,-9.46526411488384,-4.224303397349491,-13.70616967345047,-11.33862169001148,-6.8607344806093185,-12.195613383615076,-11.284986479947463,-12.913959557033197,-12.401365297197382,-0.7611208725066887,-9.62468775081776,-11.68785984563814,-13.489421040814713,-13.059128773488023
1669971700.623133,1669971701.618732,22.4888219833374,23.484421014785767,4.0,14.22500047659398,0,-4.442577070971283,1.6421824664952411,-4.356106945538807,-2.17553000238131,-3.294651396748783,-1.7554945982295476,-2.5684180811931245,-0.41231726152164216,-4.229565110436938,5.284565158028045,-9.071838283139098,-7.842080817983657,-6.308229134183851,-9.03015421549117,-4.57114293387928,4.596392049341597,-12.24171208404684,1.8802337745875521,-2.6138175751389294,-4.492137254076791,-0.44468759636208993,-2.320510576830163,-1.4527591464823562,2.7484084275987946,-0.08921021173495339,-1.870396117651114,-2.140263500218828,-6.976239591958308,-2.4914140200281962,5.1131398116624585,-7.37496234478119,-1.7590670335771792,-0.29502900478115096,1.0105471905854857,-2.4905055572742016,-3.883189866451788,-0.07332562566601054,8.563457131507446,-3.8400026536624154,-2.6263080265414613,-2.8815977104023793,-5.814587399519717,-10.756656238380167,-7.478327282031044,-16.808995229828646,-11.425972070462752,-9.416693456356606,-8.799956636958077,-11.458458762757823,-14.211812931909261,-10.376416856181063,-5.577229081137844,-11.856017788575567,-12.21958880703794,-11.226656016147437,-13.363184403682919
1669971700.873009,1669971701.868608,22.73869800567627,23.734297037124637,4.0,12.31793701295778,0,-3.9966679467349127,0.8038203260345511,-6.072131520133973,-2.943312835334075,0.30658951655814887,-0.33240966984306275,-1.1081174665365625,-2.3094508554281945,-1.3876913603855268,4.860360291336818,-7.796097990716807,-4.531335460489864,-2.956674766036506,-7.997331256949244,-6.09718436615495,7.997165066088012,-12.080238119502681,2.0861737291330473,-7.424243056070662,-0.48450933141114405,0.9929363601701907,-2.8794288269457318,1.1717214334374948,4.195426052115769,-2.666522932920956,-1.9902500889338604,-5.089880513307269,-9.582098359313054,-5.232636667600554,5.446373917907662,-9.093616743548385,1.0077397158838828,-2.7944100397482066,0.8611022983696386,-4.113067524616004,-2.425106288575371,1.0836323043489444,2.566942815100341,-5.715376154040324,-5.231614260670572,-6.172150246830414,-5.766712296298828,-13.14858895965754,-9.589080166787005,-17.969472437237172,-11.122838337553382,-11.433464524196486,-9.752672883862777,-12.311525589785983,-12.534548818773892,-8.904593926478485,-7.5760204173672765,-11.116272041266127,-13.645099485381513,-13.382540005807666,-13.839373653487597
1669971701.122885,1669971702.118484,22.988574028015137,23.9841730594635,4.0,12.165631470127357,0,-2.2853779567536954,1.0708619656295757,-5.820493078509972,0.7768639755458013,0.6228323464858143,-1.4346229621642128,-0.8754912631576683,-4.6148518727246595,-4.949517148921517,0.9956974914244836,-7.442759684012214,-3.0075548904358667,-0.3412405877321094,-5.135837127649467,-3.912776025547161,7.358292174852452,-8.744715012271808,1.0528683615250083,-4.720876736310466,-0.4917240629935842,0.7596424475789285,-3.3203434264387397,-0.9675920129663631,7.201410680655559,-2.8811672399042196,-5.730004333240638,-6.0395852282610365,-4.926095647574791,-2.7579664216522284,3.51953512589989,-8.411916908949554,0.07003450215316977,0.05060630880201894,-0.16618251803179926,-2.348428250726266,-7.143875372018334,-2.5212479926508475,3.9923242980292173,-2.3141341549859473,-4.012903662427989,-8.282899867676806,-7.028156838001623,-11.312281099123771,-10.508540723052544,-15.686508784776239,-9.488270471274479,-9.609705021307434,-9.815891963287836,-11.649494350322268,-13.193095739478043,-10.440296185427407,-3.052949313611366,-11.394195043699671,-13.939065021178967,-16.577438609677902,-14.106436826064638
1669971701.37276,1669971702.368359,23.238449096679688,24.23404812812805,4.0,12.585889987175703,0,-0.5806889825383242,1.1957904995633089,-3.655023716003427,0.4169067951672434,0.724424093450588,-2.806640521892657,-3.552836219856296,-1.7471173084703842,-3.8453246930760177,2.750579448982612,-6.523131216826692,-1.7996796059657838,-4.815094240070947,-1.8635850962598355,-1.8962028192522333,4.399046786419614,-4.427908871503293,-1.267777094770842,-4.582562938052846,-1.054720654817806,1.43842855323871,-5.501467774967854,-2.624632065198254,8.430408085396651,-1.857678899747604,-2.0572101293596234,-6.44636863340787,-4.469759347451908,-1.0718237563577027,-2.2448417666019855,-4.68611483564561,-0.7969978615431274,-1.0510783811132658,-1.479353374486062,-2.4375473835411015,-8.828584784817348,-4.775565859228425,4.127071083891742,-3.720298233234538,-3.088596533934123,-6.85144730291671,-7.238753678704953,-13.305488714900747,-11.569127156316002,-12.465754686114593,-9.274065728525436,-8.18227604078122,-10.62234839612243,-11.976255234038415,-15.75863913988773,-14.919348182348335,-2.0951714906555527,-13.979884896984258,-16.888108856324973,-16.225607155193828,-16.83358569595997
1669971701.622636,1669971702.618235,23.488325119018555,24.48392415046692,4.0,18.592063415195117,0,-1.7607271399924724,-0.8451748294241984,-5.123741513271551,-0.07187052735070651,0.993527521921881,0.3325147290063938,-1.7965583489752386,-2.5078760663995143,-2.5511492771074122,5.570474261746851,-0.5723009513806011,0.2597516191343736,-5.344487675176783,-2.897957937493146,-0.35825895392232404,5.470079421627671,-2.7292710434301966,-0.8849503525531728,-3.2678209668865894,-0.706424318582169,0.6182776912665499,-3.530425862493635,-2.8107905699433418,7.897699258356118,-0.8667008429240075,-0.8206096205683004,-4.14065197908913,-1.2562496058173376,-4.13805680669397,-1.186848180008676,-3.190148846211647,-0.7696119440035307,-2.3285884287350784,-2.3895590117374716,-4.663313964976101,-6.5715199101326105,-2.565984352016084,1.0888135592606971,-3.7950434817732184,-5.784867816806754,-3.7460182825120474,-7.39388756698667,-15.174962858689913,-13.113580785372928,-11.057774534414007,-9.917049657674582,-10.433722285214085,-12.851026016534437,-11.955269764901386,-14.820399149890381,-13.71762225542634,-3.413491330563427,-12.708418385281849,-14.020599331960092,-13.810866411042745,-18.063458052732962
1669971701.872512,1669971702.868111,23.738201141357425,24.733799934387207,4.0,39.19740914347709,0,-4.988352291016356,-2.4600675559151237,-9.642030079133386,0.8709298656314794,-0.9380881829939138,-0.2772370127562594,1.39681250809125,-3.3495461189023494,-3.484174815731146,3.8415676907482132,-1.7692177064472157,1.7043376388239648,-6.223200239397285,-6.823222040872694,-4.3398218993945195,4.936118444813125,-6.9756023051756095,-4.912273071944081,-1.3917634855235115,-2.091163677441423,-1.9625492372179494,-6.761475624755631,-3.0055060492634706,7.394084884282101,-5.54043575271971,-5.560890725934638,-1.610273373590895,-2.2314275122336706,-3.449855309911163,-0.7690116201259006,-6.119350777208346,-2.1162695537068044,-5.8400972046696795,-1.122265751924702,-4.039537950265536,-7.359833885236155,-4.942561084191116,-1.1040716802401287,-3.4440700475907478,-4.984506710101968,-2.9231634835877114,-9.274979614367197,-13.825192838937351,-12.19197852041596,-13.310014733794432,-11.79202707523258,-12.552117678512523,-11.238006005944294,-13.938049571421889,-16.145034533546866,-13.27245345080524,-2.6553544675322884,-11.571212897140299,-13.067753974573847,-12.366365158749915,-20.245339170536635
1669971702.122388,1669971703.117987,23.98807692527771,24.983675956726078,4.0,40.25125836312036,0,-4.085137680230047,2.236117647678232,-9.219617206930735,-2.803459990673533,-3.83368571767583,1.3878799400907171,1.714971120612012,-4.545141300520305,-3.6876242889814974,5.604754258186487,-3.445531373881531,0.5255946058080574,-4.576951703677635,-6.958577421632713,-5.876823442727886,-0.2603207768909387,-10.01490440472284,-1.3430895856397276,-2.846471906330867,-4.795813959987381,-2.550664977962941,-3.8532183142170426,-0.9614308634547077,5.12461744346888,-9.212481205242732,-8.380742845968225,-0.4692947835165213,-5.442649554799345,-2.5745409976128113,0.8999939642845517,-3.9207311575195316,-9.495505745052489,-6.690478460543106,-2.7802378099285696,-4.521800102143087,-5.651598491380501,-2.906393219673026,4.2266115707806104,-2.2255816127650494,-4.302890104243002,-2.8357907672693194,-9.623231446645617,-15.097734013040093,-7.101514736290692,-12.249742780641872,-15.177436110945798,-13.313853919695987,-11.087909015333985,-12.63109265300804,-13.470977988000449,-11.656855853664602,-2.5825297744928175,-11.417636125034152,-14.749965690377035,-13.534489496196791,-18.267074484234417
1669971702.372264,1669971703.367863,24.237952947616577,25.23355197906494,4.0,40.619792086418805,0,-3.6580258716575176,2.9116473891953234,-7.145253243465659,-2.478298526417189,-2.170860516459508,2.221457897440144,-2.204464504863786,-5.602199191583254,-5.3290316339929475,4.359491225027664,-2.7045052063558463,-2.3486332809858657,-4.194683878611696,-9.084159462845115,-4.6789679379712,-4.755960703278095,-8.593822212725398,-0.6084430456647282,-6.492667353828232,1.2165770882330267,-2.366039031108658,-2.4923520412198026,0.4678619689887977,5.787637534190395,-5.579363197116921,-3.5971717243550607,-6.696032870875949,-5.698533128813201,-4.8532673367454,0.5558117685073636,-5.166505359941302,-4.295681743978738,-4.15632291930416,-4.447149913090021,-3.90037211283591,-6.957946555469027,-5.224020675009062,6.781707778059899,-2.6962502498160923,-3.9698055939232924,-4.467359627089801,-7.268828885706641,-14.516554616041997,-10.364231964519519,-15.196674179962175,-15.763831366378838,-11.633070479327259,-12.211170088891397,-12.285924943475235,-13.639483945552158,-12.377298258085778,-0.8535987716311666,-13.97462149912891,-13.975855737412653,-13.290676775724112,-16.864386655029126
1669971702.62214,1669971703.617738,24.487828969955444,25.48342704772949,4.0,59.00169606224724,0,-4.631673778847587,1.0115050912126062,-6.2270837145142055,0.16645305297471932,-1.3505597886762264,1.2133626172860887,-3.575248578971003,-0.02622613471436976,-5.782126868154187,1.4308188746946893,-5.374412556697045,-2.4104311315852374,-3.493756561512002,-7.120324426490582,-2.321277407530526,-2.8313862981108557,-8.525752072099987,-1.6449365912437532,-4.0086906711318315,2.00827771485676,-0.7476214941428807,-1.822293243775791,-0.3229127227175124,3.856412823219067,-5.078386993671326,-1.9925481271845011,-9.335684182129167,-7.267563982814705,-2.4930482006206485,1.9673141191759802,-8.651584415476961,-1.1456136454626318,-3.544230350672793,-1.0465096207765618,-1.8398325025570805,-5.908704907551945,-3.7525375864777732,3.904345019455067,-6.899260883535797,-6.3732237031350785,-4.713809144837163,-8.679082715243043,-16.254349094263937,-14.222457554420078,-17.108959113309606,-13.215768789800626,-12.148826991601583,-11.166564381730904,-12.353481456209261,-17.731518148181948,-13.588231802938113,-2.3434286374738327,-15.424033213034836,-14.732295084205855,-14.487384303481655,-16.80690185221987
1669971702.872015,1669971703.867614,24.737704038619995,25.73330307006836,4.0,103.82562998293278,0,-1.2904294616594314,-1.5078863548597563,-7.941067002988184,-3.975878587075849,-3.6588732649779585,-3.227728256839637,-3.946407976452302,6.796125368921098,-2.3533303063628734,4.35122565571462,-1.9122888228115176,-3.475499825241572,-3.9018301481798616,-3.4190701664244427,-0.9473444320917147,-5.6669538753129824,-8.128727149843357,-1.511115850759999,0.3970483087738287,-1.084388622490398,-2.332058815939143,-0.1332515679740401,-0.630258275581387,5.401245108654694,-2.463101682436334,-2.769515276505723,-4.94221671161762,-13.035892935187501,-2.121912922956497,2.5617938435107437,-9.64040821791594,-3.9123038688281153,-2.491155195356935,0.15573490633960957,-1.8706666748213385,-4.92588484920963,-1.0011026238127303,4.274039416203569,-9.256400848821604,-7.012355006035447,-5.029732599125189,-8.897189061030584,-16.13019061485996,-10.443928626385627,-16.008321844793226,-12.577467185814804,-12.450111309785648,-8.49639142818212,-13.664346079516637,-12.184099428965137,-14.198312619535606,-4.409343647514822,-13.677732561347412,-14.487474224607613,-19.716742627494575,-15.575068330842893
