stamp_i__desc,stamp_f__desc,latency_i__desc,latency_f__desc,minimum_cq__desc,maximum_rms__desc,data_fixed__desc,eeg.af3_8_12Hz__feat,eeg.f7_8_12Hz__feat,eeg.f3_8_12Hz__feat,eeg.fc5_8_12Hz__feat,eeg.t7_8_12Hz__feat,eeg.p7_8_12Hz__feat,eeg.o1_8_12Hz__feat,eeg.o2_8_12Hz__feat,eeg.p8_8_12Hz__feat,eeg.t8_8_12Hz__feat,eeg.fc6_8_12Hz__feat,eeg.f4_8_12Hz__feat,eeg.f8_8_12Hz__feat,eeg.af4_8_12Hz__feat,eeg.af3_12_15Hz__feat,eeg.f7_12_15Hz__feat,eeg.f3_12_15Hz__feat,eeg.fc5_12_15Hz__feat,eeg.t7_12_15Hz__feat,eeg.p7_12_15Hz__feat,eeg.o1_12_15Hz__feat,eeg.o2_12_15Hz__feat,eeg.p8_12_15Hz__feat,eeg.t8_12_15Hz__feat,eeg.fc6_12_15Hz__feat,eeg.f4_12_15Hz__feat,eeg.f8_12_15Hz__feat,eeg.af4_12_15Hz__feat,eeg.af3_15_20Hz__feat,eeg.f7_15_20Hz__feat,eeg.f3_15_20Hz__feat,eeg.fc5_15_20Hz__feat,eeg.t7_15_20Hz__feat,eeg.p7_15_20Hz__feat,eeg.o1_15_20Hz__feat,eeg.o2_15_20Hz__feat,eeg.p8_15_20Hz__feat,eeg.t8_15_20Hz__feat,eeg.fc6_15_20Hz__feat,eeg.f4_15_20Hz__feat,eeg.f8_15_20Hz__feat,eeg.af4_15_20Hz__feat,eeg.af3_18_40Hz__feat,eeg.f7_18_40Hz__feat,eeg.f3_18_40Hz__feat,eeg.fc5_18_40Hz__feat,eeg.t7_18_40Hz__feat,eeg.p7_18_40Hz__feat,eeg.o1_18_40Hz__feat,eeg.o2_18_40Hz__feat,eeg.p8_18_40Hz__feat,eeg.t8_18_40Hz__feat,eeg.fc6_18_40Hz__feat,eeg.f4_18_40Hz__feat,eeg.f8_18_40Hz__feat,eeg.af4_18_40Hz__feat
1669973439.504494,1669973440.500095,0.0,0.9956009387969972,2.0,76.79566660197254,0,-8.581995949287407,2.403941216646099,-6.524088070356852,-3.2509757385821714,-2.6451295666618133,-3.560545675114554,-1.028812949599971,-7.0066486916025905,-4.713505213166051,-1.3035491756994775,-1.4325957261021953,-4.396448491512716,-3.660237015074955,-3.336586952628282,-7.960248964336607,-0.8032419894289791,-14.874593587380087,-6.702062634115071,-1.3628091339475368,-7.0406256194579795,-5.178257004672158,-6.233600314441964,-8.537519916220075,-1.8333909427351103,-3.170276180238222,-7.891545740105501,-5.00659939615281,-6.5391730336599,-8.088161157157383,0.3582360170132972,-7.657183361074088,-4.665534105745044,-2.3397927923976747,-5.636130201477188,-5.453574521342221,-4.736729846184234,-2.9321749366360272,-4.19491876296034,-4.978739466282555,-4.197168244910215,-2.8562050441939224,-1.3686661174564896,-17.974603047797263,-6.495755505730749,-18.391618671970818,-14.977717782203099,-10.955008418068937,-11.964288092817647,-15.19540165671094,-14.525293589279746,-10.045803099271346,-12.263630981342118,-12.917400480563415,-15.036833330911342,-12.742999273728392,-13.972773132336904
1669973439.75437,1669973440.749972,0.2498760223388672,1.2454781532287598,2.0,77.47972029048704,0,-6.302015415874194,-0.096402258812448,-9.692441610551517,4.497658967468045,-2.6127300692546607,-2.184391552915435,-2.622708519000069,-7.452840209327745,-6.1788148639576255,-1.2130179810409434,-0.8438857908147723,-5.66380646222963,-4.235567437787434,-2.721070283578987,-8.839657081598856,-3.143637786263556,-8.336569478100657,-7.088374450071143,-2.19598455327704,-6.6468409294065,-5.1326341123328305,-8.141232426812733,-5.888347339128704,-3.9240841913407682,-2.892172315702948,-3.0582919679295237,-4.234178379610588,-4.731261241930613,-10.658032309622445,-2.7662437222306044,-8.278023288023729,-4.821631670090399,-2.6436892474916407,-2.9195677346554434,-2.1121444452662628,-4.439733761422081,-0.9433478974211441,-5.851654268044388,-5.787755999909489,-4.574090957344983,-1.5520284044742116,-1.4197577988915473,-17.96142936493531,-8.188329521420775,-17.571664641011623,-14.330582856413052,-12.72638007383277,-10.250417346498917,-15.751948079006972,-13.945132566842581,-7.327791449416948,-11.923679246244635,-12.716233431349416,-14.458938658187343,-11.33675589592273,-11.694343908692794
1669973440.004247,1669973440.999848,0.4997529983520508,1.495353937149048,2.0,116.7402862496032,0,-5.386327993202928,0.9579238867500163,-9.557318263181696,3.389922040539588,-1.8992221498806283,-1.7374315965482663,-3.388599781461294,-5.251633669940175,-5.226217154795756,0.9607085664674576,0.15503919221685725,-4.718463415395515,-3.3188603784386013,-1.9555787907317308,-6.324048894695586,-1.9392292873043053,-7.127203569054257,-2.954681337641465,-3.7669359217518092,-6.602246293940521,-6.622390151436485,-8.291528371242899,-4.5897572449595,-3.4324724593868177,-4.326293537158485,-1.6538588491423936,-0.20904275181060417,-4.423886824503004,-6.631339742071411,-2.332169437865036,-8.817956170409087,-3.911760685519022,-1.88294568163486,-4.814461496331421,-1.6445044826514668,-7.881114372604742,-3.0982572865294733,-3.5243551792378964,-4.481330197056172,-4.472231923913396,-2.6852889000960656,-2.703797716156209,-14.358317307941117,-7.591210937229883,-18.24405072484189,-10.99259730604997,-10.60404318123866,-14.945277175529807,-10.502110331738859,-16.12841815102463,-8.841039747489814,-9.204739954408332,-11.70351822442367,-12.110078815997777,-13.515569630396989,-9.795621407466744
1669973440.254123,1669973441.249724,0.749629020690918,1.745229959487915,2.0,111.97512675713351,0,-8.208821231912637,0.47929436277426213,-11.291701641725457,-4.714758043765942,0.9708162695494992,-5.399587214891688,-4.06123913153165,-6.9978832825418555,-5.571752187716175,0.6805958910618328,0.4049589752300835,-2.456747310816379,-4.515600592854032,-0.8959786244734365,-8.661363792599477,-2.24599364826819,-10.445800141106007,-1.9611873161942244,-6.720626132171813,-3.344362731136203,-6.162215719768139,-11.046033759652934,-6.995563981252451,-4.9758418310588555,-4.173998474980694,-1.251307405326274,-4.74758582519068,-4.263482131497951,-8.004905326569691,-2.534008818304601,-11.315492461640165,-3.9581672512938333,-2.1239163628402946,-3.7886448027461994,-2.1350976891208386,-10.505962654843655,-3.860928200145736,-3.056059039720102,-3.9034298164273458,-2.4716676854977218,-5.512387457895754,-2.471783534226555,-15.679577376901568,-10.072163771730384,-19.279501153396627,-11.992890061337212,-14.253636030196384,-13.32995917545363,-11.052849085710063,-18.344665992332686,-10.247617896207217,-10.925915205081829,-11.637954144766036,-13.381047932332882,-11.788023258832732,-9.887117109696865
1669973440.503999,1669973441.4996,0.9995050430297852,1.9951059818267824,2.0,77.31611519316237,0,-8.675017603196743,-1.147377182333003,-9.405727896758766,-4.877931215625983,-0.8448561521220785,-6.7412260901734395,-2.9505876245676124,-4.325324125245763,-2.8728400218178987,-3.2199208455937063,0.10012232232543634,-1.8264090241563988,-5.072716400137719,-0.050326108315856044,-12.184466702311935,0.3478400622533731,-11.100354566816204,-1.0236646415215653,-3.3794417303746864,-4.3547261676505915,-3.701577358221577,-7.2370478046683395,-5.26355303465537,-3.2770750018666654,-5.590749686366259,-3.6211597435134797,-2.034648077843581,-2.4216810528547312,-9.613987179976434,-0.9604407378745833,-10.792126938302761,-3.878923903933017,-1.6133664229687383,-4.907640217062465,-4.517870264149195,-9.896011557070294,-2.61485761471954,-2.2331055675279514,-5.554186152800532,-4.37505279179581,-7.122660104171978,-4.9865056081658174,-19.599165620368208,-11.844887518216327,-18.471117518815696,-14.207790663526376,-14.709388877278332,-12.855102703427965,-16.23760820280018,-17.45982994876398,-12.317067824599254,-11.501328130594736,-12.089310795444,-13.93300558244498,-12.596624240608502,-12.783447627408185
1669973440.753876,1669973441.749477,1.2493820190429688,2.244982957839966,2.0,83.1293671071488,0,-7.675818533430664,-2.9152236135321266,-9.41291234608875,-4.735750884424419,-4.616816011320224,-7.974761649533688,-7.175382061205981,-7.097768626906783,-4.872779834299019,-6.020569372789005,-3.151398559935445,-5.347466396959214,-6.904638458341347,-5.87776977827509,-12.43836728450594,-1.7140496789731157,-17.387141246278087,-2.2749209221054176,-0.9519850082132022,-8.187945607052193,-6.1254446355922205,-6.996534605680436,-4.435045929469277,-3.4435342571319554,-3.240008969541437,-7.538922966437749,-0.7004082990987243,-3.137499651397295,-7.121991915592619,-0.4583225558959718,-9.755288376339541,-4.491918200667118,-2.714660501800601,-4.216867473814717,-5.0471800090387635,-6.291210091262212,-2.7367255160130366,-4.675125335922537,-3.498706455589946,-7.108316841158028,-6.251353020037424,-7.530430167284122,-15.851997803265654,-9.89627152879938,-17.503604461719245,-15.302399774501815,-13.99393111751182,-12.171530343007582,-12.741626548071785,-13.621260371196197,-12.105610722081328,-11.662382746711646,-10.567453672968634,-12.735859810998402,-12.910257266342267,-15.63149997030042
1669973441.003752,1669973441.999353,1.499258041381836,2.494858980178833,2.0,30.37486028032533,0,-7.105139769005515,-3.4478018423173653,-15.432339584356559,-4.715915388374774,-4.203134907056973,-5.450576035977093,-5.880778215145264,-8.044235077262572,-4.006815017093476,-4.9337648936714125,-1.6199137377816306,-4.217362147594313,-5.801450396703073,-3.1847168191406916,-8.9506411505761,-0.7061754456629885,-14.598307217988483,-4.209050139068245,-5.857273339649105,-7.872791352695099,-8.788486192785458,-8.70431289268646,-6.588181177567955,-8.226189622803604,-0.7836060241638141,-6.785911448039607,-2.663616007002184,-0.31414704441556723,-7.503723978723733,-0.13871923808555042,-9.185505287407272,-5.470517671141705,-2.6313200163790236,-3.8744407309277804,-6.2322423526928175,-7.864848780888339,-3.448934002084869,-3.548700961031167,-3.042430420933631,-5.127152890124725,-6.036290597756898,-6.540162022991844,-16.26544067174001,-10.819822167963896,-16.17884107470459,-14.184918693174495,-14.02137599181881,-12.696882582889478,-13.301630568707314,-14.68333696687149,-10.610137357410533,-10.158482967887075,-12.505510141015774,-13.85251946412556,-13.106069419260857,-14.514008190414936
1669973441.253628,1669973442.249229,1.7491340637207031,2.7447350025177,2.0,27.886935086694308,0,-7.809235636548083,-4.5114902812679905,-16.35139668496148,-7.565264516568096,-5.436416314755136,-4.389005397297304,-5.904571541538309,-5.0843825225313335,-2.8280664188103843,-1.7378933473176352,-4.791687208143739,-6.056383446591317,-5.9990992101647755,-4.031244328029643,-8.8090400378818,-0.8348542676472641,-11.827412824801627,-4.203288112246809,-8.303155085952138,-12.577181534121006,-5.889590943900496,-8.15144637534131,-7.2861294813709465,-10.912719461275806,-0.9036275440699717,-3.8683335376849817,-4.492154934304988,-1.9150728913561639,-8.525590079735858,-1.2364189392071,-12.1176258128441,-7.603521447210682,-3.059191034787365,-4.586862435534185,-8.08827873461891,-6.314024145726425,-4.177487444018711,-2.135309305437132,-4.341317987873571,-4.654529475415987,-4.120556561947223,-5.151565221797436,-16.963735947211514,-12.093440092400227,-19.14382244553446,-14.417020965768286,-12.43950286056413,-11.951308778744544,-15.064634035678813,-13.112749624103255,-10.13273189686008,-10.418873448746997,-13.498334769434106,-14.943662069273689,-12.467764047746465,-12.677392900508352
1669973441.503505,1669973442.499106,1.9990110397338867,2.994611978530884,2.0,20.913498154281513,0,-9.364285588157488,-3.4472825671098706,-11.04817958279786,-8.163664331555387,-5.241001288828352,-4.606237961120993,-3.20175683280773,-4.464654376284084,-2.4303834416880084,-2.8705784924029643,-7.219959731489016,-7.3119370846533105,-4.473812732023047,-6.156338296911401,-10.35546252903863,-1.611839746879147,-13.537397677151567,-6.467359788558607,-5.485911654354032,-9.703027624171987,-5.632731290473075,-5.2576313492807145,-5.468386516987477,-7.868603732510855,-1.929436037874076,-4.511500420914883,-7.008490373783253,-3.3981821198829847,-8.730294774044122,-3.3702147370499427,-11.565660853282282,-8.244267449231593,-4.722518295745202,-7.680122917941939,-7.0463804299742705,-7.594554298256978,-6.393745602251744,-2.514080969254185,-5.013493194888074,-7.48502684782367,-7.027137441794091,-3.4044919914204375,-15.927947375514073,-10.941568599223881,-20.728109425762185,-15.438276264614423,-12.265909136258117,-16.005885059964015,-15.073325887374853,-14.204304882216777,-10.309925209016562,-9.30673291919219,-12.534134334597011,-16.245731633641796,-16.229511675182337,-10.885137610683229
1669973441.753381,1669973442.748982,2.248887062072754,3.244488000869751,2.0,25.80207820607121,0,-9.869622054069488,-3.0428753732322535,-10.29080862477354,-10.793726437907035,-3.624656994664047,-3.703364093842846,-2.371936117680545,-6.784845851087633,-2.9313452897132573,-5.450631924119229,-5.5006481769872115,-8.848403002389137,-2.0573236585139854,-2.3760359857567153,-11.938828957097652,-1.0991431140327377,-11.687813991609763,-9.101135425531266,-4.592581064556651,-7.970155720507048,-6.01738978633879,-7.126298613768305,-4.942327641455178,-9.294745525024853,-1.5012489258016404,-4.270670034431855,-5.779080305113228,-3.2489384483054566,-10.599407703123855,-2.480116118646127,-6.683752355277949,-3.8263504060104574,-6.041326149580401,-7.177700355953439,-5.841232309503599,-8.19462682817858,-7.766002235069397,-2.9063985652089603,-1.8309874835240236,-4.325841079643871,-6.846437400703146,-2.1416549891015806,-18.44018923776718,-10.837260667217233,-21.91411868912601,-13.258094590926476,-14.024100692061847,-16.386813875769814,-13.460137704480717,-15.221665576781017,-10.13340087642656,-9.73169896787365,-10.690019124512586,-16.960707593839558,-14.906601596099556,-9.819708386480109
1669973442.003257,1669973442.998858,2.498763084411621,3.494364023208618,2.0,25.82020901592232,0,-12.157976736066878,-2.7657760626313586,-11.770206222262694,-6.645214280406612,-4.028021248738731,-6.434250635458882,-4.809619270581962,-5.933575739847062,-4.539565189950956,-5.751654152297707,-2.7012842925888614,-4.033721022859675,-5.289600626139465,-0.8963333563398399,-12.547331874170613,1.1718393393351523,-9.949263344177837,-8.876267209711235,-2.0530052347206427,-6.412008958260332,-3.920644566032884,-7.596775477772643,-8.052366485987633,-9.624954187124914,-3.843570057581825,-3.3567825599014682,-6.034546824886609,-2.6069957810164763,-11.58970222859055,1.4671555464814237,-8.091093625004474,-0.200887659282319,-3.615058327531906,-3.5895644329356866,-8.379241998084305,-5.275419988295172,-4.536334538329558,-1.033342077725097,-3.145393028294943,-5.143284508097128,-5.883079739956876,-3.8204325510596027,-18.726050578752282,-7.680556972896029,-18.433777911304794,-10.277436379043642,-10.735042740635816,-11.49880622023003,-13.686163872024444,-13.137709738838769,-10.993215394313328,-8.895833056017523,-11.923851946628513,-14.51226109837988,-14.563775463956873,-10.051104135673853
1669973442.253134,1669973443.248735,2.7486400604248047,3.7442409992218018,2.0,26.952435531068886,0,-8.741155066606147,-2.34198476837354,-10.637221034051477,-4.682109628068718,-3.5994816216877474,-6.753582179702171,-4.504992246548948,-7.373162999675041,-7.5683659955291365,-4.858168028042816,-1.3623958185186704,-5.204018054728282,-5.365675167134402,-0.8162614127265561,-9.720394469839949,-0.49794140811175397,-9.767144738716746,-7.769138696977949,-3.3564746765825095,-3.97112910504747,-3.97282268828918,-5.911916519875833,-13.83506522661612,-6.42334367872219,-3.7438103520444397,-4.1169338881859785,-4.294682690415586,-3.873457784324032,-10.628344021161599,1.0827882318662354,-11.902307437222222,-4.6997292819971745,-1.7263761808463929,-1.1036586859218176,-5.067383607129942,-5.891802734485285,-5.132180255154167,-4.28831450420803,-2.4502621461820477,-6.374522693305213,-5.284559030703996,-2.280030217404891,-17.687798514741306,-6.953979850540957,-18.033445495207296,-12.706443129586795,-9.166816609497717,-9.542004163619792,-14.400531803217726,-13.258104954706294,-8.601686304912501,-10.05456430768356,-10.487998537507298,-13.885588323749387,-15.754432326670882,-10.859443888157294
1669973442.50301,1669973443.498611,2.998516082763672,3.994117021560669,2.0,42.15179103833859,0,-8.423698852728869,-1.640443857997624,-10.292986657617831,-6.497886092615386,-3.0504533533963074,-6.125216010269402,-5.110067327677421,-9.63851498103374,-5.0228062255689405,-6.370678070714381,-4.399354670534966,-6.854740687635187,-4.755323719951042,-0.1763895703594036,-6.759842574582979,-2.4417611622480355,-7.482614333843667,-5.956093937043006,-3.656402694658965,-5.639601412273692,-7.637781094094449,-4.596146430255086,-8.947426844438189,-7.547429480204047,-3.9832994202849688,-8.609786012616205,-6.181065782938811,-3.037502199852757,-9.61847669759489,-2.075351008109588,-9.521499692607584,-6.947811056514109,-2.700417946569462,-4.5355051341779085,-4.058996345341838,-8.673717306653185,-9.373229321938565,-5.692822390579416,-3.295889506851681,-7.471990069906129,-3.7981145363809103,-2.804467093289724,-17.541075368404908,-9.427546149610567,-17.663370331567243,-13.464849148210849,-10.3848265836329,-11.487409219687407,-15.290788655314598,-15.090904750025887,-9.414044008336225,-12.988255956617689,-10.40259757776332,-16.642272985744427,-14.586613046812253,-11.21344256556352
1669973442.752886,1669973443.748487,3.248392105102539,4.243993043899536,2.0,77.90560112465394,0,-11.301687623313807,-6.105151409312405,-9.531120465370524,-1.2152788789225464,-6.816959386849431,-2.021966291998204,-4.003118576697576,-3.130746759957725,-4.852334228338531,-2.629106910356601,-9.624561883328361,-8.179249372542115,-4.326877276391384,-1.5781415955097842,-6.439114949862433,-1.7130625454559896,-8.781821509250813,-3.6627940152849403,-4.3044252911002125,-5.098588570331226,-7.225075157762566,-5.430375295625092,-4.605389657034582,-6.344930495641929,-2.92040553874029,-7.9351853192759805,-8.082991054410558,-4.50956168481831,-7.5334094998416194,0.6989897890464452,-7.626257122712766,0.4377397829008587,-1.148421663825328,-5.945607952792731,-3.751923263500392,-8.621664914330703,-6.5386815151481095,-1.927548090915795,-1.172552509376663,-5.4700256870591755,-2.7136853398691656,-0.31239588213126923,-15.933130740524224,-9.382239956680126,-17.23552926299639,-12.918972759361186,-12.52122577540554,-14.073287445931552,-16.8153274456424,-15.393978361674517,-11.65109474920736,-13.485295780658237,-10.488108026222744,-15.500259188624316,-11.071445112791881,-6.740258566054253
1669973443.002763,1669973443.998364,3.4982690811157227,4.49387001991272,2.0,167.40716921253932,0,-7.456162178306807,-3.1490134719115037,-9.10396812143715,5.247689244328494,-7.470937976110762,-3.239878856830629,-4.970869807289423,-4.883226547972641,-6.90050137776161,1.0816086766342032,-4.812812718650065,-8.571231217424252,-2.2259835229949356,-5.467109677120469,-7.2315678810445005,-0.0423245691577306,-7.869661556017165,0.8160204145058203,-3.505478834597435,-8.365706856062982,-6.33703850195574,-6.767346245603461,-4.847598272026596,-5.765599576019822,-4.249013407403439,-6.952529352649175,-6.38811826945221,-4.9646104302807625,-6.516496343676675,0.591462702383827,-9.034820921760877,5.56011847837172,-1.7739823037966524,-6.4389810290663,-3.0753261258481364,-8.008296575593743,-1.756661180315022,-1.833304263062886,-3.4475038695197027,-3.922248234638907,-0.3122551911938034,1.4275730248410983,-12.90845595487224,-9.44325374983839,-16.803494808053355,-9.215729187917498,-16.323225896831328,-17.367404033558987,-14.529035883454998,-16.13962552125369,-10.237936567080848,-13.999668484805067,-10.455874647517566,-12.653239816129439,-9.832438626928557,-6.841476700222843
1669973443.252639,1669973444.24824,3.74814510345459,4.743746042251587,2.0,174.25529967780082,0,-6.122813066527753,2.637776329600981,-8.90350971504547,8.295491075463305,-6.200343014672301,-6.715704254144965,-7.4624531044637,-4.360816542058815,-4.347626266641954,0.14990323560915236,-3.9115530158329803,-6.58219930229275,-1.0149484254679737,-2.403959559874264,-6.860414681601674,3.17525371128564,-9.5731139534262,3.067624762871243,-1.0679916334159696,-5.637471487706468,-8.549994518807239,-5.231908954429034,-7.7451449243403925,-5.22608358200994,-6.7280943913001305,-8.394975429319022,-4.778326165464028,-4.251078801363372,-7.123911319240555,-1.9858153962306218,-11.393422042017132,3.9989981216510317,-8.116632591696561,-8.792476438959975,-5.324680519214465,-7.891198910220832,-1.593332575192428,-1.6761494331396949,-2.425839280562289,-5.093429888193103,-0.5307016810139847,-0.34087463533027934,-12.065629703578317,-8.615328073179993,-16.041927520223954,-7.220306250712878,-18.99883631707133,-13.88591501268885,-12.296270889668858,-15.0179650965502,-7.994411042163836,-9.542998673675319,-8.853783198596354,-12.078373661001864,-8.596758015649431,-8.347809631009373
1669973443.502515,1669973444.498116,3.998021125793457,4.993622064590454,2.0,180.94110773738504,0,-7.033244819246624,3.534389920814624,-7.363129973883876,2.5181050364828184,-5.771368368939721,-6.869282222262818,-7.491254633859102,-1.8785807754982908,-3.587760538555626,1.5751937709435946,-4.989840860991096,-7.202364760587833,-2.282902529301519,-1.8522409952082524,-8.38757717551516,0.8920961738983313,-8.701701059054457,-0.4574828051942672,-2.6007016105380947,-4.322144700046993,-5.033271581603166,-5.653189389318784,-8.184365239041005,-6.2187931834214965,-7.624006775937426,-6.987194407577356,-0.9952451801334263,-2.8781904784292007,-10.7066736918007,0.004935574992339029,-10.124682177093414,-3.3258618844162093,-3.5858296457948424,-8.2306538059445,-5.085644254852394,-5.755290170569167,-3.9418132279602283,-2.7442237972970625,-1.171940604346985,-6.303248463567794,0.03341678760711317,-4.756530334150301,-14.93145147181967,-7.698312671956199,-16.585183424974062,-11.40810340000658,-13.001852911043786,-12.798608973458151,-11.241108522260447,-13.819655821323844,-10.65462962561637,-10.855708702619893,-7.879635789518062,-13.875458545262006,-8.132103793011463,-11.502145559022383
1669973443.752392,1669973444.747993,4.247898101806641,5.243499040603638,2.0,156.63753094484616,0,-6.599407372689049,-0.9068116529360257,-10.96049024136339,-3.750202932551333,-2.8085751765627975,-8.723267818280663,-7.405510888425515,-4.650036640030906,-3.9904089377040837,-0.8150931869457432,-2.7670737916926735,-9.012500189643882,-5.46573167640144,-5.138710781336135,-7.319024192461154,-2.0155570950181616,-7.526084558303724,-5.6481273710645885,0.23783191040898072,-3.2159394966223385,-5.784510755696011,-8.208833113454618,-9.891295752053642,-7.615360694730279,-4.617940121152795,-3.944797002014999,-5.832167861081116,-4.359517852362312,-8.76629268139056,-1.4159481258531899,-11.172013000416891,-2.734004979286571,-1.7199268756494093,-8.281477918369145,-7.123895090702201,-6.122487250486986,-4.290538326035392,-1.8494260046691446,-4.254793613678949,-8.082527330245316,-5.322073312657673,-7.425029810915036,-14.876522833728234,-8.016089630888182,-16.023885951625918,-10.965322874997339,-9.669104886212269,-15.561157359235274,-13.171502988831696,-15.64208667684798,-13.315045796131262,-11.554977476783945,-10.499397521659041,-16.059518209707353,-13.26884013154963,-11.179054025364223
1669973444.002268,1669973444.997869,4.497774124145508,5.493375062942505,2.0,77.16463156267396,0,-5.322283182757563,-0.5399249007889688,-15.112123277130607,-4.833849980607733,-2.4186939015543154,-7.201816886599127,-6.783109110011223,-9.269431782434367,-3.223641890121864,-1.2576565205216028,-1.0963606488256428,-6.937889749422217,-8.169377910159087,-5.0240980060861515,-4.306697597354652,-3.0073723135255364,-12.938972907124729,-4.495498355029143,0.47035204112508877,-5.360256853991187,-10.053591277977052,-5.754600434666273,-7.838195268600462,-4.635138796325969,-1.4669589272206425,-4.820343274719432,-8.347835649460162,-7.142045369715458,-7.369543766094022,-2.241725329532622,-9.613852567100212,-2.1153357079126978,-1.776985131982403,-3.8754839989723022,-6.391515793164412,-9.165521899391141,-4.060457861987616,-0.5748297528796537,-3.9247036332849965,-7.622371915930703,-4.884754714625293,-7.788079226766217,-13.71625121386915,-10.530518232743685,-15.077433336237894,-13.207346753792091,-9.1803849497994,-14.70792001306549,-13.307940095064914,-17.185582948154842,-14.447215726253976,-8.94741670532909,-11.178768866016707,-14.953810216258919,-13.02000921086806,-10.625203559050377
1669973444.252144,1669973445.247745,4.747650146484375,5.743251085281372,2.0,43.559076533713515,0,-5.724004816058773,1.5471322704538926,-14.658799173118222,-3.4210949512098434,-3.6985578357210924,-7.217177202996062,-5.369865137208229,-6.180059464773391,-3.507944550185018,-0.4955627943751372,-0.2594437010134936,-5.819423110937919,-6.781125327966234,-1.8371008951541374,-2.2400275886187897,-2.6631805503892556,-17.134658282479563,-4.794843667438911,-6.079266978620992,-2.6924165950081234,-6.839744760161215,-4.365411054556928,-2.5894539961697722,-0.4167041784173935,4.055953913042324,-3.116050049179816,-3.9008162604204855,-6.0750340982154825,-5.235871438998329,0.1635501967515517,-10.492227826798917,-1.9755863826687614,-1.6448400276395736,-1.7849590344656117,-5.347464218426412,-10.117926621886802,-2.335976660348455,-1.4400365651014082,1.0917747468483014,-4.307332707489712,-3.5958357488501216,-2.645158287863572,-15.344182126489406,-7.264389502734502,-16.39751570352573,-13.218293541909238,-11.300666645846174,-12.914998457602966,-16.239909800961215,-17.95657935071043,-15.782038269092148,-9.742733308110449,-9.217132501394445,-14.639803016965999,-11.568442137776167,-13.37226494289396
1669973444.502021,1669973445.497622,4.997527122497559,5.993128061294556,2.0,67.54981713658229,0,-6.92972069132106,0.08926539631289956,-14.526400742489683,4.463814518696189,-4.639755802996611,-6.0313394607615365,-4.000005478600947,-6.753043030482347,-4.740716364469338,-1.7856578000187158,-1.8528799087900056,-3.8582124487740748,-2.091795900262335,-5.434668631076499,-4.2902893962416,-0.22280297332596674,-13.402157824532736,4.7453658443010225,-3.6334297591139633,-3.221456973326246,-4.277231966872815,-7.011605234578251,-4.186678679089853,-0.16435789610478307,3.3397253929843,-4.922317692526862,-2.6034413927774476,-2.2316004814042705,-2.880680471797386,-1.0297129885738425,-9.970367733312704,-2.592531360625427,-6.4920021321462915,-6.842124145823226,-2.4586179031902256,-9.990347017119497,-2.1538134444207016,-3.3171411583459247,3.73765298888952,-1.0439053472270015,-1.5871328821522968,-1.0250006887405314,-13.70113500796565,-8.839493763208399,-18.024064700189008,-10.179008688954347,-13.417280720446323,-14.277062435940666,-15.529291303334293,-17.432852865464096,-14.675231974757377,-9.860023392147601,-7.221352220944997,-14.983601165409237,-8.996955931549927,-12.062946276934186
1669973444.751897,1669973445.747498,5.247403144836426,6.243004083633423,2.0,61.82601676571047,0,-9.330424564080737,-3.0516702906499216,-12.75653116021865,1.713048508421038,-5.056091569478701,-8.658977173941015,-3.818999294225301,-7.160075223480141,-4.1968797622898855,-4.052445722555028,-4.5256457700011925,-6.605963941057915,-2.1237585000615473,-7.246423577320156,-7.304830876521433,-0.9086326034032126,-9.209387022450029,4.589500856419069,-0.5119894716002075,-3.149562812293309,-5.612787297727051,-10.010811900906834,-11.25425290571001,-1.8776142057257514,-1.2122046690594062,-6.636516199616924,-3.8425644886748356,-6.797557423619764,-3.646565067776555,-3.261212155065759,-6.923720123233227,-3.8563048804906734,-6.492792870456231,-5.302618694483975,-1.3540316663665386,-9.353811005453997,-3.16559213568798,-0.8419790919742125,3.7916221811912907,-1.862252952608128,-1.7549714014413236,0.40492704386888206,-15.683652824889782,-10.569417784451467,-16.080368786116743,-10.05262610138839,-12.937420237809922,-13.490989533493076,-16.77153939850515,-16.147965406239297,-14.713509808112546,-7.738199903753858,-7.973414088383308,-13.754219577198711,-10.45553756187192,-11.420466253335102
1669973445.001773,1669973445.997374,5.497279167175293,6.49288010597229,2.0,61.52718894082738,0,-8.711605313756623,1.4743814199535321,-10.802091767865644,-4.090180501589809,-5.457827703282371,-8.07266259599561,-0.2521403366791688,-7.298983489391377,-3.401211413910113,-5.627677489184176,-2.2750182679304176,-3.5088864699585667,-3.3348127041041447,-3.168467512727431,-7.588652787078266,2.510793385661162,-10.351700137975676,-4.976686083515996,-2.8040746569305637,-3.4331099078296097,-3.6859777996767535,-13.675643391306984,-6.974940468846622,-3.1390503663664497,-2.9352826101242524,-7.838021956749302,-3.911864918216203,-5.156092037826169,-4.398788755283541,-0.9773763767581229,-7.317839855363949,-5.1600327956806264,-5.542702728737851,-4.626514183211677,-3.0167991101129745,-8.23268128721075,-4.146909323509869,0.6564036659509793,1.7968310978142448,-4.653640268676296,-1.3116819927140861,-1.5921866410142336,-15.58972482295458,-10.198983131170305,-15.32385469520065,-14.516265886862044,-11.882733138458224,-15.054200657159736,-15.571151347642733,-16.460311423436185,-14.751216683006895,-7.104213713102558,-11.157091034887186,-15.077823920899387,-14.621155239888912,-13.863132144061407
1669973445.25165,1669973446.247251,5.747156143188477,6.742757081985474,2.0,43.5976227040655,0,-13.710469969915948,2.8662825106683343,-12.264745527121423,-4.513916453444119,-7.101456238822,-9.406731807668,-2.22835684161981,-10.351004484409199,-5.858189052358718,-5.135234506610958,-3.622307086909828,-6.358949193429884,-0.8675231294204149,-0.1411510783946052,-9.261595999706723,1.018094029019566,-9.369612017965773,-5.935399205083262,-5.09232744664952,-4.502730248595973,-8.46871394491171,-10.144952044701123,-4.794650097090715,-3.5789907223497903,-4.253319493364548,-8.661240446226376,-3.0591214646515716,-2.217671244379961,-7.936348620760785,1.3107068810015798,-10.89967747485641,-7.220605107552977,-3.347733001893309,-6.3171029754046994,-7.144632965984192,-5.468347671960361,-5.673676623766083,-0.8667401531640904,-1.4368546656916312,-7.381893566298765,-1.7896796012815965,-2.369308531340436,-16.110231576313296,-11.337548438680724,-17.0030199425099,-16.688929142673675,-10.817245008824576,-15.658663929356013,-14.555912034229703,-17.748425486658668,-15.314392350518066,-8.17914900387668,-9.684616296775165,-14.419748523124316,-13.058812510450847,-12.465659583002772
1669973445.501526,1669973446.497127,5.997032165527344,6.992633104324341,2.0,15.482404692837939,0,-14.627352051904845,0.9141169951410623,-10.556918382254494,-7.656803411025587,-4.780465059763491,-9.152332025889457,-8.167868843521918,-7.744082364231071,-3.3802168930322662,-1.7540977913382638,-7.052360722855237,-12.143900388793504,-2.550173120311427,-0.2512104765873929,-9.899558726189131,2.9441420396669016,-8.40256002109455,-6.984394023907761,-0.7742980493582305,-9.022729080333761,-9.662160746594376,-11.756611086780255,-7.161807973507953,-3.773736416655984,-7.173967229773172,-8.08199501483924,-4.242167232920986,-1.6718943096678662,-6.233243924062156,-0.7759164039949393,-15.383794056391464,-8.928752897138335,-4.159250322300555,-7.0771861736083075,-6.063071919994546,-7.227942270541776,-3.568612124092589,-2.2356353311380146,-0.8932298739770881,-4.409521389828937,-2.300278482658089,-3.2656405596411533,-14.849670916279383,-12.693444880699632,-22.381569362953208,-16.750149522008698,-12.921100163973694,-16.47335424543869,-13.079546279331215,-17.09618502478618,-12.992940943737812,-8.94148333981844,-7.69189477974522,-11.944144943597394,-9.198605032894672,-11.745653551367186
1669973445.751402,1669973446.747003,6.246907949447632,7.242509126663208,2.0,11.944536400450469,0,-7.106492652502108,2.7026132905058926,-9.907828710999734,-11.664400395911741,-4.261603981924731,-8.536053148593755,-7.990541633774967,-5.179730927268294,-2.6199805992789593,1.5115832501215882,-2.0504708639317837,-8.327789941385218,-3.644812139565876,0.667174193109043,-8.080667021401531,3.732460028671828,-8.788513712133998,-9.692910764236313,-2.2752635227099054,-13.741694065850316,-6.608303309692172,-11.617308974974808,-10.555814427511564,-7.966098200722216,-6.5955168973884195,-7.6708868543986615,-1.6373321997829462,-1.8139141076918461,-3.4660132541203414,1.595203196967666,-15.99218683745165,-6.7063573081787435,-5.252184106861212,-6.254498918382049,-9.24465714950294,-5.868236327188984,-1.967968831166439,-4.8424970818844795,-0.13113752807672752,-3.2171715851154903,-0.9222397173683011,-3.0388804737754453,-14.767400176811572,-10.709583725512319,-22.418586464392902,-15.580669543343461,-14.350364594718695,-16.5107495197315,-13.372579280829386,-13.900129306157702,-10.806510620088876,-10.982078296361555,-8.870145302174384,-10.766150346505935,-7.972601173779896,-10.598106102013018
1669973446.001279,1669973446.99688,6.4967851638793945,7.492386102676392,2.0,16.27382268128605,0,-4.503401638416511,1.1333104442948476,-10.239200477562814,-9.173094325576777,-4.628508575392188,-4.792106585737271,-7.3492334810135524,-4.846863215748465,-2.9341635314504124,1.5809664598961644,-0.4119041060349604,-3.8357101260608517,-3.262366308573102,-0.744973959921901,-6.408192277136122,2.762149806052261,-15.435015627905123,-6.860533773563496,-5.055210793178647,-12.004211066551353,-6.834894424117417,-10.684885638291926,-11.314779070890108,-6.38847238302575,-2.989362140911596,-8.809853856123961,-1.678480950647732,-3.5724758280047793,-4.29656791413681,1.4882560848779212,-14.628328957836626,-6.122276293291687,-7.356237090353179,-6.139264104717746,-6.473688012746789,-6.603818709818051,-1.669406983591837,-4.791331858722321,-1.3298728526861865,-5.044489194854391,-5.133567640483009,-1.252899695901698,-15.77185487899391,-8.966706181947547,-20.762077358353984,-16.977527597282382,-12.61061669629284,-15.534281840080062,-14.814755499233161,-12.960204125788891,-11.007042436210174,-10.95601419826372,-10.75691493884298,-13.188387080422878,-12.461616579432429,-13.201651356374132
1669973446.251155,1669973447.246756,6.746660947799683,7.742262125015259,2.0,17.86035668083908,0,-5.21806400490928,-3.065553819032884,-11.353099845607591,-6.455545237229191,-4.351509989046788,-3.2482319149112735,-6.714453187482694,-6.46939148014468,-3.35877337091407,-1.2732639532829153,-2.503932378084465,-4.512023671793831,-5.835686377405418,-3.0575300358084867,-9.968364481205999,-1.158101137484942,-14.948749696825942,-5.57440187751368,-6.569823423586421,-5.6522624194169495,-5.603181961596531,-8.428152875885806,-7.777135562522788,-6.357210136766277,0.050278788856756684,-4.663807049364972,-4.5902238503748585,-1.1462245098115549,-5.822155849850458,0.423660801940438,-10.630273846422131,-4.591278921464886,-7.8602410034798185,-5.1185510270508905,-4.797820456355369,-5.618965642490372,-1.4094229625303691,-3.364565577845494,-2.349395599642063,-7.324871786526716,-6.3808749063290495,-2.209667049492105,-13.03304243529627,-7.148842328504298,-18.290855067377773,-18.07089982775508,-14.754126956980802,-14.2985508249293,-15.093238579905343,-13.43684324537717,-8.945900323420478,-9.715073452797935,-8.676449828784488,-12.533300178139724,-13.04060458397129,-13.026485211758313
1669973446.501031,1669973447.496632,6.99653697013855,7.992138147354126,2.0,18.0833569942099,0,-5.594182465092254,-0.6621281814074752,-10.683293473998205,-5.752777395145017,-3.8116877199045307,-3.198178646751877,-5.135524792925661,-3.549008562810231,-3.0802597478913105,-2.216507450974969,-3.195610026100537,-5.749535390181233,-6.036481467700318,-0.9643367262495715,-7.829699487906402,-6.195962843701635,-14.528678714074793,-6.050689662641742,-5.501512261371191,-5.2426463346978185,-6.687382473027324,-10.34436190120405,-8.334233895438821,-8.353431986889177,-2.1376805844545825,-6.385731628502127,-10.216177745056235,-3.833126164186317,-4.4690840615426595,-2.283254548186695,-9.848862933314601,-6.628940028100705,-8.565495917651715,-6.25801366972118,-5.91272580159565,-4.970581301070568,-2.2523946561810653,-5.323385341156764,-0.05999373615813397,-8.153482154901756,-4.209851743691836,-3.8343510648703956,-10.629391587878732,-8.204688450547344,-18.909812652924177,-17.093821549436594,-16.756796255414557,-15.021712043605728,-11.491788431280806,-14.75694955193373,-8.805490832350625,-11.755451203930471,-6.775197726356352,-14.991745555353342,-11.622233721859503,-9.223779400868036
1669973446.750908,1669973447.746509,7.246413946151733,8.24201512336731,2.0,10.775980696484377,0,-5.100185120705668,-0.699324598723814,-6.837534006815311,-5.598853816500561,-4.270501005414477,-1.0753264779224452,-4.321707709576949,-5.366954903410175,-3.7181946612140777,-1.350985148991513,0.3505463044350352,-5.700425986778495,-2.378331930458488,-0.8175940018909789,-4.7567166804669405,-3.965718171517496,-10.871236948214282,-6.652712877517989,-2.044106773010121,-4.347323868696427,-4.32411288109442,-6.515332540735824,-8.136055960746555,-4.643003819329382,-2.4890819959256003,-4.983002673378386,-2.950188931877766,-4.53006574127412,-5.8600489479136195,-4.020157773174523,-10.027486192675957,-3.9401993994689377,-3.6640608996650803,-5.138598048269976,-6.475927837731371,-5.715428038118912,-5.838553089154468,-4.792231456652835,0.2865341293472614,-5.657262503196105,-2.5928978973444994,-1.6972770977557672,-12.964342021162143,-9.31207596023141,-16.40514277499507,-20.31571978197136,-17.87893220199655,-15.084836764403848,-11.980668294559852,-19.104142960092208,-11.630129892620191,-12.497527284859654,-6.1852334635735895,-14.33833480095647,-10.390278065620137,-7.154894403385624
1669973447.000784,1669973447.996385,7.496289968490601,8.491891145706177,2.0,10.489257329016752,0,-3.364349265797248,0.48291370415986073,-7.213443898868056,-5.605541492407448,-4.302424402142627,-4.591601020890438,-2.661682690276688,-10.559361010262922,-7.562943801864648,-2.7274834480606613,2.611343718181623,-4.567242540035805,-1.9240224373979833,0.8743419109750296,-3.6127325458518165,-3.559339553355996,-11.800514486255615,-7.746462561859186,-2.9510251845656454,-3.8390117723909176,-3.564231021907582,-2.937001003549622,-6.424572428326667,-4.531749266051344,0.31587134770040504,-1.7723345079255215,-1.8475659709780863,-0.722634609805538,-8.230652106075507,-3.0343000107461595,-9.09136424513848,-4.20348992421127,-4.369781379932056,-5.8691500037273485,-10.580570213789414,-6.948582494029169,-7.527489217034454,-2.196699441992656,-0.3436206685604054,-4.915557612880748,-4.164066999895,-1.7708365516157165,-15.45232238984921,-11.330729394525513,-17.177475974812594,-20.353173769570105,-15.956415193521213,-17.056553183140974,-16.51128298642382,-18.306051796358613,-10.362350032901393,-10.172642973127996,-7.669700930421206,-13.801836966537941,-10.69528498521147,-10.08824098986205
1669973447.25066,1669973448.246261,7.746165990829468,8.741766929626465,2.0,10.21190177393562,0,-2.4721026905694505,1.1948769560586094,-10.87270807111569,-6.378148563752774,-3.6928896003346234,-4.4844987605841,-3.683979620523017,-8.61762988003533,-5.157283398946824,-2.987736043852815,1.9459364681361495,-4.185373222820498,-2.6362849069930414,0.5517585310442223,-6.7433436228928345,-0.6670341252441132,-10.52668486135724,-4.282606164467857,-5.110656340122411,-7.22981741767674,-1.8648753784632506,-5.835094287790455,-9.231743276045687,-6.317340369762507,-0.12699673320876864,-1.0268099125121526,-1.247739170077444,-1.168531423724438,-9.614123172958779,2.111252448784966,-6.478329936780383,-8.051826376419331,-4.438870462995618,-9.308199640317142,-8.470162280333792,-11.112809913478056,-5.111129214918607,-1.6603116289638329,-0.6573497190897503,-5.0748970729423,-3.3167189274174897,-0.7888161806706123,-16.919889912557604,-8.599995484414926,-14.99293975413148,-19.775419446403287,-11.590357921286195,-15.26754091456903,-16.04361777472558,-19.470974610972025,-9.686598853168686,-10.48508945760583,-6.891030198517215,-12.280101075271201,-11.936887521799289,-9.556374792340328
1669973447.500537,1669973448.496138,7.996042966842651,8.991644144058228,2.0,9.423618088957989,0,-5.030807935594708,0.8128464619148167,-8.88452302854607,-7.39269792638094,-4.580105808167327,-5.661399123984975,-2.9331008881378713,-6.544839060105922,-2.4824088814561835,-4.537598686342416,-1.1691790393055306,-5.257509386486266,-1.775828515570984,-0.9902456301443925,-9.206877391814764,1.6326463802946412,-7.021877305829617,-8.011077373453205,-1.629385636703682,-8.915769983748108,-1.961763405181261,-8.43392361702078,-8.98493858670289,-6.6721135072831235,-1.7096108023734182,-2.633384240795364,-1.854550423866278,-5.2996801703399985,-10.67176186760056,2.6588315540813334,-7.978465225810622,-10.02660891810946,-5.154561458369475,-3.7367606806520346,-6.821816032717733,-8.72256112712018,-3.224695567006708,-2.7906301213091513,-2.9341268908744143,-4.1661109235390175,-4.8684099622369175,-3.2705938122632165,-16.886749843021203,-7.00922048359609,-15.62411221988684,-15.953028219861732,-10.63343526222724,-12.224886651882718,-14.58247001243415,-17.699444713156595,-9.697540030248014,-10.132226961931766,-9.899026560279276,-11.611360618625003,-13.272293161449047,-12.873126729810718
1669973447.750413,1669973448.746014,8.245918989181519,9.241520166397097,2.0,9.02852267621027,0,-6.312209963775115,0.5832548164888337,-7.04801461361011,-5.92832284657759,-5.547704852212067,-4.16468471628876,-4.445311079433298,-6.385173771597947,-2.527300742455902,-1.9977394520832799,-0.3937071349347203,-3.4108321385900284,-3.9264208555263203,-4.252562187795852,-10.252401569867384,-3.976115356450307,-6.9739194686820145,-4.819427239919894,-0.5592303932666076,-5.56764147722637,-5.0495165746757,-7.774146279087839,-9.045341216739672,-8.914929820395832,-5.478671529632898,-4.5822013209688315,-5.156276410246944,-4.273477298287498,-9.629694114858268,-1.9980302165200752,-7.4512561560687125,-7.596880496128469,-6.0582678505196,-4.324632522606605,-6.971149175794915,-10.16528115450652,-3.895306939320421,-2.3435533638514365,-4.81338344619541,-6.424859900565245,-3.329462781744446,-9.330724296456902,-14.432562006930063,-8.924196240767309,-14.631166723369297,-14.735205770510616,-11.47125227331701,-12.90458115851525,-13.3354486881439,-18.475358067063045,-10.706173411619568,-9.255872400402431,-13.254599264593638,-12.05207082496223,-11.318814347306867,-15.585425460578595
1669973448.000289,1669973448.99589,8.495795011520386,9.491395950317385,2.0,6.881822974969971,0,-3.162924877866336,1.374401142028915,-8.040445718293427,-8.05101083911464,-7.868765408690316,-1.6630699667532292,-7.324146687980111,-7.668529633197611,-3.0110561464529457,-0.23225373107108885,3.9611164554673604,-0.4497145972794583,-1.3335760991277732,-2.20243394584028,-6.970308741764494,-3.8672818813912606,-11.079942169794517,-1.9550212187462441,-2.9069095891868244,-6.583418717463757,-8.665024905142392,-8.634159515474586,-8.559069723772339,-5.061600354169401,-4.337212712461483,-4.996102015510891,-7.679276959777589,-6.564231280260335,-5.801699515493954,-3.52125196391536,-9.603829146984701,-6.239170099451771,-7.99098609301672,-5.940881328322483,-7.03682157360987,-9.623470611825192,-2.8544918200822207,-4.3889987242362185,-5.071466475593632,-6.776896192864569,-4.657675470483974,-5.90795351160887,-12.115209809049066,-9.635687852061595,-14.980662773613718,-16.608780081511846,-12.798779301472734,-13.556071164746724,-14.842284810593512,-16.41524254551183,-12.607438474017908,-13.038926487059822,-10.975263687568383,-12.068770650496099,-14.10486422914433,-13.099591373485984
1669973448.250166,1669973449.245767,8.74567198753357,9.741273164749146,2.0,6.67355345982309,0,-3.7279599614071284,-0.7610055093835643,-7.848632808553521,-5.913967352560628,-7.920667165140181,-2.0522840629452013,-4.9753799697148064,-9.970079257569838,-5.144209426880618,-7.5520479990271205,2.9542202701210876,-2.3675274302335225,-4.412270033841132,0.2865588591095878,-5.625063741230653,-1.8244776689758326,-10.321449579948732,-1.8310960594712944,-6.793317266105042,-9.106779419486227,-7.996291010584002,-7.609271032470514,-6.396128690721986,-4.4831982592675725,-0.0922552110974788,-3.1843456288133525,-6.40979328158592,-1.259938612918205,-6.047083975998512,-2.3592871038237044,-9.305040371214044,-6.419269561519528,-6.616753428386591,-4.108162057881841,-3.5263326112839732,-6.545410327981422,-1.9825662233601977,-3.3517737880770255,-3.8851724579781917,-5.275467607320116,-5.834660992035784,-2.899228168958101,-12.438000797310877,-10.503294836677261,-16.11595006615816,-16.286119754399486,-12.479630064663494,-14.58591448779205,-12.218381625770508,-15.409753212661265,-12.290109004895521,-9.976181172234304,-10.42349152821227,-13.041990627770053,-15.25035413234473,-13.695107969036101
1669973448.500042,1669973449.495643,8.995548009872437,9.991148948669434,2.0,7.334987387674182,0,-6.130492384837728,-3.562804384699587,-6.818403813827688,-5.4378674881960976,-5.157579042909225,-3.3164001151960947,-2.7108407407627744,-8.233139753799465,-5.2047684653382165,-7.434746501984275,0.036433237233890275,-3.5960604692601548,-4.050581808548706,0.5805055497367702,-7.333948569143334,-2.7661673868932493,-11.881839659919908,-4.978268699529053,-3.2480928468315238,-5.222204579559709,-5.2055520304763725,-7.018720361085661,-6.748929071399923,-5.270926734826715,-1.3180645238012443,-2.9786209583592846,-5.227018330729891,0.14664975785119305,-6.810051971002701,-1.5985601493702126,-9.003510182594804,-7.398453682640933,-6.216824844738352,-7.03307240560741,-3.3942027390923406,-5.4510725282923715,-0.9354595983987122,-2.4630961653254304,-1.5033631497453614,-5.470671518314385,-4.610569960755195,-2.4286950925031108,-12.552965397076264,-9.728299670694222,-18.528952919842506,-15.570496969244312,-12.948000913277424,-14.661948471380546,-11.115282270717014,-17.03438192792199,-15.751891537250188,-9.193934008222163,-9.722639013733737,-14.783380825560712,-13.79821924890088,-13.62027679641943
1669973448.749918,1669973449.745519,9.245424032211304,10.2410249710083,2.0,8.690483724569384,0,-7.900335949535805,-3.5129724057370253,-6.736620942810579,-6.200308974381042,-3.3422997021248557,-3.769455515981102,-3.1768922749851276,-7.573344635477821,-5.475937485782022,-3.9465842796134383,-2.760634651691552,-4.3841417031224195,-2.0422538073113383,-1.3270607736262232,-8.734342319669238,2.2867382138792944,-10.535021850421975,-5.715087083298329,-0.23036028207154718,-3.672625633598005,-7.246761970809708,-8.924162384365795,-9.354831118145388,-7.630904520343007,-3.544925080604211,-7.690567877473487,-3.700052514902654,-5.220561644082911,-6.672089433848949,-0.819769683494699,-9.041928703393769,-3.5537399562132546,-4.033958887254954,-6.499597355270237,-6.339855886263896,-6.551078009861753,-1.6182105635337738,-5.092611834916976,0.5156784771742536,-6.3337448134959216,-5.789855559239148,-2.245362415577343,-15.160814713660969,-10.908902752399925,-16.481673674622716,-12.456812898438603,-11.555587255845992,-13.865058545314113,-15.03662453741905,-16.074924626060657,-17.57340426841817,-13.53497683129354,-9.509484598740814,-14.894116714924122,-15.024054494839547,-13.18256315266874
1669973448.999795,1669973449.995396,9.495301008224487,10.490901947021484,2.0,9.10602484284639,0,-7.588722372543052,-2.299515913740197,-8.685546516235727,-7.806271653301282,-5.508117837880658,-2.444243870656058,-3.7662106043245047,-5.9200676174155396,-7.8242292323752665,0.41385685829167845,-1.3293659991178763,-4.1050840490494265,0.19393933067131167,-1.057551936308483,-6.87813415481809,0.17967342632188127,-9.867539866633642,-6.420722648190424,-1.7861955183531986,-6.448298840899533,-5.740959915838322,-9.007764035628119,-7.1079705013659815,-4.6044305640027545,-0.989425382975997,-9.960659142077214,0.37706973377257813,-6.609569681303865,-9.875081975502859,-0.6819217920171536,-8.327555446816874,-3.9652009801330594,-2.3179062757857865,-3.2786165186698475,-4.487423027840485,-7.278499763517128,-2.0831193142035973,-0.19235994516914603,-2.6714597908046023,-8.219450775475844,-5.89802409006015,-5.259674676047041,-17.11480441189949,-11.921801941621034,-16.526631531710393,-16.258036205719776,-15.628365220016562,-13.3421980311999,-13.60112527087585,-16.877475610216663,-15.61417682212367,-11.80082430433161,-9.273826802436183,-13.826274407517241,-13.95608067688399,-13.441399178545613
1669973449.249671,1669973450.245272,9.745177030563354,10.740777969360352,2.0,13.3106443942417,0,-6.8466834919249635,-2.217611856702488,-9.748693364833025,-12.1352172471266,-3.872317055679914,-3.9804034190390403,-7.536728763545929,-5.919142531803771,-4.350312995327263,-2.637259497371889,-1.9559334236584376,-6.7299255914400655,-1.7519252181471223,-3.41143996625679,-7.738835554014676,-2.799350479338663,-9.464099862401962,-8.124737464267026,-8.276634618811212,-7.075100423544401,-3.4911612456411762,-6.567491659931086,-4.097943076316946,-7.257011347472728,-4.4158180421055775,-12.5145546736935,-2.377661767545293,-5.686215196485907,-10.162865097816585,0.20021240586044944,-9.556724319653918,-7.857517998208362,-1.8216142033019667,-5.011677906000978,-3.7372251785419652,-7.922709867514178,-2.6891213438503065,0.5036756520156946,-4.654843734241566,-8.444945586588231,-4.66652187168428,-2.219242235552585,-16.679586846159715,-11.029321437738236,-18.477973705085894,-19.261278838573542,-19.330072667059,-13.572783983575334,-12.921789053185472,-15.884388146627611,-13.095413876220782,-10.358624760848578,-12.153496835239459,-13.11777464671717,-13.114626365370942,-11.315693113642824
1669973449.499547,1669973450.495148,9.995053052902222,10.99065399169922,2.0,13.790243574190747,0,-5.565810817502445,-1.010351124004705,-12.500376170227707,-10.17885385801511,-0.740064849994178,-6.587545828937403,-7.5072402618888825,-6.755228681460576,-4.408770602454874,-6.471320143587199,-1.324304570590181,-5.43966891904431,-6.903933150155105,-6.228190514443214,-11.127844714702192,0.8285264140822612,-10.327151512913117,-9.321106055343275,-6.941657841656666,-6.323887673724556,-6.377715589503255,-4.005835462883718,-4.184764166004883,-6.5744760410207626,-8.932809980043961,-10.4030232423681,-6.198905464997857,-4.788275614164696,-8.387901572728317,1.7728931246592396,-9.439090884720558,-9.037272294734835,-5.1632025600359865,-9.246382453295492,-3.9377983937815095,-6.667929616908078,-3.4306048303970864,-1.9451506360016118,-4.6018339747767,-4.6298753837183355,-2.349182936622531,-1.6027099196165582,-15.33685069908602,-8.616204944125384,-17.07426799124017,-16.162040557919692,-15.853927522198436,-15.205280286887326,-13.237960991339715,-15.062783765645333,-11.950700002404563,-10.003604784320876,-12.527760158152885,-13.245373712118752,-11.088278463860814,-8.949853099672081
1669973449.749424,1669973450.745025,10.244930028915403,11.240530967712402,2.0,15.31387114057714,0,-6.925527507304391,-1.5109342644511194,-9.849645054777769,-5.280368784839528,-1.227711567578853,-6.988091611824203,-9.826685837472544,-6.38907691817332,-8.531064171935048,-8.020703853148175,-0.5619229045986005,-3.247176408919617,-3.1846922893819727,-7.887603062914122,-11.613015490096693,0.5448285454548153,-10.545528798125524,-4.2100094041705844,-3.9217379405742294,-8.08006871964297,-6.967689593119651,-7.642619004783336,-5.2399258039777035,-2.002741489880938,-5.29219258632577,-6.2959966210346705,-5.681203990141158,-2.868297334753542,-7.565837110580295,2.928243622070592,-8.186446778158185,-5.37207662400085,-6.301741993819975,-6.259840678792857,-6.663000389668153,-5.654602340950427,0.265356691137836,-2.30970500311711,-5.495933785633537,-4.771578907124184,-2.386460149210045,-2.5663815649244244,-14.349493199434436,-6.077556162314252,-16.259258265609496,-15.985776583296552,-14.339074206131405,-13.100045041831951,-15.615782298694267,-14.572276784073928,-10.033960566339823,-11.582724481006764,-13.86674415819497,-12.353897940212505,-10.126142864436927,-8.892319774937974
1669973449.9993,1669973450.994901,10.494806051254272,11.49040699005127,2.0,13.372258283769046,0,-8.048920938796481,-2.9951799299670983,-7.944698612119927,-5.020281469649351,0.8961518087517097,-5.193390516825577,-8.284853672781319,-8.1889469850735,-10.309953598308514,-4.122381148127049,-2.0077760202349064,-6.745524559044192,-1.9029214867256377,-6.619299530910244,-7.712526045226477,-3.933420724816142,-10.231728172121171,-5.084899021590175,-3.5757664231999637,-6.49440634743925,-11.999092394901236,-9.478923443937878,-7.650371416619723,-4.067856915700894,-2.532024736658018,-8.690649373096287,-4.692553881724631,-4.488220601485041,-7.8033926928472175,-0.3217239436586937,-7.841112213011929,-5.995330154518841,-4.618827475139887,-2.20918723687928,-7.246004061349859,-6.531477604783285,0.9589961429313282,-1.4427349355950114,-5.652691859225448,-5.773813450234395,-5.363551893246532,-3.2631645227751527,-15.74229979653732,-8.550335356542298,-16.224095407419266,-15.853932960209693,-15.077743984034786,-11.421221364436358,-15.823568287120173,-14.582575128616561,-9.587029269169884,-10.239782172488214,-13.647471337749648,-11.909783847780659,-13.822314869062142,-13.801528311012826
1669973450.249176,1669973451.244777,10.74468207359314,11.740283012390137,2.0,13.324799242002237,0,-10.449892108576407,-3.2431257740470403,-6.540532699917168,-5.540276092971409,-1.0587029614411327,-3.5215302262817954,-6.342010344412107,-8.498278304535777,-7.934230121780209,1.4178030055025967,-4.386832622392346,-7.331344479666393,-3.7220434654842283,-7.62150612932397,-7.9796653577900845,-6.177934912325117,-10.569287601303454,-7.351330125135586,-6.417347091504686,-4.487719456918344,-14.12291752577737,-6.873563729684714,-6.463999803688916,-3.517628803803443,-4.564431540314713,-12.955249291825194,-8.670579532580796,-8.694682358194338,-7.38530204650616,-1.9962759441740763,-9.710246970789116,-7.944827956810322,-5.851594684951439,-3.8176225973175235,-5.6172679814851225,-12.000100877235129,-1.8864639320993795,-0.7313026398552397,-4.217046166150967,-3.722264964928227,-6.240382530588246,-2.1657795484129387,-14.314067997742779,-9.85548345204918,-14.960125679303758,-16.569541617186555,-15.698943888722134,-13.483874242685483,-14.109605819993337,-17.476815608830492,-10.277815602850893,-9.759340828851329,-12.3133085748872,-11.168783535714425,-12.811280576965052,-11.166793004404145
1669973450.499053,1669973451.494654,10.994559049606323,11.99015998840332,2.0,13.784622025399202,0,-10.798244610321877,-3.7713115350300686,-10.111839644576417,-6.431464105217523,-1.9579703766388923,-4.994118458710762,-8.695864944723535,-7.541137367287975,-3.9677878770188824,-1.6939416476554463,-7.2367564912592455,-9.100198734118019,-3.5639498144168846,-9.336876527281548,-5.188598365090334,-5.950351570321818,-8.594991302503946,-10.304070518190795,-10.023427874612022,-5.280229717265161,-4.811723728424417,-5.729113648669041,-4.570999417303664,-3.6425836303617363,-1.4312133444720092,-7.115184797519307,-3.352926819210376,-5.752327930071196,-4.035255671213889,-2.463806182203267,-11.684676697478874,-7.330038915704497,-5.426452683297409,-6.354249292404042,-8.560383260534769,-9.429718775927427,-1.6280464554325107,-4.9237412970343915,-2.560931015194104,-6.300901575214466,-3.867892268062164,-2.891139439388451,-11.340979780270965,-8.723476159888417,-16.050567329242238,-18.3159593528189,-15.751998964896924,-14.029876575440683,-14.774279043488116,-17.661226723561427,-10.95817012835482,-12.269957576706886,-9.874172627653149,-14.400587561186706,-11.569928402372017,-9.662854519071457
1669973450.748929,1669973451.74453,11.24443507194519,12.240036010742188,2.0,13.424827015020714,0,-9.35055321545802,-7.429950802243783,-11.208608581032484,-12.344649554309546,-4.6440807192550855,-6.998723587603582,-4.592663242956881,-10.960804344047697,-4.9481098892942335,-4.693845137405187,-3.962385380230184,-7.2523561005239525,-2.1894274969966747,-4.635933174113223,-2.2150439881868227,-2.3475637676063057,-8.752996257592105,-14.124302454005157,-11.079720689202741,-8.536917508220327,-0.8952459879456245,-7.2859848245541965,-3.926277677602845,-9.719391462264623,1.2285567592425386,-3.853843252668036,-0.4193867242812754,-0.8377261530497775,-4.4159832272277075,-1.8472721684185904,-12.029209207313137,-7.2321587350619705,-7.380897712321941,-7.016004697277736,-10.253377204261216,-6.679903188766383,-1.6361809047719034,-4.655234327591138,-0.8564033043443564,-6.36864499206513,-3.854544319984994,-3.0229510908637476,-12.32561054742673,-8.407534345244045,-18.902082178509552,-16.08619829197838,-17.468722407132226,-15.431277777315621,-16.515151335397682,-14.450983128870059,-10.823571178109342,-13.206424597298822,-10.005444762592186,-15.512462040328266,-15.002724836179375,-11.573085930442076
1669973450.998805,1669973451.994406,11.494311094284058,12.489912033081056,2.0,14.748035258949486,0,-4.898640331383307,-3.688567963790808,-9.373630726771893,-11.87520304060633,-7.3056611119382575,-4.488240765852803,-5.158305705159525,-11.116221602903764,-3.724705566987806,-1.6245762768909189,2.208274464631739,-2.350369373369193,-4.567815447565128,-3.4226884431077185,-2.220244727500374,-1.3257524994053163,-15.72940201489019,-14.50764963935432,-8.442677090316185,-6.679400405126659,-1.2939315276756436,-4.84258229020134,-5.642525342546552,-6.715180907890139,1.7107157585258779,-4.443837645053323,-2.070623261688786,1.2618255431369043,-6.2060910569846826,-2.9869641254356187,-11.458898422545323,-7.160459053295877,-10.479362362102208,-6.530609782876985,-9.839866189207601,-6.505187777606393,-1.1752623695797428,-5.130190502308542,-0.2346153055715887,-5.015277259154968,-6.092562796834219,-3.9163823937379387,-13.474777053761075,-12.359600009522575,-18.27304456442743,-14.961600662881844,-17.687787441265886,-15.644883214037918,-17.35969755448984,-13.100052476630655,-7.887909138846387,-13.113656691820141,-10.321688218914215,-14.7650198147047,-15.068763127369532,-16.182828644849415
1669973451.248681,1669973452.244283,11.744187116622925,12.739789009094238,2.0,15.713853763786725,0,-5.21825730799107,-4.97314555327096,-7.205537868108662,-8.608859591312763,-9.234662254536357,-4.4475776098199225,-7.6448983471953325,-7.807867918801542,-4.4392951710488235,-4.123483214559187,0.9150724455567459,-2.926508598422121,-4.952086952739942,-5.8266970194397825,-3.93058520959448,-3.043517043454396,-10.58609219171891,-8.705942453833554,-5.0047720335165895,-5.229429260417849,-5.351336563442388,-6.04370140073849,-9.913715481412854,-8.912681796123628,0.9876588534410231,-4.178865575275657,-5.310785561030558,1.2525882631288137,-8.823197379593486,-3.0528598303826477,-11.120806706623869,-5.606090042902915,-6.568366803900631,-5.973895096500418,-7.167975877018704,-7.583683064044986,-2.030951599842272,-4.317427552338331,-3.4592425463568777,-6.636128085580735,-7.119275987933157,-4.38219060354887,-15.322350040795868,-11.223112751644733,-19.920828748158,-14.349968855538762,-14.920619370536217,-16.112511992676353,-15.283219996504215,-15.30023744168666,-9.81381176850745,-13.687751473023969,-10.792917912231454,-15.381145575739858,-13.347264287751228,-12.768303757655373
1669973451.498558,1669973452.494159,11.994064092636108,12.989665031433104,2.0,31.746170574634686,0,-5.76660826691858,0.6108005519795419,-5.406767188336646,-5.12674645533187,-5.747877724694728,-9.749928118901089,-4.7534472752873524,-5.920007208136111,-5.908540335816835,-6.03882979148975,0.7303657210816692,-1.8369453837070073,-3.0575191715930345,-0.20852358456105738,-4.200279603182201,0.3179294255952814,-7.028203844743119,-9.744266628810966,-3.9353559460641026,-4.123440383390314,-5.242714507245577,-9.793482416069054,-7.334347765712429,-5.903159653192702,2.3972608700727,-2.2867834050288134,-2.0962844159097576,0.6285144504483349,-6.838547052755308,-2.036140114180954,-9.878579909954993,-4.868598688560722,-6.246912629641324,-3.0448135175568063,-3.580004733892162,-6.118055656054693,-2.705474995058465,-3.6483364319235356,-3.08761191376922,-5.9726738128812515,-5.262014179794386,-4.114040609222721,-16.188681962124626,-9.057988612973327,-18.977913039233968,-13.679110123819196,-12.863245745715206,-13.511196336679834,-15.126949314590433,-16.81685971998604,-14.349826909221697,-15.478099779270524,-9.20088384305171,-14.292571357904722,-13.000954365898501,-10.674433811951394
1669973451.748434,1669973452.744035,12.243940114974976,13.239541053771973,2.0,36.53224888377564,0,-4.191843037494242,8.25586531024936,-5.499620503980425,1.0865231200667709,-4.529964803349608,-6.912393043774268,-3.5831453537371187,-6.0592956759758465,-2.501868240643159,-1.8736796499482746,2.1860528465080318,-0.32798381257880804,-2.1150963387956008,4.778971013858927,-5.882138478149481,6.486034981150452,-8.740412354576982,-5.517644718736124,-5.528438061934694,-3.761825317970197,-4.767137705551844,-7.181579803065463,-9.573474653390212,-4.732306300385818,1.415288326483663,-1.708748069317119,-2.976786176263083,1.4602634849566998,-6.352935521067939,3.186107751938051,-8.846795008037065,-3.1440701433748854,-5.61331363763513,-1.8644822682255624,-6.211511495962117,-7.770440506484925,-2.5205125384462708,-2.892254052180692,-1.7277327992402514,-5.161594772688193,-5.139559755651222,0.35335024284545985,-13.674676095976572,-4.158964495123572,-15.618300997548783,-10.93625859430912,-11.965027296493489,-11.861535158136443,-15.993450198279502,-14.739762919013303,-14.835348368228976,-12.63985170734739,-6.7375395726350975,-13.181046145409034,-13.308261780039816,-10.126991940693202
1669973451.99831,1669973452.993911,12.493816137313845,13.48941707611084,2.0,36.40791051065984,0,-7.698050940735072,4.406018214154982,-9.859378776793994,-2.231170817405684,-3.5936554110962593,-4.839938407547487,-4.996405931754127,-5.114500169597969,-3.480625385222597,-2.664537125922784,-1.556266896889909,-3.7827562843022244,-4.864145679272167,0.7031720225033934,-4.674515070867232,3.5249590803603152,-13.44452716845349,-6.689044890584177,-4.993737020585912,-4.904951053630943,-6.2708742706965985,-8.219687233178103,-9.681761081809789,-6.015528145548698,1.2072749755356558,-4.341447406170195,-4.079235261406197,-1.995297575949865,-3.7760735238651852,0.07591396510505201,-10.560292299356483,-6.161640347671092,-2.5972760329232614,-1.9753183997792734,-5.625900678165195,-7.306388405334254,-3.0755653605301623,-4.312955180077308,1.5865994092267843,-3.022613283496098,-7.234016940280743,-1.4150494089710355,-10.502922702279447,-6.6620465320134015,-18.638508297887046,-11.679870400090808,-9.971241653292603,-11.31192426540828,-12.83773363218701,-14.765027638226728,-11.594508351488686,-11.530030569592464,-5.730891128351803,-12.31257163230186,-13.58246822747308,-12.760163403125965
1669973452.248187,1669973453.243788,12.743693113327026,13.739294052124023,2.0,37.09337284704199,0,-10.403665538317252,-3.640507025211223,-7.02745983242825,-8.148515243861617,-5.363584525227213,-9.199876408059117,-2.2569477620993847,-6.711407258802565,-5.021495562733302,-2.726358483558709,-3.4946847497275724,-5.872710163377423,-3.791918273835939,-4.35460593488734,-1.335953245353263,1.2153055252943747,-14.51379723514139,-8.038787144610037,-3.158056952156766,-2.7975085041050725,-6.010496513943564,-8.79105485263085,-8.017859156141904,-1.3748174882987643,4.806246202305427,-1.8422122702348618,0.06653597345015752,-1.8427622391519671,-4.0688936572948,-3.6181531211268556,-12.030859667453882,-8.819966085077732,-5.020899528035842,-4.084077980653877,-6.008019353063315,-7.129383294785497,-4.956668543673497,-3.79469282881409,1.6905199831673647,-4.320586509599213,-4.927236826464967,-5.66033449240363,-12.116061468524196,-11.482334379343724,-20.48326564208054,-15.697924068627458,-12.205641935505916,-11.90478876412965,-12.475809633244875,-15.394368499999862,-11.24013119954932,-9.786488834594577,-6.323455184136105,-13.122220408516121,-11.620229789349077,-14.80276213177153
1669973452.498063,1669973453.493664,12.993569135665894,13.98917007446289,2.0,21.85121172670431,0,-6.955637951477471,-2.6180938186504936,-4.452397571438455,-4.990133281629213,-3.703873336050943,-7.492110618696155,-2.3277885870136217,-6.271131542158517,-3.6379622390665043,-1.9044196588032074,-1.3446288550806027,-2.938080880004578,-3.988271696307354,-2.5804385641987477,-5.40363341603034,2.6657256981273743,-11.404773494115645,-5.801167308721521,-1.3733783796803998,-4.178543152895912,-7.124830873382033,-7.832254559876121,-7.896337608038182,-3.9808046212363064,2.665886947394434,-2.6816709700358237,-2.3732266093789836,-0.8172783281044924,-5.634727868975965,-1.09863833238881,-8.230547445071236,-6.854187068650354,-4.945355124063777,-4.6318134907384545,-7.337208779308625,-7.4963922619028525,-2.3880165617131888,-2.591680777227625,1.3813498828442183,-4.657941560902995,1.0812283868649133,-4.200921106163726,-13.518490413037476,-9.884813515464527,-17.734955513066414,-17.06526564286875,-14.310001811284273,-15.151914444371188,-15.154571869267624,-16.678909363842955,-12.199404132714125,-12.61576814522318,-6.350948461472072,-12.090385958725413,-7.548511292898219,-12.325052038038216
1669973452.747939,1669973453.74354,13.24344515800476,14.239046096801758,2.0,40.170089643461395,0,-4.6309330818504355,-6.500582378067829,-8.350546170237749,-5.2068919446166415,-3.7848021854002156,-3.9270852458823455,-4.301403150749915,-4.804218730775362,-6.120999520677422,-5.5738590889667305,0.4194795965570376,-1.448866177140546,-4.271264155186972,-1.3747977889943885,-4.3837640480264835,0.6859641326812289,-8.910218602022347,-3.060172709651274,-3.892868740193032,-4.316280040032925,-7.119595794619328,-8.248761185825922,-2.7900298193633404,-1.578433182391621,3.3511352379945207,-3.7592769512323927,-2.2546256628637162,-1.5404646683271532,-5.989002549529838,0.12888263581093884,-9.610027403090047,-4.047466269255265,-1.6147619689067287,-4.530955772294895,-5.974890022167591,-6.034149163362601,-2.454099793726935,-3.0667754589961755,-0.2682414355050843,-3.799172371577386,1.5226214943107605,-3.260876088824901,-12.639567609663656,-7.219675905672274,-17.532360944804406,-17.275616861371553,-12.909073213428526,-13.71926080462208,-14.083393164613032,-17.309829336348937,-13.101090473628968,-12.281276534678074,-6.164642115128064,-11.140806863088194,-7.429493893242068,-10.668062798801001
1669973452.997816,1669973453.993417,13.493322134017944,14.48892307281494,2.0,64.23537518831557,0,-4.713936054548816,-5.875882502342348,-11.919218640928964,-6.2932233048723285,-6.396914819698864,-6.1843947777051,-4.307519116745736,-6.642599824512323,-4.159257609775741,-1.807451777283595,4.597842052369609,-2.4778630999822515,-4.529854448941785,-2.974822923558257,-1.315815475033314,-1.1750936923268198,-9.60931989946719,-4.650983064101876,-5.224623852701711,-3.655479448100079,-5.794963469062676,-7.327903543828887,-3.8402811688181906,0.25989733393420783,5.489572775964201,-2.9104123648113793,-1.6402913011710296,-1.1338806915695292,-4.033825436755939,-1.7725773478463407,-11.222578901104756,-7.982418024375716,-2.845079441638317,-5.309290906438775,-6.129011988796867,-6.652783218539256,-2.562064781636531,-2.9377892389103466,2.255836731393633,-6.14500263326212,-1.2684599996380028,-1.282604088195853,-10.290056094878848,-8.823639634516677,-16.92929907235468,-18.781357781501505,-13.338886270493848,-13.624934740806275,-13.962397276808376,-15.783535289683446,-12.053402703906933,-11.071943928674875,-1.9721029447389067,-12.846051208551806,-10.03509577072701,-9.246624792536124
1669973453.247692,1669973454.243293,13.743198156356812,14.738799095153809,2.0,92.99800194425158,0,-4.194571899544966,-2.5134886655900512,-8.702892586499152,-7.945978625808975,-8.275193326654817,-5.490446995675581,-3.9503462514137726,-6.248227181055675,-4.138290314492714,-0.22897340817721717,5.283407816344548,-5.075572643755319,-1.5690215920069182,-4.5820043090320475,-1.4277119406831056,-2.05078313765528,-9.726622002749982,-7.087457323295846,-5.253775394491617,-4.6503235900874955,-3.6440194502247603,-9.778550482120462,-8.249287174095425,-3.5375677752514822,4.149919151070848,-5.026512449185231,-2.0331473555545676,-3.219906811950157,-0.23169138301495995,-4.207878828823526,-11.941708144035081,-12.211443861262248,-4.601974599159847,-3.666360306524638,-3.1947427659008887,-9.379689741526517,-3.4161080480527914,-2.3797866019360816,5.387129713970716,-4.247361017954522,0.6182295376856956,-2.8965326069596538,-10.013870182238902,-10.272960043373743,-17.158279491768308,-15.526645458650021,-13.309877304080569,-13.649883745221969,-13.505250440787645,-15.496761406022944,-14.963183633201496,-11.419260924360298,-1.7257291888233797,-14.990177734189686,-5.837650165341285,-10.787813462449062
1669973453.497568,1669973454.493169,13.9930739402771,14.988675117492676,2.0,93.1996467893207,0,-3.7871875454463537,-5.176814173700491,-8.40486969897135,-9.533847356940186,-7.262912359755411,-4.693239284606566,-2.9610884849120933,-6.2615712977131635,-5.5474235855596365,-0.5047861049076461,1.4544307580986795,-5.299239419309569,-0.1752094686526683,-3.855642119579474,-0.8498306628929448,0.05225702994508114,-6.872047873961565,-6.746087208479112,-7.8126073678418075,-4.932172207686035,-0.7379162098867966,-8.192375818147186,-11.857911724068783,-4.534534702689492,4.419923557251659,-9.409270954948955,-1.337297438767784,-2.788301665478503,0.589106638968898,-1.4449914348652049,-9.40523218373061,-7.152937237659458,-3.870730512850358,-4.830837935519853,-3.261368125531856,-7.279081920908803,-5.416343416557355,-1.5673005646135731,5.203964308923801,-3.679079405171089,1.4878602072891267,-2.7610282571232956,-11.825024258394556,-9.774519926226759,-19.209190456399487,-13.48573155276777,-15.62235296456197,-16.728077713947687,-14.438885409481138,-15.241281608342831,-16.667083121913006,-12.09200877565224,-5.885962415773582,-14.346141251977722,-5.548566606656617,-14.563165665117523
1669973453.747445,1669973454.743046,14.242951154708862,15.23855209350586,2.0,79.42018486263116,0,-3.6332520304105436,-8.395814790339076,-10.205551168692569,-8.088969460462597,-6.810215258746705,-6.741191029587537,-5.988901278685658,-6.7074346525766115,-5.356507322527606,-2.154446432585555,-2.3230531878142617,-8.90518279721276,-2.477880833806539,-4.8494149112298786,-0.6526988661869348,-1.3641331309439058,-10.639352074418069,-9.310382381686674,-5.096962061024028,-5.774495196683579,-3.2715152201271085,-7.301532296408135,-7.242547495900582,-2.235438486929647,6.017646167842669,-7.823260727474716,-5.329451881341852,-4.892617466099178,-2.0012260795408423,-2.7083362844703758,-8.918716999087863,-7.071607706473756,-5.475753341260635,-5.9745015148124825,-4.724625520622427,-6.6978174936252035,-5.817999927061972,-1.2023654853033907,4.9910220326651356,-5.059189060017804,-0.718988971338209,-4.049258132982195,-9.46129670119878,-10.810940598678782,-18.004022236098415,-15.061806747774709,-15.075883902187083,-19.236535754820213,-10.361665432828296,-13.331899072160398,-12.219700614248087,-10.600576930247414,-2.3124443470750795,-11.991848943160564,-10.200131387558866,-13.629400260453526
1669973453.997321,1669973454.992922,14.49282693862915,15.488428115844728,2.0,65.47184438670004,0,-3.3381239988857763,-3.593858816847153,-9.477527574177023,-7.981082969388892,-2.9705554922427364,-6.245554579835462,-6.909152270321089,-8.414606207161249,-5.067086871904987,-0.5935808363502197,0.8455636197114652,-6.969358964419808,-6.506039678770783,-5.317203006923663,-1.1433031245712304,-4.781008957146933,-10.808154774234753,-12.226623312971142,-5.702850301473211,-6.49218668461454,-5.931006669986765,-8.026122121423336,-4.6076835989628275,-4.182796230039342,4.083819959480134,-6.057782971293118,-5.658132824225742,-10.526323659285076,0.2671731128228254,-1.3172594601967178,-10.963530845772507,-5.340241919151381,-3.4438403414175056,-7.013865259727583,-4.896536562864257,-9.598277745565053,-4.883952703205069,0.8118918679862144,6.006731284214472,-2.9684894664808867,-0.8016167543682211,-3.9506845472803516,-8.100281274769163,-12.10516828083285,-17.095930028193905,-15.089160890837523,-12.675416043567632,-15.306315123122637,-11.71135257699727,-15.418604174406136,-12.625608551171187,-9.268560618740626,-1.165203151587682,-11.773893046217118,-11.5954343780706,-11.849795242742154
1669973454.247198,1669973455.242798,14.742704153060911,15.738304138183594,2.0,26.318608804161048,0,-4.537740016014092,-1.2488807784910179,-8.253241510783749,-7.68136435552933,-0.3959762582603996,-6.36370631593962,-6.090517522333094,-12.034561784468568,-6.36519610512254,-0.903154294874025,0.0048102225653565665,-6.134544473583311,-3.429040403148533,-3.1037289868122238,1.0972918781781502,-3.7873684060118396,-7.4843342241241215,-9.653569700297874,-4.4978894173448145,-6.587170670868242,-4.7585142642889044,-10.544839575391851,-6.700729120824683,-3.4056905732106952,5.481109015343991,-2.657810830977093,-5.899116234582078,-6.494476472310766,-1.6390453088534147,-0.5403922157535912,-8.655840781860826,-5.562614145149535,-4.942080295553948,-8.861681165189655,-4.835322693436985,-6.8664550486553155,-3.7273575418886007,0.15351110440269927,3.2839680589620723,-5.597851776634367,-3.1729610266938786,-0.4479915666109436,-10.669877404176031,-9.279482304421657,-14.871734759181543,-15.715421307096687,-11.490002526545897,-13.521023478793808,-12.501093516702884,-17.177931966445286,-13.17272891769289,-6.608369311317507,-3.5430669953100393,-13.341520718001172,-11.613162181355133,-7.861574438213869
1669973454.497074,1669973455.492675,14.9925799369812,15.988181114196776,2.0,11.488758058131634,0,-2.9117624156840876,-2.221667859702516,-9.129989350693435,-6.43046877188707,-3.4159434727432503,-6.823278418394985,-4.121253037809802,-10.100500061490807,-8.444017314355518,-3.0318749249262784,3.538799243593286,-2.9321357812806967,-1.8986681086088826,-0.9434722293968392,-1.1864302400063351,-4.071385275782388,-8.98039519867879,-9.207901360613203,-7.9578794685213445,-6.770746924283788,-5.588097659045802,-7.123162347188947,-2.3394699715882674,-4.737939981967621,2.8112770243813086,-6.942281826638045,-7.910244545192521,-7.418333800126832,-1.932926490043061,-3.0341709770747336,-9.646649847061346,-6.15579490604541,-5.8657707593723885,-7.0687289024990685,-2.4921613762317025,-6.18011419955491,-3.4821806665567596,-1.8191680905773127,2.712997298868855,-4.893242458240969,-2.85558854855597,-0.2567556766027581,-11.959248379520083,-9.624537722987082,-15.063702586167807,-16.721879972272916,-10.176413373111028,-15.466990198349905,-12.549793245376827,-14.98830631083893,-11.382727898868461,-7.363431453211292,-6.361567977363865,-14.908572774225595,-11.441435893114482,-9.821750266925934
1669973454.74695,1669973455.742551,15.242455959320068,16.238057136535645,2.0,13.028231196567841,0,-1.2397389852306622,-2.020242034834218,-8.647149456564495,-5.906880492321136,-9.725352029932939,-7.496986073356076,-2.709293273026367,-9.336689926932783,-6.161013251419396,-2.8715765484981706,5.922456552334036,-3.369091302953211,-2.906653376055319,-1.9510532696925607,-5.527625631115354,-5.4373624911493845,-12.856477501874934,-7.83607005750763,-5.911852296603962,-9.082728932809179,-9.29959042998118,-6.119788864975831,-2.882854108223753,-5.865324377582466,0.4085267139612232,-7.29493247594582,-5.179253056372593,-8.47072297836734,-1.2632352672486933,-3.221663518577783,-14.888234131423337,-6.24348366778447,-7.802477037882143,-5.670486252413935,-1.8977848345241821,-6.011188817522388,-5.386895757888416,-6.822095854645504,6.687321769409289,-5.158599386910393,-3.0188203790124746,-1.7983198102499225,-9.997505659001733,-11.458012898180673,-18.328472876750258,-16.57121855032982,-10.672419378849874,-15.041633131088314,-12.88011938509159,-15.515349915184014,-13.478376632372054,-11.277991678225355,-4.102142826138554,-13.898888460369767,-12.000860656868523,-11.389563959316542
1669973454.996827,1669973455.992427,15.492332935333252,16.48793315887451,2.0,12.280675389261399,0,-5.120751631276392,-1.3354109150017346,-11.36807870455649,-3.7541741766346193,-8.548700975500001,-4.699670955469749,-5.058351494796295,-8.493861246928804,-4.760261784068343,-3.658974405391899,0.11345370837496759,-8.481133849494386,-3.541330810714562,-3.8059300217922187,-4.537886903291181,-3.368607231909321,-12.84867713974375,-7.266271225566393,-6.618674060909806,-6.697756582515898,-7.853964445976813,-6.127024869013723,-3.0353609127327896,-6.423529024798996,2.7406704664879844,-6.675122162008429,-6.199507848201496,-4.451991022242895,-0.5462681208407286,-1.2104769755498632,-10.989113552291116,-4.8890890571211765,-1.8200701440213818,-7.666512501696032,-1.2098648680811164,-4.261112300039273,-2.450845753223269,-3.5959274067750258,7.390804910125086,-3.1000981713202047,-2.668562388248664,-2.153273356044893,-9.810775023294045,-10.23134512215262,-18.24997840486227,-15.460210268120102,-8.432161389544138,-16.979425168253716,-12.042737619966182,-14.389713667821146,-15.328475175803863,-10.500170677692939,-5.071594286364986,-11.90506997404259,-9.893131714988705,-9.2979541348681
1669973455.246703,1669973456.242304,15.74220895767212,16.737810134887695,2.0,12.118274230692558,0,-3.629322627711628,-2.7076782017326413,-10.36631165799153,-6.7586120387522755,-5.723615219895764,-3.2700351628658506,-7.879001861180188,-7.603937159135093,-5.993456830056915,-4.969137590204198,-0.646571335067204,-7.611045921479395,-4.4144197141338095,-7.287916979164074,-0.9416071823345746,-4.028987094795806,-11.006148101976388,-8.672445660863179,-6.734036231867913,-6.9451862712552925,-6.326795766022046,-5.968205805365998,-2.7228204768318127,-4.0913603944858705,4.413248899762516,-7.323721879557188,-5.5613267095539465,-2.49648610393097,-3.123993625973421,-1.0857085354299465,-9.079428618839767,-5.831237523284155,-2.3671754677534866,-4.177585908940561,-2.722346226629192,-6.567325114225735,-3.31561505402954,-2.8721348329720042,4.833373017444325,-3.6131495084028793,-0.5354681399864367,-3.9420677977604237,-10.309143336689333,-11.377814626556537,-19.946659253148837,-16.367348573978393,-10.488355397954185,-13.9570226083578,-10.454322659652306,-15.901556526105967,-14.612082458918739,-8.72115303798152,-3.421117829286098,-11.417473966141692,-8.526854543086149,-12.204636892045928
1669973455.496579,1669973456.49218,15.992084980010986,16.987686157226562,2.0,10.538206279136306,0,-5.543775525708714,-2.250940184866476,-8.058012622293646,-6.815834722853004,-7.061548817022187,-4.215978287554873,-4.870910384775099,-7.247068235426182,-7.311418454021403,-9.350488468684176,1.2602929120512216,-4.715031633780496,-5.02506216047505,-8.571108067961372,-2.72661709207529,-6.683207885231095,-12.432204301698102,-11.040055756362626,-8.67687167439491,-5.211223301573787,-5.539160097426072,-6.005443126877922,-2.7232007483077907,-6.320562179980151,2.770510975468143,-7.004106307714459,-0.6369794902202832,-2.6136301676976395,-4.716509151872966,-1.0605228055359213,-11.020591631558887,-7.789597622800077,-3.5041023551142314,-4.0243298291707825,-4.5058105282894205,-11.523086471093496,-3.9578159328825553,-4.658792704575541,2.9966434552091217,-6.607350191864959,-0.594287082192143,-7.240141124414845,-9.30212906833068,-13.265773867965363,-19.544633768602214,-17.36433912450235,-12.093103750197109,-11.093337629298963,-10.470106761211103,-19.443942187200445,-11.713990213192847,-11.445696953103276,-1.9316015220577145,-11.502617428374666,-7.698218734691835,-13.85818295363977
1669973455.746455,1669973456.742056,16.241961002349854,17.23756194114685,2.0,11.300931249838305,0,-6.105225500235969,-3.327050948681116,-10.529504423112124,-5.3597301011768375,-7.9945061081534785,-5.010128063200387,-5.396245856741986,-9.834181351822957,-9.750922701558405,-9.928127171703165,2.0561494105982785,-4.730735558034416,-4.702777705457945,-8.717076778693475,-3.4105228475732807,-8.133421386783109,-11.038971672494895,-9.736310677789778,-6.518238873940062,-4.9219419048574595,-3.815091263401584,-6.264553457668227,-7.330249552856384,-7.479170619903442,5.467198977884829,-4.3656089006745535,-3.8800406483315735,-2.5553347550576215,-3.011498752465692,-3.558784449009367,-10.541200397693448,-11.844742359348047,-4.699488656501653,-7.419554899415781,-2.565485436361337,-11.520806364069925,-4.0196082939734,-0.9463870226907951,4.902766774019433,-4.000524497653754,-4.3971185869087215,-7.521934419172269,-9.99396627328099,-13.061384878897986,-21.241433890480078,-18.851538679300855,-13.865024610788893,-15.431533167720065,-9.270401203827918,-20.01967066009353,-11.875802221844117,-12.118041004755923,-1.6471556109327419,-11.090595922101592,-12.076847769034682,-13.878775202615142
1669973455.996332,1669973456.991933,16.491837978363037,17.487439155578613,2.0,12.1405104726717,0,-8.700842352787872,-3.028510346697554,-10.090060583281595,-3.7112398593851297,-2.8698883559961357,-5.882020591994152,-8.974965213724316,-9.645005484430657,-8.872495400391315,-5.477221438645273,-0.7229347823356435,-8.901395131814388,-5.875487544877708,-6.2948705344032625,-1.8310739631266202,-4.441804652943799,-9.97939182793126,-9.28833066283704,-5.451794241903778,-4.629374208336371,-2.3253250769329012,-7.991616396161419,-7.897528698904336,-3.056265136823882,6.422171061281564,-4.8431563323995555,-2.2446321893927204,-1.5237557257651901,-1.7186711959938281,-3.201536458659901,-9.812072103572124,-10.606086412490129,-4.22737574818642,-6.0433836690549665,-2.3042404327182915,-7.14536131206115,-2.5731951592968993,-3.2834590678752433,6.15439482881765,-1.9077960222510577,-4.228178445221997,-4.683718954001113,-9.957859134458275,-11.383802818338582,-20.279438508979865,-16.83257503396283,-11.63604474528315,-15.236961499467526,-9.42149055452729,-16.212918478118294,-13.07852027516255,-13.591657834012016,-2.0093808662193444,-9.49793138423163,-14.009742128096148,-14.022939896929307
1669973456.246208,1669973457.241809,16.741714000701904,17.7373149394989,2.0,12.69255645064404,0,-4.415603613708613,-2.375012046221042,-7.862915257068453,-2.629342165230064,-2.448902514287593,-6.214752077016319,-5.093346463924905,-7.400651593325738,-6.177058706812502,-2.994737555253488,1.762098778849031,-5.791133955121628,-2.4650937222204305,-5.702067835875965,-0.2210899999806638,-3.984317386021381,-10.515151416344981,-9.000501349502098,-2.4576854558787553,-1.6934476815321562,-2.559559979967627,-6.694742331907181,-4.805224520777285,-3.088134683486702,7.014615405414411,-2.957175785101824,-2.6717671952819675,-0.7518600743540669,-3.0480385118195685,-3.4629817753140255,-11.758527390675031,-9.16207832693693,-2.6206093266312736,-5.983002522691353,-5.9357595675532036,-7.621500178535319,-1.1507510399014835,-4.855597872346895,3.4048340183554693,-5.499772066848525,-2.3200637751504964,-4.3276662609535475,-12.931994543909619,-13.515072265172702,-17.381337910764064,-13.939062729432884,-10.09087041969046,-14.854152071334719,-14.807808887792671,-16.493420316560023,-12.040327796383428,-12.516869077774913,-5.825128789611327,-13.801107468389546,-14.428180555410954,-14.988349821495143
1669973456.496084,1669973457.491686,16.99159002304077,17.987192153930664,2.0,22.425683902492825,0,-0.7779635811898207,-1.5242361944934093,-7.407376754895751,-6.299871069966015,-6.634408139848382,-5.239414381391979,-1.3764004266282894,-6.646369802399066,-5.310680262936281,-3.305421629403391,5.975889465558511,-3.8120773180351226,-1.6970651617302825,-3.7884163481377864,-1.832319376348825,-2.205373051466409,-9.409492945892403,-10.291249718796731,-3.4607749865526087,-3.4436282097394564,-4.422043431732884,-6.422364020357224,-6.032236101055368,-8.371423897391193,3.495441091279371,-5.539252973063978,-2.9403106990448276,-3.795032315391689,-2.7723071244931874,-2.069223606957145,-7.939742868711511,-6.982036144917827,-5.442601459140569,-6.224335344328809,-4.02345770587953,-8.515268021604408,-2.9383530037716756,-3.7896328520664913,2.762072642649238,-2.2647987567447574,-0.18806442948016203,-1.3384545400760155,-13.057432639626857,-8.809881509962736,-14.43054860577481,-13.733345918353434,-12.188182581966027,-14.265882526691593,-13.81750672828564,-17.315530239761593,-10.667706888511209,-10.63446941279005,-7.631357447643867,-13.591706952921783,-9.98075568831693,-13.793606138716008
1669973456.745961,1669973457.741562,17.241466999053955,18.237067937850952,2.0,24.06856043507206,0,0.12328523404787406,0.0961536024580058,-6.474781334070334,-5.925221058144713,-9.059858116237532,-3.694213664748994,-0.9721924487909829,-4.184535148379678,-7.200349357526054,-3.8851880135607653,8.315364090974073,-1.3461787113320567,-0.43775498496543996,-1.668104926594666,-7.872959485351915,-0.7730561463547893,-11.704177855573526,-4.829553375438903,-9.602769023803749,-6.204985996416416,-4.804323118937402,-6.291031711852929,-6.048969023002999,-6.192044063649874,0.8786993365856689,-7.119270297929736,-0.58721184927556,-6.006228736963234,-2.6569870059577116,1.8811531894950984,-6.947643010068296,-4.873152359231855,-5.465803441192043,-7.627988942967551,-4.3267881545334035,-8.375922269254982,-3.4141721524789803,-5.863531444781289,4.0352435679742635,-2.4500901806834405,0.8657690973670726,0.7880113104149635,-11.838441409532907,-5.809925430394962,-13.26660093530009,-12.480204028732796,-11.532668894372751,-14.762279210935311,-13.398817815987565,-16.159908874958134,-10.873731861743845,-11.957452111349339,-5.502697130781345,-11.473736745951237,-9.56128777094907,-12.420482063430807
1669973456.995837,1669973457.991438,17.491343021392822,18.48694396018982,2.0,31.93409271008808,0,0.2907809374396655,0.678151214684617,-3.336275058993428,-3.6902028968231044,-10.00664226779418,-4.062788528795837,-4.308430501162888,-2.432706967384768,-4.728941616604629,-2.696896551149453,8.895756044984203,-1.2809164668951896,1.5955872877578092,-0.35207682108736377,-6.94325945772454,2.989702033293256,-9.91116760316061,-1.915978234895743,-10.336651625162443,-2.8434104493063916,-5.634502426019542,-6.1420166002072305,-6.428966642550926,-1.1396909937772068,2.862312485883836,-10.025556908672916,-5.502576775619733,0.18860721178333828,-1.8927420170993223,4.976098491890854,-8.836294143588637,-0.8306204812335509,-1.7316402113143554,-6.757122749592646,-2.999487609618645,-7.829171396966633,-3.562675253873984,-5.2900652304838385,6.227224150364812,-2.235549286327974,2.749208992071044,1.0998480221313618,-12.563024121606691,-5.0254833411482185,-15.994737394960248,-10.358448413867407,-10.275320072180383,-14.72987914160301,-14.421933712022131,-15.131781905759002,-12.377498054291307,-12.346072424604131,-4.1146266913238385,-13.326673846075003,-9.237064492906336,-7.800775202353172
1669973457.245713,1669973458.241314,17.74121904373169,18.736819982528687,2.0,35.75643378920489,0,-2.9403012766817094,5.62820164001939,-4.068721384736006,0.6735786886969197,-4.009588722238747,-1.6319354490282931,-9.89948053359996,1.5292437831693388,-1.0570709583741036,-2.322441636690173,4.327979746280689,-5.2313463470338135,1.7848058648221672,4.382415476991187,-4.751677950508418,4.868724620985825,-6.895132597781116,-2.6527415233730958,-7.1284207817331335,-1.5858882261904172,-4.646739955457021,-2.006488016824946,-7.048751815276741,0.7701362597414618,0.9697983054951058,-12.403290318849296,-2.759841945390147,3.4312491301365555,-2.6463822436193136,7.99516577240326,-8.964479763990184,0.11833392386182111,-2.302471547869302,-5.858904944633144,-2.6121250469181363,-5.9739495918710155,-3.7792532166329575,-1.1257358730678417,5.919158525911219,-1.5763413207334651,2.614160120247634,2.409955042813177,-13.425971598978322,-2.7403795951021337,-17.035733137691448,-7.7199612537333735,-11.795142035438012,-15.105752197059278,-13.256019879504443,-11.158958477371666,-12.455701532717784,-12.564000433608511,-6.09327664850799,-12.278211469900278,-7.923861430930974,-3.7965781457323846
1669973457.49559,1669973458.491191,17.991096019744873,18.98669695854187,2.0,35.13879513688633,0,-6.371602391077655,3.8199607687559016,-5.707026369587608,-0.5198641635225402,-1.5354642094444597,-5.078073310821617,-7.29196040525191,-2.535281973106533,-4.046079141318007,-2.8126309137359367,1.6700798880051893,-4.473071498518101,0.31805477737459403,1.5845910022376883,-10.25366154086277,0.8747498127981261,-5.881712551882746,-3.154856146894152,-0.7370692525390903,-5.012381514620973,-5.062839014949617,-6.086614661787888,-8.054911359208528,-3.8200310786921983,-3.835197809027951,-7.918665478058821,-0.9174639156811053,-1.5923917780405628,-2.4096757972112544,4.909390722692368,-9.36187834069809,-3.2276782010226808,-4.856206865381353,-2.5262084010805874,-3.1174082739161575,-8.626872486089614,-6.237977913704114,0.30033268312846606,4.311608924281827,-2.364127337894482,1.1703986881267845,1.6822843910210807,-10.924406438124477,-5.387344482841083,-19.05395040258637,-10.936161333727856,-12.183025195425305,-11.065781390406435,-12.165316411630974,-14.19634357904978,-13.843443646729355,-10.436334588840737,-4.438739126400017,-11.117550918632894,-5.3094317609015205,-6.686298317249771
1669973457.745466,1669973458.741067,18.24097204208374,19.236572980880737,2.0,33.46809438736866,0,-6.338817575357291,1.5461514059987136,-5.565495560318317,-2.6447464729403385,-2.9647601747584593,-5.708832369527399,-7.125900334750069,-8.283323846145864,-6.245049760841103,-3.703648674987876,2.0753569895200505,-4.006605348652305,-1.7630594064968896,1.100928590921507,-7.8060107905913565,-9.622693048110865,-6.439899414870041,-5.780477559023879,0.09627285798027663,-3.730308811151588,-4.630778040033671,-11.611927161093538,-8.753908449352473,-2.611614344726379,1.0336948524179048,-5.783851216072575,-1.4680596686826195,0.36233455800125935,-2.018023996793228,0.5116374021965863,-9.700634503205963,-6.12788835915385,-3.2970046189116307,-1.4965297471416592,-2.5558270094509634,-4.032931685810542,-4.396255949736069,-2.0826759668570776,5.1283267507945265,-1.6853109273264513,2.0186943097727723,2.047026076686875,-12.402618962917364,-10.832992641090115,-18.01179067050001,-17.190893335338895,-12.786120117964103,-12.783056803044136,-11.409194685261998,-15.34964564115172,-14.695573354305278,-12.20888959284784,-3.8926197196492582,-12.195500501484604,-6.086557718295696,-6.622367147016384
1669973457.995342,1669973458.990943,18.490848064422607,19.486449003219604,2.0,28.10467133854155,0,-4.601829153121394,2.271509179735514,-7.118881077477309,-7.010074567859595,-1.2577381797537888,-4.523678234453431,-6.491319845818687,-8.29998484844301,-4.395719700531815,-0.05343602747175878,2.3959712787255527,-4.557673388958606,-4.003023349227845,5.457156873328362,-3.185581219367462,-2.747467128020275,-9.618446583793123,-5.412418728892225,-6.22713342007862,-2.1235790507580217,-5.610201802510353,-7.003192466001021,-7.443196787194389,-2.4951810764475097,4.48023134327387,-2.4426081277347302,0.5164640858761925,6.592527334116216,-3.78580452801136,-0.20397869871037613,-10.554771623565495,-7.388232336448571,-5.714234881114234,-3.883252727594122,-4.3964073723073565,-3.4491455015639394,-3.8905084319634238,-5.829537728237975,3.578136422994891,-3.3852696470981964,-2.0638240270931356,5.221653722554782,-13.376095476696097,-8.395121915374485,-17.326131600148422,-18.05711540102337,-13.040243863008662,-17.47097027839227,-10.93303140257191,-15.10595229396552,-10.661606345596567,-11.739426012607804,-4.09534594851311,-14.681455947421796,-10.511763485878348,-5.640196692787956
1669973458.245219,1669973459.24082,18.74072504043579,19.736325979232788,2.0,23.31374537926087,0,-2.0868371581243848,0.5702703371854445,-8.882164661556143,-10.267604722729162,-2.2372994273132236,-3.328125885180973,-3.526944285960431,-4.861849706015937,-1.8108459172447444,-1.5830013277159871,5.978605020408719,-0.9261381118992991,-2.789852698281696,1.0975499903249266,-3.2996871081200947,-0.15655077866081007,-13.056090241806558,-5.076490264727998,-4.488676377982088,-5.277826777920306,-3.3535971416501544,-9.629256408822199,-5.612031349693592,-7.598966290846412,3.6839610432335625,-3.3013802017629934,-1.528061163088133,4.3355352680499575,-5.560335528402365,1.6311114421733053,-11.18759461352062,-7.014041833715781,-6.666713457620533,-5.114006085614378,-0.3021322857302086,-8.610920260554577,-3.3399070214520132,-5.242075364327788,2.857421095086325,-6.891947496914376,-3.5908889524097507,3.4321867294715074,-13.721208320304068,-9.939314995607017,-18.041250037930354,-16.245984774270468,-11.896246010147626,-18.83481376773236,-9.692037334910585,-16.087643136194764,-10.376204865311403,-13.372273568364179,-3.495965548400086,-14.65403885669549,-11.69392911755681,-5.906857110749744
1669973458.495095,1669973459.490696,18.990601062774655,19.98620200157165,2.0,21.70288865899864,0,-2.542964367339387,-0.7419657454083686,-8.60853052814198,-6.978777763229523,-2.7515809968907687,-1.6562250708045276,-3.4090263478092906,-2.030751891007572,-0.4494624776091596,-3.3818624900106786,3.203976425203896,-2.8223057576437647,-4.181628635889947,-3.3271350773517905,-3.9308394153129793,-1.2624754418828124,-14.124959954095537,-5.421156719831199,-4.344942132442671,-7.179240425282717,-5.821894136312701,-13.147133671201367,-4.371919133014931,-7.136537143436701,2.2954421121289292,-6.104938841858646,-2.8523091021333595,-2.596368444827073,-4.382499743547891,2.6593933294636116,-11.744296400669079,-6.582818462552307,-5.835645789169449,-3.277357846865938,-1.5590064402953783,-8.577048554952958,-4.4560098982199,-4.051510651370036,1.726353273050297,-7.838254705297551,-2.0187050014759746,1.4292203530782486,-11.737038488623126,-7.570029242185479,-19.378447554752313,-13.169786749685565,-15.811179266227189,-17.23844420500037,-10.898557536246326,-14.172852792519283,-11.851756117068561,-10.677169900015457,-3.0656595396335473,-12.622637578161935,-11.713773522546425,-9.035544470877342
1669973458.744971,1669973459.740572,19.240477085113525,20.23607802391052,2.0,25.051101780732758,0,-7.634342992974682,-0.969608747306606,-7.246958828437825,-6.796199435435585,-3.3126060748623383,-4.6463748886883,-6.020592644358813,-5.3721798221992,-2.469832124090967,-1.6306289369367366,-3.045967551941745,-6.0906639994503955,-2.5961290284924625,-5.9763199896588,-3.4330602593235273,-2.117752393499943,-11.793794993902306,-5.401794697389837,-1.668400945071757,-4.414391106514099,-9.489215117316682,-12.261966619537287,-5.785005720490571,-5.160064043822215,2.9769117143807646,-4.473307983548173,-4.762321903633461,-5.4292866818435215,-2.9871858206406277,-1.0758238854038207,-12.055069579887034,-4.571130497563938,-4.874178481017496,-3.146196860533714,-6.626727495376475,-7.344326939661551,-3.31640358746078,-4.093762075442214,2.3767343560910064,-5.9214835699202855,-3.2016937562932024,-1.7518094963271342,-10.779513026654747,-8.54326721829206,-19.172749274169977,-13.220920438021038,-16.913173638346297,-13.808317780789965,-14.740740745606116,-15.073560551264599,-9.7383226664649,-9.319170996065072,-3.9274782165225086,-11.207677818835855,-11.080772587368632,-9.766868906349208
1669973458.994848,1669973459.990449,19.49035406112671,20.485954999923703,2.0,33.37165113066951,0,-3.7538068781573566,0.5858219238137627,-7.888364623527439,-7.307365138675261,-5.571896236308779,-4.071857693904553,-2.7791614067096977,-6.772601987534045,-1.518424089576464,-3.4040174441486193,3.000523070996847,-4.711962595039488,-1.672751628126497,-1.8220642614771814,-2.538017054485009,-2.5296666099279435,-11.6676631869273,-3.975694907462975,-3.6975542281591927,-4.057258700658602,-8.754932640590148,-11.303976451084699,-7.650513113041873,-4.043860362889893,2.83530854922735,-3.542654932973241,-0.4884730841492817,-3.205123404526167,-1.6704184141166696,-3.9951723120675373,-12.163603959890848,-3.0461839330259965,-5.484637594435178,-4.577714412885436,-3.887690687461236,-7.941227061135946,-3.8703846316884523,-3.5230711043740897,3.784396228367104,-3.227917263380524,1.7466948939934237,-0.34650388125014536,-12.391851875511797,-13.601352408705944,-19.368140206642117,-12.358316645587507,-17.476368427956952,-14.57530530189155,-15.474644357575258,-17.936906505624997,-9.777306958535853,-10.866021625037876,-6.517201591492071,-11.161599252552561,-8.266777006962595,-9.918575001081727
1669973459.244724,1669973460.240325,19.740230083465576,20.735831022262573,2.0,47.13257456040251,0,-0.5813617421289773,2.6970112312617447,-7.166763826963603,-1.9083780344717014,-2.504824681305691,-6.738290354904299,-2.809059349777657,-3.1565634572543635,5.183539178349021,-2.5448226668553176,6.8942990118193235,-0.5052280604292633,-4.481675309856943,1.4463110006063622,-2.2596995580192054,-1.7364137059644777,-10.427922857571005,-4.564353860923105,-4.0669659715706805,-2.5182235115826934,-3.3535637911451337,-12.059243930372027,-6.145121246897505,-3.5238274503597693,3.875483142183087,-1.7877809957416602,1.7528527486481145,1.6474338418796202,-4.169336489797435,-2.6906728300281886,-10.551359062026888,-3.226645210944332,-5.160191759679419,-6.416061075343845,-4.7089126635130345,-8.675047767237801,-0.5739820452232501,-3.2222294057265866,1.8825936755013981,-3.7044109006777424,2.5557373398657273,1.4288167063621047,-11.938781423643132,-10.766493914622066,-19.50538507490623,-10.249839184215357,-17.258935683905484,-16.288442402504494,-17.30566298042387,-17.839575361443348,-8.14849848375983,-11.412260613515691,-5.986806083090781,-12.965452353053806,-8.957159793895547,-7.571188384959289
1669973459.4946,1669973460.490201,19.990106105804443,20.98570704460144,2.0,50.834954175607265,0,-3.8758443084138436,2.2736874192306673,-7.328580589563511,-4.998315549249412,-2.3182599979001988,-7.885477472022319,-6.3684823728931095,-2.8411152284775865,6.47727822963488,-3.28942477110504,3.7560769950373114,-2.331165456356939,-4.258329798373538,-2.1421608649883375,0.8592454881507834,-4.401255018766573,-13.128844620784431,-4.22483766311197,-3.540881663641942,-3.004366723101981,-0.8278898104994485,-9.165106027238467,-2.8384447207530323,-2.044329113664504,7.851876086605359,1.742654852904086,1.2504350493740481,0.23604347064809666,-5.2406598315835655,0.1498763199718478,-8.405973253362788,-6.004012818163823,-8.762680395849271,-5.367225863324935,-6.256710574012851,-7.339908468985463,1.7006854689996176,-3.3680642804323337,2.547112657777801,-5.248671766959854,-1.6725928783460149,-1.0052689428017254,-11.127743252939483,-10.164949448968104,-18.48813901101601,-13.272763414745747,-16.095392267369707,-13.334389984799948,-15.872307579759031,-15.535922059272469,-5.621682551939137,-12.589820578407123,-4.840396331801797,-13.691661977924937,-11.008010637800254,-10.020102865774692
1669973459.744477,1669973460.740078,20.239983081817627,21.235584020614624,2.0,53.27417742915034,0,-2.618031411457938,-2.9050721615056037,-9.509565153937023,-9.284308439454131,-2.0048219031767687,-4.110049496352682,-2.156003416498155,-4.474877730446197,-1.573303477102686,-4.795926426060762,3.649179947735508,-4.527366525641967,-3.7569368537857306,-6.670437000017277,-0.5332162600087289,-4.51412773004839,-11.00902662302309,-5.539158653303364,-4.627386359185603,-8.14401455394443,-1.2599282553028068,-7.19168074435088,-3.722988953030307,-4.643371071460375,5.905422021198806,-0.6154113666322404,0.7337337067311439,-0.6980219675762905,-5.2840826801781935,-0.2555882323426772,-10.389685755396432,-5.170464345696246,-4.923470299271957,-6.248523817346436,-7.483170549209285,-7.540893976427706,-0.659927781337496,-1.2820906705181319,2.2652156077319123,-3.259528021165894,-1.6472084713129602,-3.041413727113637,-11.286671848432619,-9.34751260578375,-18.787508614943235,-12.749780241472644,-10.460486463678649,-12.58050090675028,-14.444308540069388,-14.685230705724148,-8.081273477053067,-8.88417722506565,-5.6985926989175,-11.59768402178332,-10.215364474562893,-12.767565534712627
1669973459.994353,1669973460.989954,20.48985910415649,21.48546004295349,2.0,42.37098108666049,0,-1.6421981287920877,-5.741620721699869,-11.635615203776236,-8.016777216728782,-3.482877157509925,-3.8691947693745328,-3.4455645568921094,-5.247608343093786,-4.359065306618434,-2.095650830314359,4.344241470246493,-4.050954410579245,-3.9453285490954477,-3.4486853749968764,-5.626667522917719,-3.1487157385873834,-10.21489735933171,-7.20279390852684,-3.7241989107867646,-8.522109238452368,-5.328151213106671,-7.429286148827996,-4.0533787704044,-2.8568394545157707,1.4185669734028736,-3.274911198085004,-2.1112645102988985,-1.1231734242704903,-6.426994672963237,-1.5500681862753503,-8.206421361855972,-6.355749517810542,-4.770414407555515,-8.071743886616243,-9.3543087491003,-7.613858331010999,-1.6489737246420788,-1.3043345304449332,1.2143785485227205,-3.263453531417442,-2.0787755894831963,-7.396939271384958,-11.962612779751755,-9.037077820983448,-15.867223185821803,-11.807936511253294,-10.31692409098843,-14.434763452685333,-11.619687568392107,-13.770264310421389,-8.422642937347808,-12.677375404069974,-4.84317878297311,-10.062414712935654,-9.241475789088126,-12.64299898635959
1669973460.244229,1669973461.23983,20.73973512649536,21.73533606529236,2.0,12.706811466511892,0,-5.04687210506907,-2.98783979111449,-9.687864701716505,-7.149995747201226,-5.764654551472091,-4.2801146937151096,-5.439423345621369,-4.428104293336736,-2.52060250850562,-1.6639208196158914,0.33566070054367486,-3.5988471467204874,-7.690651038794032,-3.47927721596011,-5.864689850842332,-6.604664646278513,-11.731667285676314,-6.735686846082318,0.070623224817294,-3.4688930405071456,-9.136737896712237,-8.208051205563468,-6.568917641252927,-3.5855563839552596,1.2838527473812944,-3.2952683032482497,-1.8947335242232985,-4.056855179969255,-8.934355249816674,-1.389122816797084,-8.798203852191063,-6.185092092249454,-5.125933551496827,-5.16640068879049,-5.239950962584813,-9.74742939424199,-0.35322716649500097,-1.3392932531235233,1.4041474994607352,-5.374493942716395,-1.0371649941612777,-1.7132009835382702,-14.711410734846037,-9.954906166295622,-17.126916705669494,-12.897959325242232,-12.972622312611069,-15.157309839355538,-11.942175268507484,-16.763917701629893,-7.87894378039061,-11.646165057758154,-6.891457899413799,-12.184616863671106,-10.340386541868344,-10.392335246827251
1669973460.494106,1669973461.489707,20.989612102508545,21.985213041305546,2.0,11.577242710369323,0,-4.2921764278958285,-0.09941510945380183,-9.67689882981979,-8.137215564980982,-4.834918818853243,-2.6403442817283382,-6.368660017080321,-6.528947776475223,-3.769087948575966,-1.7265355470404606,0.444853698859927,-4.306687222945448,-3.2919210480966603,-0.8036715090380376,-10.217028316411131,-5.370943114426626,-15.321583491055408,-9.09347039783076,-1.4846796205712296,-5.173436013063383,-9.253505707690108,-9.532175389251485,-9.09593335424354,-3.531200036599259,-0.9143591428532906,-9.556161317931226,-1.058696242964088,-8.862835015160512,-7.608867813429782,-3.573468158865501,-13.36915521293168,-2.3878942608670126,-5.892364021741635,-4.184051467000593,-4.978654441413318,-9.620535018170564,-0.01864447960389357,-2.522925876083285,2.1353214828690135,-6.585649380556411,-1.5912656950669337,0.5857350722346987,-17.577432316171596,-11.202186506746054,-22.14945726351145,-12.115897795405973,-15.279871009492378,-14.522788787062382,-13.307970592474604,-17.393429047839145,-6.737928910896591,-9.126880847919379,-8.181898011326282,-14.521783167794343,-9.849075546366247,-8.261905588365982
1669973460.743982,1669973461.739583,21.23948812484741,22.23508906364441,2.0,8.143474554471833,0,-5.20335320183224,-1.3977804118739234,-11.735650587677055,-9.968517575457907,-5.211259467233928,-3.747388236383293,-5.443666987004549,-9.800343198808442,-4.611178953014727,-5.123262072479594,0.17657947066951798,-6.325138454629586,-0.5026203966510452,0.30476714958852347,-5.415269530784848,-2.976793346680907,-15.711916887202243,-10.442450865523831,-4.541604881475412,-10.081118808869032,-10.479648848345418,-7.795015218397432,-9.148330139144656,-4.457662382794879,1.999930308272796,-5.753725576282652,-4.157362748258455,-7.956273344319889,-7.926575411117036,-3.938244542274394,-14.459906996730684,-2.975054972171653,-5.965751506653482,-4.50488418993537,-6.728064533178035,-9.266131538978877,-0.6943121659896646,-1.6958554425048125,-0.5384757357564013,-8.083502095308162,-4.786718881850528,-1.94221574597814,-15.050549448556627,-10.704259480896477,-18.53520257623466,-14.952964274325005,-13.712451998694732,-13.215811980665226,-12.891134014214527,-18.38523056685545,-7.903918674778322,-7.949828596736161,-6.426019462043071,-12.06776382495286,-11.519099318735353,-9.67980162488439
1669973460.993858,1669973461.989459,21.48936414718628,22.48496508598328,2.0,8.50265153549987,0,-2.5343599162587536,-1.518465088226468,-10.919402514781549,-6.975647720461438,-3.0684652698212815,-10.924099552304693,-5.110859854443916,-11.685271458100228,-2.917222659048879,-6.109866684423492,2.7960157976420015,-5.609020784803382,-2.4160306169372996,-0.8390061995534205,-3.0772124153519904,-5.560840654978049,-13.740568952777537,-10.51560440351282,-3.6277457505074424,-9.041027974772168,-7.712345126626578,-5.350129997892442,-7.536475856843726,-5.0616993880189,3.7450844879595913,-3.513676803334648,-5.561402526045548,-4.511676020985733,-6.080513399051396,-1.8869080774276732,-13.32306942814898,-5.990558056256628,-4.94829650431202,-3.5175787829162006,-8.21725145687849,-5.355899124302507,1.0408993210092325,-2.089049355805238,-1.5892002559302456,-5.313286726207897,-5.40921323957587,-4.810583841681338,-12.187680690075497,-10.327366990976206,-18.63221033191532,-16.236507954404257,-11.351204940443505,-11.12177339498928,-13.945154118120243,-13.710218472256132,-8.005996138961814,-10.258650735747228,-5.2169996403045795,-11.010096346319944,-14.69630316300944,-12.809356537269586
1669973461.243735,1669973462.239336,21.739241123199463,22.73484206199646,2.0,9.241383407550822,0,-0.8521798215658971,-2.304874627299726,-8.374767662685944,-4.976154643001655,-3.79270761324332,-8.680595613998253,-4.70625448394303,-11.642868398618091,-6.877024611052327,-1.680533353076161,4.427750666250937,-4.363877397520005,-4.114863090250665,-0.2691766867619158,-2.4110156044408866,-4.0862650549676225,-12.605750085249873,-8.973766969779424,-4.058760355080676,-4.9024376348202745,-6.423536732989838,-6.658939921052208,-9.284696838113263,-3.2474698514647016,4.210327330733702,-4.544710366156089,-5.478171241811247,-0.8238298553435912,-4.88342640445548,-1.3674199379953242,-11.32103273534673,-7.1360207267260485,-5.854933352233188,-6.090336717337138,-5.9566037569048955,-6.188535637192355,-1.1893467446668384,-1.863233087805648,1.5298680566493241,-3.958567395354474,-2.838298615904129,-4.179718037326267,-13.06401918773076,-11.157687173901847,-21.346580841677373,-16.290846358945213,-13.781602475120351,-14.219909769975667,-14.055119775328945,-14.880719090291661,-11.1812924531309,-11.795666662269532,-5.947240414842634,-12.461177584699252,-12.115261205597431,-16.312874977169702
1669973461.493611,1669973462.489212,21.98911714553833,22.984718084335327,2.0,23.20054870187451,0,-4.052171116809803,-1.9184933398017305,-6.119421551041164,-5.190518287875294,-3.2736944955032614,-5.2168962413469515,-3.6796211019165708,-8.802925862743095,-7.1115810875990615,-1.0802257045600512,2.594238299044515,-2.68210650238694,-0.4206932754176502,-1.8969967349880477,-4.00090753496216,-4.218267705331169,-10.123623995646685,-8.70795972521918,-1.8564996096715607,-6.901315641867836,-4.657642054869326,-9.55389189324286,-5.188953611756989,-5.102379992346014,3.2954550786208947,-4.621719432600944,-3.2167942664483933,-3.0498109664106687,-5.156979948806066,-3.9354272767333915,-10.165083734959248,-8.820852148896755,-3.5209823818892314,-5.306799039627172,-7.21926158251875,-8.398069138697332,-4.813159734120214,-0.7797444696978272,1.9999717583868777,-3.1086817665264563,-0.6479383422609354,-5.684452403867615,-12.143273557974979,-15.265012531317739,-18.526848590294527,-15.80505265260455,-12.599709235816965,-17.140342655087476,-14.698184183210257,-17.24701886292784,-11.481901478194063,-10.40854418505679,-5.210273458710887,-11.728437855293187,-10.392824689685586,-13.739924205155702
1669973461.743487,1669973462.739088,22.238992929458615,23.234594106674194,2.0,31.610160726658766,0,-2.8879619429191594,2.7425900563790258,-10.633292661469188,-1.5719120252861454,-3.8269312808093248,-3.0997010103431877,-2.3970608235976005,-7.333961601409875,-6.10073731284235,-3.0777499051718955,3.117275713324432,-3.7180239895611136,-0.09162915592418458,2.7679056835917875,-3.785511573712218,-0.09242235869905549,-6.720043605080679,-4.440822911495047,-2.2510567061103175,-8.13077232916512,-3.3457409186541893,-12.725254817845745,-3.9624467080935863,-5.137966227367877,3.713405287791506,-1.3643147924025578,-1.2547037731980408,1.5598227967143736,-5.755896297017325,0.3763530397177579,-8.733839453330653,-5.121184261291207,0.02603834770404746,-5.194219987473854,-9.446513935417222,-7.644027572245019,-3.7326494410352486,-1.242753953030971,0.5348635535636729,-4.177853834960275,-3.7193629835175845,-1.9835636689360219,-11.455075300909254,-10.04309257892283,-16.96544731708858,-13.4556848727554,-10.009676425470385,-17.272765535838147,-15.421493387138225,-19.317540995012298,-12.03604567470891,-11.708215760427949,-5.171732118563045,-12.451064653706577,-11.123796504040225,-9.548471145116345
1669973461.993364,1669973462.988965,22.48887014389038,23.484471082687374,2.0,37.96930797667585,0,-1.7106246786621515,5.252439194725193,-13.278765112581706,0.8760061701193628,-2.0552102761675495,-3.161097869224056,-4.7569194168564,-8.54637134543184,-5.146789546536215,-3.99973223095127,4.198873838083649,-3.5829237589849083,-1.7645372810116677,4.762072258853982,-6.9256397156538885,3.563515861208372,-7.994537015040249,-0.7510168985166742,-6.840926742476345,-6.252722493178934,-10.015010506072997,-11.762063237877749,-6.256282281457186,-4.8102879433896515,0.44200733303765277,-2.990489289134402,-3.620402313515359,2.4867675013166126,-4.572150888633528,2.6817304540050695,-10.340271821507962,-3.2155252660563933,-1.1335025038732245,-3.8084349659647114,-9.069166965364563,-8.86215540077237,-2.849312650934792,-1.05856935876789,1.1486026327322656,-6.231158814814384,-4.747676653954578,0.4863164400190067,-11.887547459353236,-6.273547583711748,-17.770694890572457,-12.371373591738909,-9.671834856181837,-15.86646963653519,-14.608055863051696,-18.98070099533112,-14.580619517037965,-11.755454625974552,-5.207888756314663,-11.59864761834952,-12.974769515253435,-6.934330023854408
1669973462.24324,1669973463.238841,22.738746166229248,23.734347105026245,2.0,38.280184181095265,0,-3.715107862188318,-2.024064204149885,-8.785020829103601,-6.199985290893323,-3.20040265724507,-3.180258589101457,-5.736862205148718,-7.996330184070624,-4.831329638075681,-5.6856385250756345,4.123809033821335,-3.7558476390538926,-0.8334310264518113,-2.034566373047519,-4.548687048324075,-1.869926135732416,-9.508767025203031,-6.123143867832953,-5.85291959114369,-4.45103619682389,-9.96088977435783,-8.666025598590506,-4.655157805106627,-6.16828798600339,0.3968567339518314,-5.485618825864743,-2.4764998751349285,-4.159688593227896,-5.675892894601886,-0.5909094830073844,-10.575640372865973,-4.94818995062835,-3.9306128543299037,-1.4594847803969415,-8.76165668591737,-10.972187202642358,-2.8729238663504812,-1.2921143869072877,-0.4708625904806946,-3.6068992469536685,-4.656308923009346,-3.3525663340524536,-13.376345164749537,-7.752494617518291,-20.193293756167627,-13.426579760476677,-9.843525282086532,-13.288393111224035,-14.432315457069658,-15.855966845847293,-15.024578560358545,-13.091187612015297,-6.4737941477583005,-10.254714844249444,-14.245600449786433,-9.525382820668888
1669973462.493116,1669973463.488717,22.988621950149536,23.984223127365112,2.0,30.0488622899433,0,-4.826072495394032,-1.6178517412278297,-4.896940264463616,-9.484433653317113,-3.3639211068781947,-5.894282010073124,-7.415884785314921,-7.2922719712540385,-4.908522622477518,-3.6178297601605767,4.544101050233839,-2.1395222455755887,-3.9018857036112276,-3.1373457920592474,-6.690747720410668,-6.186899241463429,-8.878344279481354,-4.952206318127258,-4.60514374606544,-6.622891106052475,-7.785146763155561,-7.874826210369167,-4.392289320052999,-5.392584893854815,-0.752320970851248,-6.541781670649257,-5.278267566343267,-3.957719920456093,-3.356763487303409,-0.9555444729311053,-9.9656464123057,-5.030892797790246,-4.128400576751686,-4.126417700992541,-6.29079756873833,-8.415675876279785,-1.348020446201278,-2.565344025148222,2.654539419821928,-5.78361756489528,-0.846357622762276,-6.582821980922072,-11.020716272378856,-7.494171415459966,-18.12322766778314,-11.776604978673175,-11.971254670599816,-12.299741550624736,-12.266195017089935,-15.924859716527035,-11.538113709902655,-10.69966091488785,-3.9102700193175983,-12.168757021178962,-13.17211381315715,-12.126859113908495
1669973462.742993,1669973463.738594,23.2384991645813,24.234100103378296,2.0,25.34840105616892,0,-4.582770634848781,-0.9363141944523059,-9.118081300008802,-7.5914958341139105,-3.785668984173215,-6.127847608375956,-8.962020036301938,-11.075277120775883,-2.8253567586570427,-1.571856226221752,2.725620569155835,-4.704700055287079,-6.6497786198719,-1.5134669409002006,-1.8820651510712858,-5.377006381223014,-9.356794870993406,-4.445141790138382,-4.830833863083038,-5.086232682694725,-4.749330994697477,-6.037964614411807,-7.221373962275227,-6.391537217342115,1.8464854185380952,-6.302214445727218,-4.998331838051879,-4.896913765112934,-1.8931844477191837,-1.4634573757286717,-9.362992395333148,-4.627690987095685,-3.336713252448983,-4.506307481976057,-3.855107598294804,-6.820632372217123,0.18927850634877852,-3.112291130416072,4.425716516530274,-5.413965457446176,-0.947826088876153,-3.675561369843291,-11.136663893601233,-7.9244581564741035,-16.448669267769166,-13.288031894577214,-13.585669466534018,-12.551706907941567,-10.343470551454093,-16.345999583302984,-12.191235511792602,-10.592363651200067,-3.8183481566030713,-12.404935332477088,-11.69895454020292,-10.899599585273336
1669973462.992869,1669973463.98847,23.488374948501587,24.483976125717163,2.0,12.40043737129397,0,-4.58156039988963,-1.2401669933513562,-10.135241132308753,-5.429665468749497,-4.3070977697916515,-6.952143438857189,-11.658837076985753,-10.976070595027378,-3.4771210949077744,-3.034620226859464,1.5527244056537954,-4.679969072567056,-7.015787914291799,-3.788174014935546,-1.5385354560300866,-5.65753756387652,-11.953687628242076,-9.265245031749206,-6.439534319411985,-1.8962051940946532,-3.1727167540789107,-9.302230941456873,-4.48559359665963,-5.00815595152077,3.9181211063394894,-3.6801169966345415,-3.1179320761981644,-4.3676422252985825,-4.855546842600621,-1.021379483698476,-9.460094159360722,-4.201836117705048,-4.2620464334760255,-7.521091358499973,-4.953069987429891,-7.567352036720654,-3.233235547792781,-3.1783277686988205,0.07855013915637007,-5.116729350890878,-1.9923225641108144,-2.220877498637914,-14.272451204853462,-8.621043194535144,-14.930257112486116,-14.443433745339174,-14.204972650236758,-17.15854962531818,-11.976004569292787,-14.897720283875948,-13.317159703559682,-11.773230259173118,-5.876915006990928,-11.146732459135308,-9.03249022583308,-8.50937890765928
1669973463.242745,1669973464.238346,23.73825097084045,24.73385214805603,2.0,10.176880230084567,0,-8.549902418202084,-6.531238950896993,-3.401972784807868,-6.682185988975361,-5.9565549381242295,-8.41813905260034,-11.685132946760401,-7.6421589690008105,-6.350920475986253,-8.226574132858687,-3.787347596079992,-6.796279701797543,-6.2502676863444595,-7.321212092571012,-0.8285151046966427,-3.595202944791993,-4.931287730437638,-12.855872196316325,-3.6921133608763212,-2.7362262588816764,-3.8336422209970236,-9.74719193184361,-3.401145501397523,-4.851080380787045,7.375659856389674,-1.685706459945289,-5.111818528868168,-2.2498051944784327,-5.4422946771899126,-3.184658495269069,-7.819400095107039,-4.8124590192220555,-2.989366540229347,-6.67003841080726,-2.92015053268364,-9.745068399967042,-6.42855944805582,-7.386435499267455,0.9570377933253951,-3.4917436093495837,-2.624768503745996,-3.844035816483171,-13.120378089245756,-14.961720211662154,-15.648067871137672,-13.990700997706123,-12.63527401583691,-15.183834949055225,-10.88854020202991,-17.463134690473314,-12.517215902635769,-14.843002205802707,-5.862666396205816,-11.282256750052849,-10.775263710187255,-11.557227546385217
1669973463.492622,1669973464.488222,23.98812794685364,24.98372793197632,2.0,10.564326440326175,0,-5.002029787832205,-5.452637620998049,1.2257226416709803,-9.025305936018523,-7.77943818439277,-5.623669856666761,-7.497888487731599,-7.210381070001997,-9.055822932000954,-5.314841372384912,1.0541607955972363,-4.748611655993592,-5.844152778328975,-4.182161088912547,-0.5841284917158788,-1.4341843582672562,-0.7165503891726172,-10.090555847504783,-5.497736658626672,-5.7617865629831755,-3.2249251281415328,-9.3089217880239,-7.0979875952580045,-6.86515561543421,6.561361136751569,-2.9351843345491524,-2.6331798210885267,-2.688071862465952,-4.239199811673867,-2.5094916532576104,-4.085301669160216,-6.138830710933173,-2.5112469031132045,-4.932075954933496,-2.741682359791885,-5.597443362004917,-2.2193016667490557,-6.573603556204677,2.3113707229221165,-4.263776564517628,-1.3606967482995964,-4.090083652339803,-15.692392247952444,-13.613667362137496,-16.824044545051656,-13.748773052391902,-12.465898691633498,-14.416923413869347,-9.83105396777894,-18.20893645687923,-12.693995543666263,-14.802345063038672,-6.455710755587351,-12.109934243552221,-10.520466060694332,-13.413883004587264
1669973463.742498,1669973464.738099,24.238003969192505,25.23360514640808,2.0,10.370812333022037,0,-3.5132028153664163,-5.813308581067456,-4.116897812768649,-8.665490110203846,-3.6251679285068548,-3.4601236470946906,-5.609563762066316,-8.180812692040027,-5.122636498643791,-3.3447774111767274,2.2923704735553905,-3.1733669619542457,-6.345620003884084,-2.0519318693913458,0.6950253995034088,-3.7640588075029413,-7.267122208949967,-11.138714700852045,-4.686417594161341,-1.1489157265320453,-1.2404055155630134,-8.217447423175777,-6.887250517743707,-4.234121927284925,7.453023028396144,-1.4293000168442396,0.1206363031567114,-2.6033311680163425,-5.1280442467449285,-1.785055078087868,-6.4046032301987665,-7.751133781167981,-4.265809651929072,-8.818512073686161,-4.115219714628266,-4.676060459527821,-1.1301363404883356,-2.8279554333983543,3.4631149649879696,-4.092644620371625,-3.040955445853599,-4.0471816628324895,-15.83705023284131,-11.88240359569399,-16.65672204420361,-15.199505017709656,-11.858758743702182,-18.713347472083562,-10.49660146476755,-18.77184679299227,-12.344748958492266,-11.797950983718504,-5.22552541487363,-11.991485236346486,-12.276122254646154,-12.603028446609649
1669973463.992374,1669973464.987975,24.48787999153137,25.48348093032837,2.0,10.08937396841698,0,-8.243178815769843,-2.767959863640712,-6.777837640722026,-6.126069504355733,-3.054362364107457,-2.9460018566108785,-3.5839285387295576,-6.1459993690811725,-4.545718175667169,-3.2476566669327136,-3.762965791221975,-5.513341074775727,-9.791084051389221,-2.354968336190237,-1.5823409969535565,-5.131661904551428,-10.55157692401022,-11.549327560824104,-2.083298066476903,-2.4083251874572316,-4.463549891917953,-7.841833951092852,-5.961242910766912,-3.2874062766250587,5.541083288462691,-1.8216507984984505,1.173507402202152,-3.2514370844291456,-4.111009477320239,-4.551488492355828,-8.97242306740104,-10.214969629280246,-5.27965966685255,-5.99884979853959,-5.852668298274565,-6.2248209812312485,-1.6284519778723017,-0.8268387801546206,4.8863517733016355,-1.6461848879220553,-3.6393158263343786,-2.057733479974079,-13.919783403852076,-13.258943376485469,-16.750627231608377,-18.258739355964778,-14.490557294324208,-15.85869542690987,-14.069289559018776,-18.54543613453415,-11.56234560367649,-9.278950651640073,-5.8554189500608,-11.71675207630683,-11.753811718241,-12.511849156748877
1669973464.242251,1669973465.237852,24.73775696754456,25.73335814476013,2.0,24.134862686291566,0,-13.045882772022388,-2.6153315799041876,-8.386812221354628,-5.874805800460548,-4.933760720529522,-6.140367065567725,-4.413720720420553,-7.934999333193735,-3.497065696086011,-5.517727387055665,-5.678954039294989,-9.414999386519046,-9.411712862294243,-3.0730768188334094,-3.3907344267508597,-5.8306287640468115,-9.105519207098677,-10.089660195060242,-3.0234500974345133,-5.2175922033960465,-7.982242664657054,-13.620145461855252,-6.1992833582931794,-7.285916926432683,4.59809988766109,-3.322587260546177,-0.8160390708282311,-3.7599957505516404,-0.5316763713361807,-5.682234497204189,-12.84678463319003,-10.646950950587456,-5.046283801096216,-3.8850480724657075,-7.1505516868885355,-8.063613863178729,-3.081196604290965,-1.7806683819409883,6.411483272796018,-2.6787749091102837,-3.6577450591246907,-2.8959875524450505,-11.785096994587894,-15.816078507304761,-20.056483841473842,-17.013646751242405,-16.87973581548922,-12.57951319923131,-15.683058923662028,-17.76415711922239,-10.514453677710215,-8.234726358371287,-3.9545889885933265,-12.987717676326804,-11.819764030432511,-10.709404746257238
