stamp_i__desc,stamp_f__desc,latency_i__desc,latency_f__desc,minimum_cq__desc,maximum_rms__desc,data_fixed__desc,eeg.af3_8_12Hz__feat,eeg.f7_8_12Hz__feat,eeg.f3_8_12Hz__feat,eeg.fc5_8_12Hz__feat,eeg.t7_8_12Hz__feat,eeg.p7_8_12Hz__feat,eeg.o1_8_12Hz__feat,eeg.o2_8_12Hz__feat,eeg.p8_8_12Hz__feat,eeg.t8_8_12Hz__feat,eeg.fc6_8_12Hz__feat,eeg.f4_8_12Hz__feat,eeg.f8_8_12Hz__feat,eeg.af4_8_12Hz__feat,eeg.af3_12_15Hz__feat,eeg.f7_12_15Hz__feat,eeg.f3_12_15Hz__feat,eeg.fc5_12_15Hz__feat,eeg.t7_12_15Hz__feat,eeg.p7_12_15Hz__feat,eeg.o1_12_15Hz__feat,eeg.o2_12_15Hz__feat,eeg.p8_12_15Hz__feat,eeg.t8_12_15Hz__feat,eeg.fc6_12_15Hz__feat,eeg.f4_12_15Hz__feat,eeg.f8_12_15Hz__feat,eeg.af4_12_15Hz__feat,eeg.af3_15_20Hz__feat,eeg.f7_15_20Hz__feat,eeg.f3_15_20Hz__feat,eeg.fc5_15_20Hz__feat,eeg.t7_15_20Hz__feat,eeg.p7_15_20Hz__feat,eeg.o1_15_20Hz__feat,eeg.o2_15_20Hz__feat,eeg.p8_15_20Hz__feat,eeg.t8_15_20Hz__feat,eeg.fc6_15_20Hz__feat,eeg.f4_15_20Hz__feat,eeg.f8_15_20Hz__feat,eeg.af4_15_20Hz__feat,eeg.af3_18_40Hz__feat,eeg.f7_18_40Hz__feat,eeg.f3_18_40Hz__feat,eeg.fc5_18_40Hz__feat,eeg.t7_18_40Hz__feat,eeg.p7_18_40Hz__feat,eeg.o1_18_40Hz__feat,eeg.o2_18_40Hz__feat,eeg.p8_18_40Hz__feat,eeg.t8_18_40Hz__feat,eeg.fc6_18_40Hz__feat,eeg.f4_18_40Hz__feat,eeg.f8_18_40Hz__feat,eeg.af4_18_40Hz__feat
1669981691.95404,1669981692.94964,0.0,0.9955999851226808,4.0,61.32310436076824,0,-8.467847526854504,2.0143505987918053,-8.701046605146969,-0.5327282304238777,-1.811355066864348,-2.875316297425436,-4.754495009752628,-4.815863472302864,-2.2925902690414732,3.7988450693033835,2.7237967590253156,-7.17356669655673,10.483259441600536,-7.716306032619958,-13.641741480096385,0.46676191819220514,-5.330221376061425,-5.440675161024585,-5.028363729505711,-6.72823728814952,-4.2196702521251215,-8.503666733201054,-6.113708560319788,3.1246779063788157,0.6456762538824952,-7.792923645194878,6.237370840722508,-7.97066851812782,-9.461756385596429,0.9933212682974175,-9.692061187219366,1.1919432527682403,-5.434926905361447,-3.359548809719502,-5.941482827165831,-15.570052672221706,-6.787487326837445,-2.479505847928935,2.736695049935516,-7.19014280461193,3.641176719291774,-10.652719457517792,-19.24562899689268,-10.133299578984944,-19.867669808491694,-9.922836656130809,-15.152480217969304,-14.48270926159003,-16.9756584679596,-19.130723472644746,-15.98446465488302,-10.62721408092491,-4.3775491653994845,-19.89479494080036,-4.392894607520988,-17.954814130601708
1669981692.203916,1669981693.199516,0.2498760223388672,1.245476007461548,4.0,56.2927770886721,0,-4.4503630659310724,0.7546215894770316,-9.937726792611931,-1.1760424123865283,-5.943804285660391,-5.1437736399474145,-6.504298520612006,-6.931077396143623,-3.9345120862112433,0.18436345377621277,2.4158699410611724,-7.9480955745788675,7.98645168219071,-5.749553520271956,-11.909545212708778,2.2838317396705508,-9.708717803786868,-5.2478457445965745,-7.691534051538413,-5.2246588387096455,-3.383453516431106,-6.877253382393792,-5.451548373137842,-1.5860565370540558,2.218188046012779,-11.21546188219118,7.015103736478333,-7.473289029115147,-7.319972566845099,0.03220998779382764,-10.220698377503073,-3.0659548110942425,-4.0105069096426105,-7.190575522510732,-7.693239756191781,-11.33238023084915,-6.981940648947599,-1.3222676503238542,2.671124690484051,-5.502585833319729,4.000326988558366,-12.881112347608576,-16.509210040248682,-10.177397578427618,-20.491344031049845,-12.275647847257783,-14.485212799500227,-14.2304094115891,-17.67663057435662,-17.48862155548821,-14.799871638916036,-10.493602107922037,-6.8067440819512095,-15.188925045439392,-2.632535562685987,-18.080289143627542
1669981692.453792,1669981693.449392,0.4997520446777344,1.495352029800415,4.0,73.67105689639754,0,-8.096138438390954,0.8880965426436327,-10.343211490690054,-2.3180257012237515,-9.753838478062812,-6.083580090256584,-4.5936813830377785,-7.425608988423953,-4.862987440632996,3.567126847397608,-1.8806494780999699,-8.258312848017631,5.593903626768123,-5.997034665130112,-9.771858431581876,1.977919273362003,-12.740699193882964,-6.130176437016107,-7.103486747825157,-4.510773953297224,-1.5560435160930326,-6.24677877345205,-6.02669898313602,-2.255490106907303,-2.5749431012522277,-13.182326203754577,3.029988984055052,-7.955326344193406,-5.9850543840480555,-3.7881024315393637,-7.909775646476783,-5.019114326005152,-4.2991845992265425,-5.608880591863316,-6.52292568111561,-8.534374890204884,-10.609518733719662,1.7669558926866036,1.434902489456239,-5.939129348935675,1.6728456594499719,-10.435145596805226,-14.010434945771657,-11.763108563709137,-16.23757149282931,-11.548427286408295,-16.116441512452255,-12.762579711699676,-14.706748227245512,-15.197663735178788,-16.392427708807325,-8.882875990226468,-8.769501387926983,-12.558485900646783,-5.93941160165466,-17.303249565205334
1669981692.703668,1669981693.699269,0.7496280670166016,1.7452290058135986,4.0,75.53447521343126,0,-7.8339061834534185,-1.0017136789768295,-11.288710791257209,2.148466270378861,-9.11892307003473,-6.74732675349351,-5.4403866280058475,-3.7182579023097024,-2.6012382210830687,7.951188122914266,-3.246451702722564,-6.122560088273356,5.132913752973243,-10.559691544729667,-7.723674747573823,3.285895921069446,-12.997497282780245,-5.914051882957992,-5.899835210573274,-5.627460381438231,-3.9890120634150685,-3.658897574722208,-4.412143603089182,-1.8131028647099112,-2.426314889935159,-9.075048557469191,0.9724845892982891,-5.47737098336545,-7.132612107628505,-2.7191496592187914,-7.873690676479361,-1.913381489167213,-6.990372526152448,-2.13513654212458,-4.672630196821542,-5.910789351804877,-6.4551381628812265,1.3053236724654613,-0.9767327233803479,-6.599724796101239,3.8381121763467814,-7.612073066816518,-13.865001931377723,-10.734256709915051,-16.185203539986013,-9.157292306957956,-13.563375587407867,-11.41391718384968,-13.62014632495541,-15.091627282430728,-15.957379344462328,-10.569341298215598,-8.864003785168507,-12.43546800376097,-6.218746507878458,-14.701051316875862
1669981692.953545,1669981693.949145,0.9995050430297852,1.9951050281524656,4.0,94.36563208026708,0,-6.841713414547945,0.45036064253448,-10.561420731069248,1.1546376601984145,-7.7024446491939,-4.5132533025774695,-2.88150078728791,-6.147825652870469,-6.475199800563348,4.946630995911324,-1.4173673101809114,-6.44073226399355,3.0340903708136704,-8.587042744528414,-7.850533410831082,5.8294286711018,-9.422121173061107,-6.700502582276087,-7.164232729130409,-7.677266132097881,-4.392542925342813,-5.72592888385585,-3.46656779222777,-1.4381861088079884,-2.333541824959692,-4.848493965192718,4.080118636484668,-3.9280055107718077,-6.242503531640262,0.2760898151188732,-9.322208863292683,-3.2660981581791146,-4.876251356208609,0.7763276183826889,-4.883710672885097,-5.954304130581278,-5.343357959129733,3.2018021402130503,0.3815968839730016,-7.089934678063502,3.7158759815086584,-7.204979298157711,-16.564662643904786,-8.720911942031126,-19.643713082118218,-12.31781137395787,-12.521935405761424,-9.968440876615139,-13.179871673323376,-16.614437710108234,-14.851495901079893,-11.595721904047638,-7.9840793186293055,-12.662622965585399,-4.46668441703685,-15.878713526839277
1669981693.203421,1669981694.199021,1.2493810653686523,2.244981050491333,4.0,102.97077018517395,0,-8.259110403009041,-2.7460859575060614,-8.481524314339733,-4.913669213270487,-4.651124132105167,-1.9514732860203603,-3.125020495172124,-6.952814239474355,-4.969877839418774,2.962604652463792,0.2840963104004179,-6.0172272197303265,5.976826520030668,-5.626925997351395,-9.214188242843477,3.3492559913497475,-7.8628488582521445,-12.089298549661056,-5.700775900005784,-4.828373737320804,-4.6659955076864055,-5.597379739387083,-4.697925500448637,2.709686855786929,3.2238045142454763,-6.8711812866159985,0.23556544470282775,-7.425510244704835,-2.8014871434692195,2.658439952889241,-7.586389583660884,-0.8836341862527842,-4.590835647715036,-1.7513971274516058,-4.781427099650893,-5.084668993727773,-4.237071849676512,2.426908267156283,2.1735313912451746,-6.890790686697321,2.903219020919518,-11.110839607548503,-13.509163671974374,-7.9620093254079745,-16.576119255338494,-9.880113690797176,-15.833064959986494,-10.230132535986948,-11.980460188028852,-13.476066051777185,-15.007007667047304,-8.037021803429404,-5.429996793788482,-12.671496104607531,-3.6640238896600543,-16.692409598967494
1669981693.453297,1669981694.448897,1.4992568492889404,2.494856834411621,4.0,94.86426315950452,0,-6.937998587145385,2.153609697008409,-9.468448771016146,-3.582849272831404,-1.4698005621702934,-1.8710280059029776,-2.4996633360596703,-7.6151923416465594,-5.252210229729358,2.58989067709573,2.3078915078581415,-4.852829072064044,10.174261868626202,-9.22192842880902,-8.984664218668396,-1.394429213723354,-8.357087663023037,-9.094928547424509,-5.1497043699175595,-2.22196579704862,-4.6229704533991125,-7.737672042016364,-8.205017470635413,0.35305605426597786,4.1676937050728124,-7.451468193473779,6.65543212102113,-9.38085510035759,-2.829180433496073,0.6121472154576801,-9.58839210624785,-2.5996963648947364,-4.353268555854401,-2.555633303973944,-3.0954596815865387,-3.008742448936827,-2.8100564133643653,1.5913286549969687,1.5266857197362667,-5.8340826654277675,5.844801838588332,-8.584087044612147,-11.848523609387136,-8.017726378675924,-18.628065376779567,-11.224236514398223,-15.699331596108179,-14.67249272498596,-14.62068623433095,-11.29611312016561,-12.636729559591826,-8.42775894432931,-4.848135007537176,-13.611763385692361,-5.198130403247755,-19.355282906738267
1669981693.703173,1669981694.698773,1.7491328716278076,2.7447328567504883,4.0,88.22082594539407,0,-6.439211655541812,0.5253156781431075,-11.165754657221893,-2.9431180527683147,-3.434476075868747,-6.078948838488012,-6.386401654069031,-8.66828436228641,-5.742125491898192,5.9408238378338485,-1.6769566172583312,-6.269469269019593,7.641031954968902,-11.20657188047603,-8.770985003419495,0.6255684594885011,-8.975301117273029,-7.160616066634256,-5.676903632341938,-4.060156901016814,-5.274711917128359,-7.359093368029045,-6.648516329095278,-0.02377219457991852,-2.1590966437006975,-8.811652702624299,8.073013763846149,-7.157925530340112,-5.240469446546742,-0.4477155356110702,-11.031748166478772,-6.382142899889324,-5.406081588709587,-5.663884214078433,-5.061583246696324,-2.412225991491685,-4.546161494609149,-1.039372044437247,-1.3051630409576653,-6.0212165847524455,6.176342123752062,-7.1164042783011885,-12.448276535974184,-10.049346603376224,-19.91476552759173,-13.529106235035025,-15.135736470857097,-19.2490968548277,-15.02081562250282,-12.310181876421202,-14.333567818298786,-13.271697206057462,-7.862243945071561,-14.588565677249058,-5.8106060562989,-19.211871827248796
1669981693.953049,1669981694.94865,1.9990088939666748,2.994609832763672,4.0,81.17777073923305,0,-6.619781919859735,0.7610204482642242,-7.664306998864253,-0.24881048043396273,-1.6023001486967436,-7.1193661247138715,-7.0017209705750165,-5.606432118769264,-3.2541517812939444,5.648624952612834,-5.095730542747004,-10.505605178272335,5.44070010967249,-8.491153156665556,-5.168594806390459,-1.197507752002565,-9.469721201894751,-7.566019031142691,-9.191560803496689,-8.177142541157586,-5.3623690331000295,-10.588670810810399,-11.462321039690266,2.8194834415064878,-3.4325547684287354,-8.455530567294199,8.807437322543116,-7.776755230467749,-5.864574671628256,-4.012546105176435,-10.487974170612837,-7.61794698199491,-6.261412333408037,-8.750842749962368,-6.84729956851755,-8.804909808274365,-4.887648176736462,-1.265444039326051,-1.2712501557353517,-8.508197882077681,3.635695297160235,-5.466606939164615,-14.52596248160794,-15.40240778320384,-19.388506469636138,-14.36300307866964,-14.184166907911235,-18.6514703638279,-14.062578065245395,-17.808749771944136,-14.084803140771003,-11.945484980957312,-8.676581473552353,-15.921996671450032,-6.078239350794602,-16.149496791872412
1669981694.202925,1669981695.198526,2.248884916305542,3.244485855102539,4.0,85.70677960247758,0,-5.991374881656406,2.3116028280142102,-5.370318329617097,-1.918086551511664,-2.237604631615569,-4.311499695334547,-3.058370584498222,-6.3891389360748665,-3.4806476563379807,2.559103076837837,-1.9171063647577098,-3.3184707427478397,5.944368930678695,-8.402034280684575,-4.410038588955181,-1.1336702819148268,-7.9865310613798615,-9.182978499295967,-8.030763006332382,-4.384392077533731,-4.693345436132093,-5.160831218242209,-7.226467003487277,5.951176994240203,-0.4668517251009605,-6.809464646331124,5.966316303514906,-8.236680242617998,-6.9598042032073,-2.388793297816934,-8.429582040935571,-3.993503324749193,-4.707955390283882,-8.9331191323488,-7.659082856784474,-8.64920875700886,-6.94967839267525,-0.2316148253449108,-0.7782371812849838,-4.105824355466349,3.9706157151165944,-3.5305002567090185,-17.535584408883402,-12.467542060778431,-16.4602614290914,-10.822207661783835,-13.12113637487138,-14.690033465437422,-14.492983879615224,-15.800300362755733,-15.47308868839721,-8.555477983522247,-10.577975515157146,-13.092105354711235,-4.230660355221911,-15.613332761325045
1669981694.452801,1669981695.448402,2.498760938644409,3.4943618774414062,4.0,88.12085011972198,0,-6.560786778502045,5.3375863831332,-6.058297725940647,-6.231477839974678,-4.797933685980523,-5.652465712454666,-3.793736865123583,-8.522162459023319,-3.9188976147367844,3.0738282712462124,-1.168762710463539,-3.197905002392063,7.147393666301496,-7.47702501377176,-5.929211658039357,-5.6016074435179375,-9.19118711474799,-4.602505365684854,-6.103267455054961,-3.135938843089012,-6.3428672384402915,-4.926764372997474,-6.566302334422555,2.977540960267344,0.5895924264115511,-4.132110266643113,3.5155244269640047,-5.404444639801992,-7.608653130249808,1.6449710110007882,-8.231131746815567,-2.2189329108127254,-5.475848745725066,-7.440159441037428,-6.780121981101088,-6.719820241349889,-5.270428423828731,-0.18369281239962346,2.0855776202532468,-4.724592135287388,3.7496006183128654,-4.2382022856836175,-13.589509712983002,-6.086726219356848,-15.155978891093685,-10.128685833795119,-16.56221603461546,-13.68707882896988,-14.083165012693337,-14.441659642303213,-17.632522885726264,-9.02868725852835,-8.416486245576912,-12.70442292667176,-4.79452711817613,-18.695353672395132
1669981694.702678,1669981695.698278,2.7486379146575928,3.7442378997802734,4.0,64.81197780987085,0,-6.966860276703379,1.9667408967707434,-9.963526590725003,-5.196061825160361,-6.1709870187912585,-4.620120395556876,-4.142169897871687,-9.187399963632526,-5.170806129285857,4.935932873506995,3.3507566649478875,-9.090329150187854,6.988390952222437,-6.849910960946123,-8.927644382542478,-4.398936764633535,-11.160740070203115,-3.920461558381305,-8.325393821226951,-4.250455441651187,-8.199121486667625,-12.490164144170784,-6.4809177723043065,-1.3705508448913704,1.0440816619888396,-4.954482391423626,3.0953497930628417,-7.784604274212766,-2.218982468094469,0.5560080007120126,-7.246015533691331,-4.605045572231283,-6.411882868047808,-6.245796834681318,-7.590487268691315,-8.77448560313946,-5.074728346361677,-0.19361323354626783,4.504815626215883,-4.88641346488181,9.229689090671368,-7.00394393026603,-11.630837952845994,-7.257179246607047,-17.394820105938045,-15.5031103738019,-15.94899557608715,-14.009584202165826,-12.88317244371173,-16.659684999843016,-15.842215375278544,-9.54285482438051,-5.569799643204689,-13.816958682956686,-3.2010931875721993,-18.624588962527923
1669981694.952554,1669981695.948154,2.99851393699646,3.9941139221191406,4.0,42.56231758620176,0,-8.327105143493199,1.508242508116717,-7.683038054284483,-4.166037013838707,-4.103852390430652,-2.0794521973346227,-4.372462172600797,-5.237687705593375,-4.924439367040886,3.6712192326626747,2.248958745819923,-7.716040173514079,7.625064425081644,-4.1594392964838995,-10.498957670041001,-1.766099476923218,-9.184475418507018,-4.751126758922761,-9.57370579924276,-3.556596992196686,-8.80518209723327,-13.364266670451768,-5.66787953271302,-2.418735838582475,2.8120653261579442,-8.300890970046687,4.341285826102244,-4.477236350308537,-2.128880367683344,-3.0357519813265865,-8.019581242589611,-4.915198685088203,-6.834445400955155,-4.939580858364313,-6.694003054522475,-12.191329664317534,-5.4004099440240285,0.4825712534281948,2.5110020835555136,-4.666422090885422,10.77407220561061,-6.292694718293806,-14.78189546551884,-11.91325929513644,-16.069075358574384,-15.50348287039979,-17.04036278586527,-13.92847587460994,-12.495047419702852,-17.341670381633165,-14.456729102364857,-8.3178269597352,-5.46248580545287,-13.302804047153787,-0.38821320980955776,-15.219874041494455
1669981695.20243,1669981696.19803,3.248389959335327,4.243989944458008,4.0,37.73328107580053,0,-9.666393665743332,0.7595895710457122,-5.341980387495636,-2.5376148158228693,-7.268797276815606,-7.532888425165609,-6.740798906750035,-3.2542663156366674,-6.0829622686859555,-0.7414457750195481,-2.3784844745606226,-8.176186115540343,1.806083148388375,-3.9425016053275463,-10.654022936509438,0.5196366606737433,-11.514802559211194,-3.627578716121691,-4.186982415290478,-3.2455786657104753,-9.420395314095993,-7.568368868803715,-6.616343863930151,-6.818531942157962,2.5148681913010655,-12.860750446532748,3.2417262310803077,-4.61378602391414,-8.008597652877658,-2.962322739174113,-11.792080754994778,-3.0442683455768007,-9.619781065188493,-4.070155552932602,-6.882517702619447,-10.886272569856255,-6.715656102051485,0.9486418296230896,1.7472387965641547,-9.36428993314811,6.755845358605399,-6.838447429565738,-15.504607954569805,-11.577144103264372,-16.921608085556088,-13.026056012520737,-18.982064908015246,-13.078026113019831,-13.363240266333998,-15.2664637443434,-14.993746838795275,-7.993152087662361,-8.470290995036915,-17.174915346995487,-1.983271124500675,-14.331840203615354
1669981695.452306,1669981696.447906,3.4982659816741943,4.493865966796875,4.0,30.747066800396,0,-8.79566618019379,1.9573682611275212,-6.390027732526844,-3.720074615008419,-10.417795114412094,-4.27262828230801,-5.794392386693329,-4.984795491462955,-6.437037068067893,3.6310100596532893,2.245556374166058,-8.918518887704849,2.6335841523350068,-10.187173071737039,-10.766942543197008,-1.3648563588177407,-12.987128742458541,-3.5728552109605722,-4.032821719628253,-6.073258280147736,-8.502860453885821,-11.3639750153888,-5.145324364481723,-1.8830903594059412,1.029005260499701,-10.911366793174347,-0.9180216254654417,-9.381297427575902,-8.596191148829986,-0.45266122239757967,-13.781036340968534,-1.6751510334742392,-8.114657234397844,-2.0422262202146126,-6.78011880591228,-11.050138174555268,-8.187486311487339,2.1371791170314207,2.5753173729783034,-8.356365249262126,4.586452201028955,-8.84666397277536,-14.93841156228961,-9.645639748137397,-16.02412893612688,-11.891415683331854,-16.34116082598282,-11.048636509530631,-14.15270674023274,-16.197450225198548,-16.800763947802537,-13.242693944839923,-8.672973297449456,-15.86158274310824,-3.9694477144861566,-15.37090418241393
1669981695.702182,1669981696.697783,3.7481420040130615,4.743742942810059,4.0,30.375775931227494,0,-6.248902665801962,0.6550255901955493,-10.41832876806109,-4.509062181595411,-7.369995097439689,-2.655916542513334,-4.846262687559119,-5.298028431222887,-4.43296146490752,3.7241639172437657,2.6526946566954104,-8.935863790357985,3.761309120934966,-10.701082638890082,-7.609672844006865,0.22258828378592485,-12.226045251135083,-9.153068065031533,-10.527801238968799,-2.270817223465773,-6.709098373497016,-12.623139546552238,-5.325783267173972,-1.7972824901918318,-0.34869341712215185,-7.610891816540751,5.059695202628057,-9.307193291156118,-4.272097680459426,0.3848042404353871,-10.33511123276783,-3.7793081791992695,-7.581976280430608,-1.882146041790285,-3.447572888499711,-7.93181900294222,-6.1424478724432205,0.2523076642625407,-1.5163834741305653,-5.890286062467752,1.9736609321434,-9.396387629131645,-12.628383559675814,-8.929775677629284,-16.601353018357834,-15.470034247672974,-17.38858107667976,-10.973868305777557,-12.368108181322615,-13.184473636392953,-14.520657996440365,-10.535226835882394,-8.584552992281536,-12.895916970123906,-4.6776801374648045,-17.378661038779295
1669981695.952058,1669981696.947659,3.9980180263519287,4.993618965148926,4.0,33.916162381618896,0,-7.484445889191598,-4.851840751632116,-12.539279347569332,-3.034144517588441,-10.250455387896505,-7.6918519769760305,-5.702842117433598,-3.000769809055763,-3.3489053634490555,1.9740348618223114,0.9805621115554859,-5.378150414341263,5.2193029881112265,-9.026246902749065,-5.801267831505403,-0.9648522405296562,-13.6981217927984,-7.747518329917465,-14.826603394173556,-5.467790789870238,-10.817294132869053,-6.908525859795662,-4.243303896078444,-1.382591358005727,-1.1302988754903938,-5.489994871958938,9.0710387380123,-9.170217930290825,-7.807387601917415,-2.291902626641263,-9.467920451628235,-5.230712044703527,-6.990914057482794,-5.561370678010961,-7.071083618580901,-7.271681423287943,-5.896291079188619,-3.5216985433516106,-1.1698766643417167,-5.153337786796731,0.5997010127701867,-7.486040241508346,-16.56559855215842,-11.114692721070332,-18.73714130562398,-13.868588178152425,-16.190124378012296,-14.390044567053879,-14.410973652191474,-15.053620710488998,-12.754721542306092,-10.34711144323837,-8.687293619763388,-14.735466163562359,-6.7976954982929065,-14.66414417347477
1669981696.201935,1669981697.197535,4.247895002365112,5.243494987487793,4.0,41.911795278933276,0,-7.572306786466186,-0.8305059879084431,-10.552060671669995,-5.77885185831419,-9.470985433756722,-9.457729124115916,-6.279365397938355,-4.074168399313181,-6.238804757375841,4.278171060625773,1.1436390785035684,-7.061656324384849,4.077614691219437,-6.360874574408836,-5.197500418135739,-3.8979718487840214,-9.932697102000223,-4.28394016479194,-14.862005682901785,-3.431012540442687,-10.26534268993026,-4.9088083939269564,-3.9942138692025475,-0.789017794456564,-1.0396252107250907,-3.726647555872078,7.638934853685479,-8.96253019391484,-9.959844018405574,-5.9748175053694785,-9.090729374130298,-4.602078118887469,-9.437670409547197,-8.64867647763236,-7.763584914786565,-8.91278630472444,-5.348887044635675,-0.8297309282055537,-0.7654881219213873,-9.136138306777026,3.4678274496079062,-8.266700443118989,-19.035540329332314,-14.25494107110614,-18.942000587068495,-14.612947192604565,-17.42844486674461,-14.066543675620743,-12.330038135115819,-17.260391913671683,-16.6261697177466,-11.667273048282016,-8.806872124289812,-16.19296191004591,-5.516324544398023,-14.602496370182935
1669981696.451811,1669981697.447411,4.49777102470398,5.49337100982666,4.0,59.365184616905665,0,-6.451463148415235,1.3609461636451687,-8.20608549433032,-8.259304941875042,-6.221175005794434,-7.663744633446475,-6.695368400329492,-6.480572393529556,-8.03079043208484,5.148698698785141,3.2389933980210337,-7.924879065629666,2.780516957851646,-7.165798171427712,-7.525861512170305,-2.0328223327212953,-10.310351686537384,-5.531286067725518,-7.731861144313369,-3.8923761419930387,-9.518991106712821,-7.521649095351802,-5.490711025183673,-7.247737948494638,-0.8078615928992021,-9.169692669097433,3.988708239772989,-10.474497857520342,-7.1435240095213715,-2.765569690045375,-7.269315216723226,-3.6005526112157487,-11.706919582289917,-6.238549558864652,-6.082707876835899,-8.596244483262076,-5.002238841087929,-0.3432168777937588,-0.7903494585906712,-9.018556439369718,5.284697939122727,-8.508673030707087,-15.423368859337073,-12.448426339552757,-16.799691973394175,-14.443585505235516,-19.56703869626791,-11.093624476703972,-12.333828837096174,-16.651317597456558,-17.99946744820099,-8.295627969237415,-7.608291154745565,-16.061336831701677,-3.4162973389110847,-14.863410485946902
1669981696.701687,1669981697.697287,4.747647047042847,5.743247032165527,4.0,59.54417428178023,0,-6.133675539938115,-0.6231356618919435,-11.687329471808587,-7.45712771443575,-7.821552516549919,-6.374065219318576,-4.861256585258795,-6.691474691204231,-9.281571403816452,2.27181368148539,-0.1578663740093435,-7.204377451644271,1.9511945177233336,-7.030353375659189,-13.481880433486364,-0.43593816471144087,-11.419952325727106,-5.087812123470373,-6.831964863193932,-6.019793819407045,-7.618156616016757,-6.012015280342676,-2.3199109410146694,-0.30112242920287724,0.9388100190714622,-9.99253891382948,3.0862398797001678,-9.712306503154762,-5.3588473547132365,-3.0991308675941944,-5.840385557405368,-4.0847574203711225,-9.61145323512667,-4.052016481661357,-6.879185656888543,-9.602530635853581,-9.499618129015575,-1.2411761564857517,4.159292533970403,-10.512742470058216,6.14376791382883,-7.833357391201304,-14.321711440127238,-14.38550485791989,-15.493922399858235,-13.396441575660504,-19.046193824354628,-10.101312743776564,-15.244966436511147,-17.289042580289127,-17.072097389047073,-7.767911535966528,-6.778238647099897,-19.08867805543977,-3.4655463183365147,-17.267541830347064
1669981696.951563,1669981697.947163,4.997522830963135,5.9931230545043945,4.0,60.53982161862623,0,-6.773248469830177,-1.2891658947664553,-10.710347085741937,-4.479574972975959,-8.33181790526584,-8.617502182959338,-6.353000306096412,-6.223160075670513,-8.429749266412749,1.2055013375746,-0.5024828771266597,-6.563171502458536,3.2441626508791215,-6.569840362048169,-9.12431015273659,1.0423680626172245,-10.59444536370144,-4.1776997110997405,-8.971131769686032,-4.337618629095785,-4.595807859335226,-5.663491667625373,-3.0485998874684754,2.248753903187028,-1.621970532934438,-8.40875649653289,4.122220186332964,-7.108628855613322,-8.1697328305452,1.2311366481886785,-6.830899060976719,-3.9348428343213864,-9.251920122084936,-3.876783476593676,-7.2823764335759815,-12.202925957806627,-8.981626932945991,-3.2030274443888453,4.45937352735723,-8.792891047482675,7.284907893701918,-6.511617854096095,-16.658289578945922,-7.2798076910781155,-16.70255865169956,-10.401962374070301,-16.443898144181613,-12.300178679917016,-14.988321164302326,-18.610298345073634,-17.901327252593777,-11.377196505364518,-6.164047355199845,-18.24736367845997,-3.786789082521873,-15.893053569713524
1669981697.201439,1669981698.19704,5.247398853302002,6.243000030517578,4.0,67.67594533664953,0,-9.46681572395766,-0.6092718986108487,-10.714446829176952,-4.114893188225342,-7.243564524385074,-8.789762374160585,-7.1720194449463115,-7.0798161363092245,-9.820674264723,2.5837767422683413,-2.356459298125582,-7.4378756425821635,4.5327172806050955,-10.84327862245212,-8.436356245544394,-0.3709995832535593,-10.815431357956244,-4.485495925195506,-7.5767739433514265,-4.56182452265841,-2.880913616886642,-9.147894092522296,-7.6662577915872845,2.3199472565664743,2.123868591531299,-4.536640315349577,3.817719021424572,-6.54826024327003,-9.060500419170298,0.8960813746631423,-7.104572841344724,-4.679785977935019,-7.046807472604312,-7.121833061702274,-6.847342879277791,-9.097690420453322,-7.400017878025787,-0.8062818309361739,-0.5662407808559609,-6.833156007415489,5.056662485644678,-8.547901357089762,-18.11033297661005,-6.773327336937456,-17.49641483422299,-11.972380417954106,-16.360510830512844,-16.298316640490174,-15.233732357446929,-16.88132870954517,-15.32714428772793,-12.184463201048937,-7.9845657343715,-19.404144618863015,-5.200135606505518,-15.58224531226607
1669981697.451316,1669981698.446916,5.497276067733765,6.492876052856445,4.0,61.29293354839501,0,-4.861574124632217,-4.205438301832455,-10.859906091232443,-5.990181461932078,-8.341314559686131,-8.996923136265872,-7.515373496041443,-4.627554703793077,-3.999767487676635,5.758035304221563,-3.5127973525996516,-11.127253510820658,5.255170241213896,-10.933763637606383,-10.400559233325987,-2.4248396274644906,-9.205192401820504,-5.022451542201179,-10.820871447405436,-3.5030452571192523,-6.6267310827808785,-14.289544862977856,-10.254976095376517,2.1917659772122544,-0.7051308448167098,-6.196841315226295,5.539290010143834,-11.296338613142186,-7.721229087324163,-2.893009900401959,-6.921353662451785,-3.173511064960226,-6.0105256924279615,-6.506554075278471,-5.549088345363486,-6.405597323387209,-8.07003419026022,-1.6808669252666222,0.9875933986139906,-6.096850037058016,6.807925430116696,-7.850474320727373,-14.925332490914116,-9.494770989634391,-15.117786534656869,-12.603675157325835,-15.193781211989116,-14.059931853323977,-16.62543130060804,-15.590303586056795,-16.46376483420924,-11.873513125180878,-6.097527449810127,-17.800864369950872,-2.7627824371972762,-16.4944711560369
1669981697.701192,1669981698.696792,5.747151851654053,6.742751836776733,4.0,62.26894743397869,0,-3.4718785935320478,-5.066082400349542,-10.938233082702613,-7.964904944881739,-10.292956776464703,-5.14019300487555,-7.448005246614837,-3.3349188367273976,-2.6467321748665635,5.129105961158737,-3.917290688519186,-8.269448804876182,7.770533585833174,-9.719459430547818,-15.575701475373451,0.5540898109273911,-9.934114225723988,-3.081203906110033,-7.444741444692613,-3.0072353469394453,-6.769427043512194,-10.159589869243081,-13.019056265178975,-1.085784639118008,0.09479124496516428,-10.04204802422935,8.447554919982235,-11.603446052201011,-8.214022735077645,0.833300579210201,-8.864216814046353,-3.527333188014414,-7.7292736543681535,-3.4962902059782253,-5.667647259280616,-8.461714853563391,-7.820686247322084,-1.712628421548902,3.320599805744134,-7.6762874082710795,8.537156685720543,-7.498805279184455,-14.739454477611707,-5.629572471679732,-17.30497611225963,-13.804850745873926,-13.997176749600499,-9.676208456160452,-14.36906963891718,-19.752136035100825,-17.240658953992284,-11.780473882521855,-5.965999936199714,-15.207968945759923,0.1898998856478681,-15.344290566855992
1669981697.951068,1669981698.946668,5.99702787399292,6.992627859115601,4.0,67.7117843766178,0,-7.4576209126696575,-1.8937455742782394,-6.449589046817984,-4.66519997845247,-5.634721054678703,-2.8536697759278247,-5.799249118814976,-8.339035029318405,-5.959830769788938,5.5976979471809765,0.07753523785368147,-7.359758396026795,8.100291593029919,-5.060183722202142,-11.263561893121537,1.959681149204771,-9.79161864769708,-2.3235548810642452,-6.662462728097075,-2.17879616253783,-5.355034318554877,-8.375266414636165,-6.162033028937085,2.5001835719416947,0.2915381710904913,-6.283795923324597,4.839331760458926,-4.988419197528776,-8.29757782865327,2.1731506244576093,-11.563036918855449,-3.3674289715902543,-7.819687554392905,-4.570176499085386,-6.8504772709395825,-9.478134265777852,-8.185511493870694,-1.9092456294279496,3.9484047413396284,-7.365589100468304,7.390645717496936,-6.74882424280252,-15.479968734854433,-5.284465693177514,-18.60244536472849,-10.510197182968728,-13.936587075279757,-9.70521383063778,-14.383292879335908,-19.569298566673737,-17.290915342199334,-11.29043440805507,-6.602682725883046,-14.339511803530026,-0.6057498725102445,-15.175923537430986
1669981698.200944,1669981699.196544,6.246903896331787,7.242503881454468,4.0,61.90154938888822,0,-7.794034498740467,0.2269347434217771,-7.207761069425756,-2.4458086845153773,-2.994505879684734,-2.084487022623755,-4.321115165237185,-4.517868661249108,-1.675862367030643,4.672006125311997,1.3443350808860668,-10.67251652904024,5.687702253145995,-3.4181864995695572,-8.135047958035416,-0.2098356418831855,-8.744072842927748,-0.5336259705372915,-7.129224717720143,-6.518966215386008,-10.877845432226472,-8.573959102357966,-6.1318559267647155,1.8577655010395762,0.051171450642044175,-6.649574441699172,-0.0647568288482956,-3.973471374941895,-7.48485381527742,-1.0066562131880232,-9.290998605754554,0.019285692813919706,-6.91434460649404,-5.069842238336032,-8.349490151923074,-6.518130980582047,-6.597623363133796,1.0616565610637283,2.052199915663677,-7.360411497820825,8.266821590089256,-8.368255972357472,-14.925995463717694,-10.383076592393408,-17.430351919242938,-7.616330795069422,-12.93304589450452,-14.996685653003548,-14.971014396169224,-17.25218261111882,-16.12388975930051,-7.5588824043850185,-8.692430340252727,-16.51346148488392,1.1581872992195203,-16.054798806650805
1669981698.45082,1669981699.446421,6.496779918670654,7.492380857467651,4.0,67.46848860613913,0,-7.868926509365986,-0.7889622939769548,-10.155425351080252,-2.788723123798,-8.600571213733746,-8.522608684549052,-8.861665017590978,-4.984780791438605,-3.507818487079869,2.3212948078708044,-0.7175445006246933,-9.756031815351108,3.383402408133885,-6.336523979214497,-11.744338350348112,1.9396435751777765,-13.046548355699255,-3.1900453871046413,-7.135059004699313,-8.442975503172931,-10.29421128666491,-5.989439110512713,-6.726896890291637,-1.1433800242787615,-0.1154682918436176,-10.872626020283224,1.0576072424411436,-8.502792947261199,-7.9672523593539335,-0.8973692174928878,-9.63662174803173,-3.167908772852572,-6.342942508781121,-2.051424042265579,-6.033801466902375,-8.226830971121542,-7.267450962386604,-0.9219109956403653,0.9844559607768213,-6.442964284526633,6.449605705734173,-8.195322335829221,-18.59587705536951,-10.811637019083712,-18.82433940835287,-11.982369148132328,-13.089397247978436,-14.229644353480747,-14.368562245976861,-18.159271167282114,-17.056900947374512,-9.354767846011585,-10.382225799841379,-14.96850783216292,-1.3122664236770225,-15.563156601400284
1669981698.700696,1669981699.696297,6.7466559410095215,7.7422568798065186,4.0,70.21764936209749,0,-8.934781909054452,0.045350603828334106,-10.80177903733696,-1.976426553060353,-12.197857377262038,-5.587978612391145,-7.21210503815416,-8.396766902192912,-4.787218733270617,1.0899977424042682,-0.9052719046100031,-6.82124548429022,4.3236527986257,-5.273395323590639,-11.078300379402906,3.077086166245709,-10.991521692538829,-3.438055456614512,-4.114006632801928,-5.702292069619705,-6.9386336758006255,-6.228016420174935,-9.759424659713167,-4.125202172572568,-3.6545825805002528,-8.398173947689191,4.808335838699064,-7.574651371699833,-8.35366710405563,-1.204152376641958,-9.898154576755239,-2.9982406707403864,-6.4039409090786155,-3.094698601589179,-5.8207635471943355,-10.742874680651145,-8.976554004290021,-0.46316295759074066,-1.9879837082504601,-6.409997800980087,5.022186131657234,-6.972306559163128,-15.508954866199275,-8.044202759394508,-17.214856156858655,-12.151902652011334,-13.725478998609281,-13.877410059009662,-15.388910944798448,-17.56777901557054,-16.82552154113757,-10.664214937582493,-11.648177542668003,-15.786977687974776,-4.7006370662927575,-16.438325574067562
1669981698.950572,1669981699.946173,6.996531963348389,7.992132902145386,4.0,62.319706665356435,0,-7.898589064140839,-0.19003627703320117,-8.038787682345754,-1.375059766216173,-8.785515092745534,-7.362939275377617,-8.452297421613785,-3.617980909486949,-4.660379771278237,1.6697392995229,-1.3014546492451793,-6.57358816602919,5.386407916596044,-8.11233038910607,-6.304736933609667,4.624717970378641,-6.395331560075933,-2.784760741897302,-3.331395607736934,-4.295821016739893,-6.778144826144579,-7.308817353579428,-6.724369567666909,-1.8065447237009917,-0.29732778769084567,-5.745996158664212,7.7504716767176145,-6.512718454929255,-6.826853990679291,-2.0291090538839573,-8.704918775374502,-1.6199275758010416,-7.525046791174064,-8.446904944870164,-6.700092293713443,-9.66414762483579,-6.727864347912646,2.3928438952742543,-5.321558161565335,-7.0287843870888524,5.087969016797312,-6.9062296761283815,-17.6338494545829,-8.90068391069769,-18.32015879976128,-13.077956211023093,-16.423510695881724,-16.47041508146369,-15.553712762859519,-17.940305155491682,-15.081491618603254,-8.667021703462979,-12.566805427688262,-15.49701881951933,-6.031147649714914,-15.709333784489745
1669981699.200449,1669981700.196049,7.246408939361572,8.242008924484253,4.0,59.94711689586291,0,-6.729908607775348,-4.140992687109587,-7.990506065031813,-2.720572841568773,-7.6436078029469545,-9.813583477263048,-10.28964887074489,-1.206875783562236,-3.5404798671683784,0.8107189263723268,0.5697045705202424,-7.772781069400798,5.565674429796007,-11.497551814076976,-8.085216690059966,0.7433964573323795,-7.486611620512809,-4.321232613145338,-5.4528432678358065,-2.3406980020779926,-6.5097950354548715,-6.900815466633501,-3.9690688307362834,1.55644897855065,-0.2679939042771671,-4.14537148721268,6.284765212715319,-11.130298983808524,-4.818987638983697,-0.8066712629776931,-8.766365519503518,-1.5911688395980668,-5.467770671986473,-7.887716748314942,-8.658878700708602,-8.883399936093978,-4.080321727875504,2.6725273743783937,-3.5896911413401873,-8.392444423515578,4.7038802424287915,-5.851875264314802,-16.804447919214905,-9.90118856867305,-19.19169604164651,-13.65329365147404,-14.225964545127267,-17.931107065580555,-17.649074193584525,-16.164619582828774,-12.720725821063915,-8.738678620246148,-10.103110690009952,-14.459405000494133,-4.482958942395468,-16.24445520982576
1669981699.450325,1669981700.445925,7.496284961700439,8.49188494682312,4.0,47.90267625769003,0,-7.148771588163997,-1.2187930477091247,-9.118724595514879,-4.508207427420132,-8.299196898048805,-6.81892214291643,-5.424912905353123,-5.49385591649818,-7.9336524746201755,2.6061466128007185,1.0659405074987907,-12.589887622302182,2.2043267952366867,-11.578838205362514,-11.231176259528421,-5.018928005248993,-12.306513941913561,-4.467314671022642,-7.446824505392934,-5.649900212872382,-7.461630025990001,-8.31008288137156,-5.592576150865919,0.024734648411095843,-3.7803700570559826,-7.0849758782770875,2.72441354361503,-9.202942354648242,-6.1968305175064895,-3.1961206202514347,-9.722964161455232,-2.6600583137032787,-5.442885776507058,-5.987443510571081,-7.981213454228832,-11.569973023282978,-6.2132258236672975,-1.2424887641027342,-0.6093902422037447,-9.016777273900926,4.97508094524878,-5.485416971296343,-14.520733178275893,-12.262411896084526,-19.768270015113316,-14.730212319628581,-12.819904863739698,-15.901775401393635,-15.496837959998576,-18.57237740723747,-14.754713623706717,-12.13333256834207,-9.564124489023143,-17.918602581460753,-4.875849307209952,-13.872789356319455
1669981699.700201,1669981700.695801,7.746160984039307,8.741760969161987,4.0,51.134085921783274,0,-7.605040915295219,-1.7622281851675217,-8.92345091492983,-5.467745244821556,-9.265636296390214,-1.110656994992004,-1.975451703978142,-3.6511212284724643,-2.2811725406257324,4.444962519292794,1.7998178380033025,-11.867901387484066,0.41284108880155684,-11.086406530708022,-8.097384122838063,-2.8013561017253252,-13.39580755279946,-4.254002237701945,-8.289334336070798,-9.281677546995422,-8.008697327769989,-9.816527573682551,-8.753980580916426,1.5898831599256278,-0.6012591511938341,-10.918067738985865,4.275343284752495,-9.299564521928998,-7.496206433254777,-2.6149252384987944,-10.289126967468377,-3.2521684313714863,-7.768574221829553,-5.418822282785012,-7.251147130588133,-9.702895593445097,-8.720590060349082,-2.5316920954324704,0.1273824883743448,-6.29064987140119,5.188709627880663,-9.173982937902057,-14.490309472346354,-10.692308872687292,-19.14703780802794,-12.362096157638941,-16.626729626073725,-13.664123721664861,-14.875986080027825,-16.712103900540768,-16.41636219455384,-10.998818570081689,-9.913994581884626,-17.594794607412826,-6.05622285485866,-15.97306081357494
1669981699.950077,1669981700.945677,7.996037006378174,8.991636991500854,4.0,61.064744289859526,0,-10.856335615211957,-1.3112069423177997,-8.579250998886035,-5.482669858964771,-6.916764112317672,-1.2632750996484188,-4.307721048089599,-3.5000005541592207,-2.0291552450706574,1.5224409873467672,0.6803510459800424,-8.557154001727564,1.2865791159781006,-7.9604873312446625,-7.8783097037636916,-2.735350299070464,-12.014101362630907,-3.845825329308139,-8.400522514858165,-10.266977274376,-11.104535562045594,-8.628608986805675,-7.8762866675599605,0.2432069191247158,5.202442159472222,-11.320823090712114,6.719326183967066,-12.069267824178771,-11.658287227850817,-0.6278721514826825,-10.486073426197454,-2.566351302415101,-7.211338504541384,-3.4561391011013924,-5.468184728511646,-8.93017802013493,-8.141368616256901,-4.819605435934776,0.6450535858872335,-3.791203494339652,5.3355488003804545,-12.17033927592954,-16.985505884406845,-10.8624265347934,-17.2389110360857,-10.78004217772246,-17.82022596130622,-12.506081488996214,-14.443517157581633,-16.068775399165872,-16.5488013047317,-12.308857117944704,-11.236594793279526,-14.079073886085327,-5.044233068125717,-20.52322389208161
1669981700.199953,1669981701.195554,8.245913028717041,9.241513967514038,4.0,54.47654127422631,0,-10.943603617584296,0.050809656378483795,-9.373922087591346,-5.171783051756278,-5.973202315579672,-4.779227082611061,-6.951071978884489,-5.961468664451889,-7.242213054778938,0.08941510319583275,1.8997971830179747,-4.744514355540313,3.7263643618250613,-6.624737022416605,-9.746957823730076,-2.2311238605532435,-14.770361267026155,-5.7357242334283,-7.667720309847428,-5.973939949317215,-9.30395651626991,-6.321357316078525,-6.648295780888869,-2.308254210202954,2.5153130871337543,-10.389160893608583,7.0301434896804675,-11.844276863191237,-10.153196540654019,-1.3595458611704747,-11.14301078468208,-4.663897420418377,-7.588706014843853,-3.2553746811028073,-5.672004351647889,-9.91783674963433,-6.908153343999459,-0.9265876288020662,0.40557519809324427,-5.331583655625554,6.087165271866313,-10.244584248689371,-15.656126913722908,-13.474231382406064,-17.18261988102959,-10.6626188602281,-16.501503639108375,-11.775019430581132,-14.193953145408326,-16.082629041166584,-16.587121765724962,-11.71655651135649,-9.228001943450604,-12.988991642320286,-3.835407061083738,-16.869671071801275
1669981700.449829,1669981701.44543,8.495789051055908,9.491389989852903,4.0,57.8075824654202,0,-11.42167324548475,-1.6335448784501239,-8.723131193788436,-6.615527317433356,-11.469769789099026,-5.650819639079518,-6.9823651536334275,-6.132557267888218,-6.924816808369209,-2.184907031809145,2.58177020734909,-5.8018631150039255,2.995608143228949,-9.619278837665933,-8.948990666342354,-0.8988769062205509,-16.452265078909008,-6.399519020227158,-10.094459632536001,-5.4992866476319415,-11.5639124885714,-6.309120427667819,-7.554556923848584,-8.96503082238117,-6.698925296313126,-7.986707620672085,2.2418104886107866,-14.513791518476825,-9.375236280018376,-3.1542275990250164,-14.233484604204879,-6.075960698672553,-9.923712674946996,-1.5986926455605701,-4.005848889300024,-8.97898313288289,-6.669083179972066,-0.19673303655097799,-1.1154246281902918,-5.427300335447773,4.33117136440615,-9.00083644940542,-16.734264233867197,-12.763791481898405,-18.4011816366285,-13.064247977643216,-16.951066472031524,-12.013609879905186,-13.321302753629023,-16.852331159710026,-15.85183348318145,-11.642840622475523,-8.110204384090885,-15.163874157879516,-5.825725265445785,-14.46024681956759
1669981700.699706,1669981701.695306,8.745666027069092,9.741266012191772,4.0,53.51944192003048,0,-6.80240972212101,-1.4898700017988182,-8.642063840545598,-7.042791971941913,-11.321186035351111,-3.725437155152387,-3.6681242428662992,-4.988647249987129,-5.681104737441497,2.3111564503312207,-4.8401649266800515,-10.868520922502666,4.689709290897844,-8.810456131965054,-6.583193372462869,-2.360845347697503,-12.384734258214742,-3.86053177911507,-9.070789230015695,-5.4784297736705785,-8.527404097010242,-10.222192664238081,-11.924184320818318,-0.01874401936295434,-2.7092586684788826,-11.237833110009303,7.404868227178234,-10.299681486844987,-8.604867358428296,-6.013387484382637,-11.429842925542903,-4.243813664030747,-9.588920539510736,-1.8225952393783658,-6.029213671538761,-8.255883061680782,-7.669997936169749,2.677779511812272,-0.8622162673398276,-4.881588439937438,4.767309477021746,-12.026359781056522,-17.670224145445946,-12.08349160668723,-19.141584924747317,-12.688058388947805,-17.204798439543875,-12.364345767862059,-14.7363664585172,-17.198795739360158,-15.669682237906343,-9.606436770504663,-7.75598859968642,-14.514653413484632,-6.576040140960856,-17.532054720839938
1669981700.949582,1669981701.945182,8.995542049407959,9.99114203453064,4.0,62.69462358935473,0,-6.2517256421799825,-0.07679809368984786,-10.8889582236244,-5.0953061510886135,-9.382112116769969,-3.5012972102148447,-3.6673639975307086,-7.508249302835872,-7.914260631915391,2.9295731765288253,-4.3939717168227475,-6.525008980690284,5.8793506620531115,-3.2643939618365483,-6.848287624931916,-1.2780480532325313,-10.811025080022015,-6.131785137575033,-6.535013560174482,-9.716227423323083,-10.14016556537053,-10.681627146131515,-12.368981836295134,0.3609469381231789,0.08782412702435277,-15.47012435384943,6.556532031835031,-9.663389986246893,-6.539793452150056,-6.511547206346568,-10.036989305689632,-4.829316020954918,-6.77625128454797,-7.164748374285863,-7.357642199930558,-8.456099856093314,-9.201365167840882,0.027265356335062187,1.5270046890876676,-6.214927693869722,5.78735762057033,-12.570715347100212,-14.861720572482787,-10.518093656248887,-19.292863971359292,-13.349144201692278,-14.726717806112662,-14.123592010606156,-16.529188714725663,-16.03185873532478,-16.013214463875514,-10.85623007081419,-7.354523713615288,-16.540247733793837,-7.19600206623353,-21.11627200973084
1669981701.199458,1669981702.195058,9.245417833328249,10.241018056869509,4.0,73.04063746428814,0,-8.195137318480363,0.2802501193578554,-10.039357351175815,-6.9910486540935155,-6.450143446082427,-11.076403269850967,-10.572685884045434,-4.981986958318879,-7.395820311539131,-0.1432770451704327,0.06282978714906334,-4.872934311197438,7.310906456058694,-6.6541088356686355,-9.526202954474455,-3.8785420056989626,-14.738891915396144,-2.193127267081746,-8.959645528429146,-6.961444961094073,-8.359394695133087,-9.293198667631348,-10.485316320563538,-5.9668702766856905,2.135153882957513,-15.307947820842676,7.035187300761256,-10.976902642138494,-6.220562093745038,-2.379646477133443,-8.26169838394404,-4.493146844996233,-7.612058749520251,-4.720531880668148,-5.766143815190885,-6.259119785287021,-6.244084054233015,-1.4083174733650672,1.7801844726335632,-5.860554805480074,4.597608252458221,-7.750653999341784,-14.0316279116492,-10.43548088541769,-19.279487083779006,-11.6710895502219,-16.798761528157225,-13.83512878634794,-17.01587875898053,-15.517932817162105,-13.709601298348975,-11.441781067646247,-9.647181921938941,-16.37730162388776,-6.058444259008921,-19.836120118124754
1669981701.449334,1669981702.444934,9.495293855667114,10.490893840789797,4.0,75.08830701988204,0,-4.899224775032526,-2.8856254293998793,-11.141186642981896,-3.763990281681684,-7.795670507973917,-11.583129414077602,-9.143977649298318,-5.193332538518154,-5.4398795791082915,1.1849682726142585,-1.9862749316276567,-6.062844216634714,6.132051439198463,-9.124097349689539,-8.645674007608235,-0.3907631248087143,-14.089983552273216,-4.4600611377829695,-8.697701458618905,-6.538509724703796,-7.303481681708945,-5.339742937975328,-6.250269998171661,-0.9989943998273805,0.5674311229249288,-14.996435684900035,6.611623124778154,-6.924313527213415,-6.54728303077603,-3.7869261709827207,-9.898890847129206,-4.7643508126617435,-6.331052174179009,-3.72811125789951,-8.332738146706104,-6.2216104980293245,-5.705927755884805,-1.8980828603502804,-1.0146902654696628,-6.113448852028985,5.272412506789868,-6.960258430017107,-13.980368986434051,-11.329216189200205,-20.425411631554905,-12.561669919155577,-17.322901068429,-11.680812801499362,-17.147087431918447,-16.143434383153053,-14.441993258832177,-8.782800484238996,-11.584350107413556,-15.602537113099311,-1.818715159222174,-18.027447471496064
1669981701.69921,1669981702.694811,9.74516987800598,10.740771055221558,4.0,76.27337798192573,0,-4.495884369873483,0.10952228615558901,-8.531069405699007,-2.2875366706940223,-5.573441502445212,-4.021202444535236,-5.823991686989089,-6.847227912421676,-3.677050833907618,5.029329427532318,-5.2530921473804035,-7.4300100106722695,5.817955057340358,-6.622117950236564,-9.42362321611397,0.9069303694230989,-11.322487382682098,-6.011265560847737,-8.205180063790404,-7.163883851534887,-6.410242552291869,-3.5723212077895057,-6.045471616260091,0.8905195512368103,2.4744062530717743,-13.905390784323298,7.539786058467863,-5.075860780288456,-5.474025849046734,-4.859141825668602,-9.192167749531553,-4.771592700357993,-5.184652199391935,-5.2199434276153305,-8.739396575294752,-7.707674417345958,-8.360243611781984,-3.733828929266922,0.6535568789816572,-5.979657837136413,3.852389287593691,-9.969403256598033,-14.31354843787079,-12.686526690247785,-18.60752842123624,-14.4450931154814,-17.272279842031207,-13.751814877528549,-15.376254368187505,-15.605579047179717,-15.592390279309642,-10.466691167271415,-12.13145793531009,-14.840053193489883,-3.5251779095949325,-20.73554922101591
1669981701.949087,1669981702.944687,9.995046854019163,10.990646839141846,4.0,61.73964415803826,0,-6.047845616067863,3.343914122493315,-6.49901848238475,-2.2840185169091205,-5.48477827208067,-2.609622702388264,-4.1905955854356955,-9.21126766213206,-6.370813115027163,7.232678997576503,-4.8235653415611335,-7.46177189016207,5.647433414540311,-5.42891605208668,-8.155231934923975,0.6198699787195606,-11.522051015982608,-4.221322539189392,-6.752949592265666,-7.859741486813211,-9.892572674138384,-5.736069344207527,-8.709566265860444,0.7869232919565993,-0.15647411116998272,-10.501598316394851,5.718065438325066,-9.93169289083746,-8.943595326946891,-2.6372895856581415,-8.068543853440177,-4.21284755537728,-3.6922815403900575,-4.653556297303579,-4.5685627756622935,-10.281753858247688,-12.197353844429827,-2.247841091066328,1.1192994882377123,-7.497214151112972,2.8277952433332887,-10.327819056045207,-14.658965238508703,-11.084250302327266,-16.702906486542012,-12.120271617656108,-13.16423337773676,-13.941992240201147,-12.679444307963765,-15.988728426268732,-17.568079389067396,-10.236852365315558,-10.465698416072868,-15.665138845256976,-8.015970633645065,-18.237876047066276
1669981702.198963,1669981703.194563,10.244922876358032,11.240522861480711,4.0,63.91328334862055,0,-5.561145752563391,4.9926277670318635,-8.731498958078902,-2.6434208265799186,-4.012516751438707,-3.9089609419942324,-5.055383075405201,-5.6176533770274855,-7.5740994094124705,2.479725764998641,0.0379842213465041,-5.157297114012538,4.6800775529338825,-8.065731498585315,-4.714959569584295,-3.9120161831688485,-10.570423921637659,-4.365745556776682,-11.282022019809625,-4.451354608706612,-8.064450224394804,-6.978857928371607,-7.150361227685909,1.68003951236309,1.216814499548518,-7.574096207658751,7.1094727037944185,-11.671861563184777,-6.885024233227126,-0.3505561331530628,-7.141058431703128,-3.0020414762600027,-5.4435017082584425,-2.0908093810829564,-4.879583713831537,-8.811106981721053,-11.024735979641276,-2.365654930295606,0.23072776904745015,-9.499163562370962,2.5857895460579967,-8.412301419923745,-15.596159065847274,-9.865204212223643,-17.56589781919398,-9.912700053270358,-13.72212790285013,-12.09019469185643,-13.556275814366236,-16.601993539997192,-17.581176532027666,-8.812732804874178,-8.061275447191335,-16.353419707283074,-5.893703885611952,-18.519290195260794
1669981702.448839,1669981703.444439,10.4947988986969,11.49039888381958,4.0,62.14874522270731,0,-3.026396984481144,5.548968395313789,-9.584915171978237,-4.036770112323189,-3.9881166556599874,-0.8393740763252298,-2.3101959225632256,-8.408297992579204,-7.149751406195255,1.371829489191621,0.7202606806026126,-7.880118446838908,8.05962595110486,-7.747199331006236,-6.276112703663572,-3.390960770434652,-7.828123548313606,-6.758394592713078,-7.2358132908100306,-7.089032033006967,-5.772175780151342,-6.359629211584603,-4.328578919161251,-0.029760880852946876,0.43781580817572974,-7.0515676173550474,10.060405657120999,-11.998747086290646,-4.561479005204614,-0.7744581086115275,-6.648168160714173,-2.494517025085032,-5.675093351798218,-2.448376786451454,-5.938395400923374,-8.515352543376284,-10.605652369001534,-2.4836813637379413,1.54499635439013,-7.84402773996905,4.1619253206387565,-8.55198650932442,-13.74712135588756,-8.831398452193271,-15.965429772281874,-9.451935038664313,-16.68480033279308,-11.222514506656802,-14.412359904896856,-16.36869319180102,-18.993354134101285,-11.73926629932032,-7.5189790939856485,-16.215918448280426,-2.940615674329888,-19.067339734132233
1669981702.698715,1669981703.694315,10.744674921035768,11.740274906158447,4.0,65.1353735146595,0,-6.655838296457657,0.44745473415869347,-9.386848991700203,-5.516756832253222,-6.502572454994336,-4.769790403583748,-7.248287132801576,-14.656585447681795,-7.32720365095548,4.068762830237916,-1.509383271473962,-7.902778010979455,6.854095080875068,-9.146938620875073,-8.329255644480842,0.7637275366772273,-9.572497018082165,-3.0070169172255534,-5.863679795168015,-9.549756087234863,-5.71326026103037,-9.661691655025278,-6.300548931648167,-1.9594411477461937,-2.058003755361387,-5.897912270734713,6.957367001323673,-9.260198353020888,-6.8079550109627185,-1.3124238980336163,-6.418896922214917,-2.973853631757977,-6.234106761437232,-4.4382160159392186,-5.89789928791676,-8.648407416694216,-12.237905519515873,2.187437314510465,-0.24573370930062147,-4.49859665950684,0.6242031241304665,-10.474315668332743,-14.03748266303442,-10.5156375320732,-18.187654053771077,-10.559081103317476,-18.082733203106415,-14.338960496716895,-16.130425095405517,-16.45795916077738,-19.750836499116406,-14.30825896520335,-10.13672392524689,-17.66523901611331,-6.418239075531852,-18.66632209200055
1669981702.948591,1669981703.944192,10.994550943374634,11.99015188217163,4.0,63.07314557547751,0,-8.34936647972724,-0.3688410174383948,-7.4627226263323205,-4.376080279166827,-6.755472832555966,-5.944726699468359,-9.087532712910374,-12.392367601843112,-7.133817507157463,5.191740944260351,-1.9724124888198484,-7.3038332511828585,4.189922394755033,-7.995234954457135,-10.546202862859815,0.40601441351870854,-11.765355676952376,-3.3848845134935592,-6.813975576706506,-7.726052114585597,-7.35162901193619,-9.239417755074388,-6.964595856062493,-1.9036483564326527,-5.580410093615603,-8.842155061908034,3.718777410172539,-10.55069571898735,-12.224373308151971,-0.6366747341072152,-6.950358692152282,-3.202014454548414,-6.9460360019583955,-5.0519669319263105,-7.953743030909791,-10.938295230623957,-9.409978111667389,1.7407206900490002,-1.7522691353653324,-5.750313985684896,2.1108784229300666,-8.659616599414404,-17.07265835750694,-10.876255226145108,-18.397501414481415,-12.506089071915273,-15.906839885827697,-16.24209005929098,-19.926544900634596,-18.23966242362718,-15.49037898186417,-12.823346147609618,-11.934849880024888,-16.372069420961758,-8.717939654836028,-15.14123605966084
1669981703.198467,1669981704.194068,11.2444269657135,12.240027904510498,4.0,49.051467092472244,0,-8.808354424267256,-1.6460867188333173,-10.359392843969175,-4.588596135046786,-7.069221364141577,-5.358868163539142,-9.643116239764693,-8.609430710896065,-6.701861018178059,8.479116164908664,-4.178748805045073,-10.282752106431337,8.15884829531578,-5.917523202543318,-14.69929814769425,-4.884956329515424,-13.637948366416655,-3.590596099654995,-7.938929472243176,-7.550622559834609,-8.140395460397668,-10.417270587384127,-5.434509527416869,-2.4984880388482926,-6.1702182661707,-7.992371501543111,7.140413580549419,-8.367530320005471,-9.041860940604359,-0.6604373725227346,-5.579199661886236,-4.3885263180175365,-5.88095216865093,-6.444279743632315,-5.473021151937064,-6.123297240612018,-7.7757166961153965,-0.4398271994708219,-0.4142470785093679,-4.719370977182382,4.460348478632006,-7.338550879792821,-18.2304576413072,-7.384834550060545,-21.12071023317446,-12.171224081587066,-13.798961261398004,-18.30784287584668,-17.08541095206928,-14.915880208129952,-13.571713470769094,-9.958822779634875,-9.463049244327676,-16.539928029619034,-5.080390299411058,-13.850147852869316
1669981703.448343,1669981704.443944,11.494302988052368,12.489903926849363,4.0,47.05733221311198,0,-10.404316429575767,-0.3745600459569446,-10.628180301448943,-7.563062307806172,-9.385061307860985,-2.8409480251158636,-10.940173498785366,-6.310307454323814,-11.286053101531534,5.1783814528478604,-2.691711785741839,-5.833626035457687,5.097349984041214,-5.533735812639229,-9.247423974635472,-4.996746809258439,-10.115990159443486,-5.821064248882784,-8.853877176916326,-6.4443056409482455,-7.581570127851859,-9.391950888940766,-3.6595177005861945,2.162442710643931,-4.234454606971175,-6.1675075515706705,9.573900769848638,-8.618546811209335,-6.991325497585087,0.3020640719081727,-8.02771437359522,-7.776741216736314,-7.0606530089978445,-3.5889733057289592,-4.969519845246091,-6.324292775066346,-8.340283414027509,0.7953411280603031,-1.2880930892844886,-4.6247136601112135,6.06834047220223,-8.881545996870027,-16.293571235436286,-6.630096086200295,-21.324143807735027,-13.572891067461818,-15.8181886944518,-14.063929953637267,-13.22016137180384,-15.362136715989667,-15.453884270185554,-14.525248593187715,-8.903796118391242,-14.308042725317016,-1.9143912358900512,-16.132664238290992
1669981703.69822,1669981704.69382,11.744179964065552,12.739779949188232,4.0,47.67509195212232,0,-5.912634216073288,0.836485979095004,-10.542852122383355,-3.636777594163739,-10.27995271605004,-6.008567214724792,-6.79885500515777,-6.187228212052136,-9.36747901060576,3.2066184313926858,-0.1993843230585264,-3.7620464716267654,6.897167897770631,-9.574341479248332,-8.086542390631747,-6.784892279571136,-13.027475885109363,-9.711663909840144,-9.701358741861052,-4.600432048875282,-7.979934845214029,-8.148217164943683,-6.955141649490393,1.9011347748685932,-2.9904312024751682,-7.571189158933266,5.4785855577855305,-11.024951003619211,-9.703126020105659,1.0279229693603722,-10.354181981486555,-7.0117017456219966,-7.447152956691445,-2.7861823459306985,-6.7569437065471485,-7.478293226435295,-10.613905829597057,-0.480547225771178,0.8749110029648243,-8.675052434837395,5.833149103946713,-12.52471826845024,-15.63519438415518,-6.838653795083813,-18.360833038251165,-14.61643486170219,-14.93288973553402,-10.371078121359778,-13.692758163043578,-19.077174559322533,-19.383479181032662,-14.393069858171287,-9.258453154082874,-16.35997774960721,-3.7232898494421836,-19.414910557350545
1669981703.948096,1669981704.943696,11.99405598640442,12.9896559715271,4.0,51.64005656785691,0,-7.873576632694245,-1.9167324923496598,-11.73845238662734,-2.5645779997772236,-4.700375646955747,-3.422300584580409,-4.829061422793026,-7.658570217840123,-10.156096707498483,4.019304722360289,9.69275284697055,-5.966602702630879,6.1778329750843275,-12.345955463319864,-8.543420481093056,-4.567811207259877,-9.927636954279109,-6.443801982828119,-8.127604513244888,-5.266215884120227,-9.410095632957203,-8.085016065667403,-10.710558695913846,1.1737866096943308,2.2067534381061367,-8.944095903195349,2.2106350178215424,-14.843618077296545,-10.362000924226802,-1.0676432687553785,-10.575054352143695,-7.737496253254076,-6.083216569414226,-5.6905171364841065,-7.542362229886007,-8.03838861755978,-9.188646498009629,-4.104703628966434,1.8037862494100452,-9.571666720275102,4.656407593675068,-10.236959533862626,-17.367716506371373,-8.338052936712119,-18.3820445993129,-16.73679990059182,-13.207472995686286,-13.483147672071183,-16.511221788940116,-17.686039271361572,-19.028910378903245,-12.226585170966768,-9.307768955974767,-17.670001557200422,-4.6774387478810615,-17.656384345276884
1669981704.197972,1669981705.193572,12.243932008743286,13.239531993865969,4.0,59.996653043457385,0,-10.64026284755995,-3.266800838541901,-11.333452398596748,-3.810894938182755,-4.020617959437533,-3.9487487803353067,-8.858453712844748,-7.774264186977567,-7.082041186967497,2.6382256302304685,13.54024089617954,-8.879040850112967,7.269219769811843,-7.846835767355468,-7.636717121975451,-5.844781344862481,-7.135131160976849,-4.692688694191852,-5.678238637713027,-8.279703304632424,-10.189821730696307,-11.302972300724875,-9.142144838984285,2.598644968939428,2.4395787236678244,-8.899119052059502,-1.3553142183299975,-15.393497579951934,-9.815663391058528,-1.9244090610702043,-10.019837715493082,-4.773965180184889,-7.9057492747103,-9.743810659436486,-10.523755648276886,-7.677760449316215,-6.412221583057453,-1.3698367453446023,3.62336024018598,-9.373062243324078,5.284501372134821,-12.34199854885434,-20.399659311740574,-10.44248693120036,-20.55055394601844,-17.701665203092045,-15.01381337518975,-14.606314654336014,-17.693965014393843,-14.64008162658789,-14.681857625302433,-12.418589205403466,-8.920249569317146,-17.56229964770818,-4.237636839559035,-17.2403678906702
1669981704.447848,1669981705.443448,12.493808031082152,13.489408016204834,4.0,59.05374285987492,0,-8.189604656982043,-0.8419066825146015,-10.21500714642006,-3.7871450274822713,-9.253576821625396,-2.5009332199416012,-5.117142799986514,-5.044240803159567,-6.3630157990984095,-0.8430224028745642,10.805915346554574,-9.410824513794234,7.763788722122996,-0.1811541635517802,-8.395277099086428,-4.900931022690305,-9.662874815230182,-5.771711117912752,-12.003417087927826,-7.49416826314759,-4.839323630961758,-11.107154830057224,-9.868039628764913,0.5185711491385687,3.2430412448402106,-9.109758759442482,-3.3802171491581112,-4.425402079413096,-8.155330833008566,-1.3660682654065979,-7.315188125512061,-5.284530833304276,-11.053741291555848,-8.102289331428981,-9.649343536214106,-9.469276790018634,-7.487931057167772,-2.5549596521416404,2.8746333714942174,-6.066409295850951,6.086368128154583,-8.483245364631317,-17.2399133519068,-10.584799363631332,-15.463651344343734,-15.172964461367053,-18.527758766627343,-15.356097738571268,-18.200894377043305,-15.5151430623519,-15.066570417014448,-12.066535951466657,-9.150733061950424,-15.979083565940455,-8.646433551143005,-17.06574120389623
1669981704.697724,1669981705.693325,12.74368405342102,13.739284992218018,4.0,53.536484795313534,0,-5.541619613906451,-2.393655541959488,-12.029097287158947,-5.032106147753861,-8.455153439047699,-3.278174704048311,-3.9436936317422093,-4.951468362634691,-5.461712400982114,2.713830315149491,2.188458892514536,-9.122521775654425,7.725772941009808,6.681418359118302,-6.613707324536209,-0.8238056974808068,-7.7875306072109005,-5.236358570719225,-11.636168666781225,-5.7843631026431375,-3.763198232816309,-4.150984732190489,-6.512369973016928,2.4009527681113663,0.48454136357866495,-8.866343923465262,-0.35729902073792835,3.0453439691221744,-6.614268673492074,-2.532920103051545,-5.270254534343037,-9.542696879466062,-9.496989567035484,-7.91365109022871,-7.9622082439521735,-10.123039560658025,-7.930578079809079,-1.5616960325444746,4.415604386549667,-8.716513254358103,4.778860184707754,-0.32180302932142957,-15.381657193146832,-9.643559745376153,-13.980558858812016,-15.978003246651566,-20.982010883963408,-17.238613363625756,-19.29559108315019,-15.639853259945419,-17.987025538768776,-9.492687167052043,-6.475972250309626,-16.753380089941313,-5.850513634890718,-11.189860911876794
1669981704.9476,1669981705.943201,12.993559837341309,13.989161014556885,4.0,47.08549499931417,0,-7.993946386630602,-2.067010186306176,-13.046819449460358,-6.319699692817097,-6.9489439275896805,-4.760259547690605,-4.951381852788338,-7.684810606366228,-5.760757110834659,1.3207870371437627,-3.3031121146653963,-6.131154216162823,2.360779079164353,1.8929532406486254,-7.7437874504965745,1.2693561645059557,-10.600982183559562,-1.802094956876005,-5.614142595181248,-8.372494679130986,-6.29085741732677,-3.061648647067442,-4.776736995079872,1.1401762778353206,-3.504781423516221,-7.599761718491099,3.6333820332038407,-0.7890461016518923,-5.5447003591334365,1.2193845242610275,-9.847750696215945,-7.965990595030884,-9.220084296241897,-7.486679870300589,-7.071274364174459,-12.433945155145203,-8.9427256412418,-0.2974011227017192,2.3650551638385657,-10.153679994086051,4.769154417043485,-1.437614031134434,-14.278289327902176,-6.237801341083218,-16.643252180178962,-14.238815185648761,-19.98663196218565,-15.714275612733344,-18.932419405769355,-16.694553448760796,-17.780427432214843,-11.027493346618924,-6.353442915363395,-17.53888400103415,-2.4501531788192743,-12.603346412378023
1669981705.197477,1669981706.193077,13.243437051773071,14.239037036895752,4.0,43.516497013993465,0,-10.639854573369176,1.0144044929755782,-7.468887709533034,-6.618182409210641,-4.731264401122942,-3.4269390598362626,-4.313793169544161,-8.532052102843084,-5.596663989725801,3.9739344505204532,4.087128442603271,-7.9345282697727555,0.5937355249457403,-6.3749534947741315,-6.210183193864964,2.9969863998829274,-12.951949880101441,-2.6022339176220144,-7.776232195842116,-5.32293957360743,-6.739474134238726,-4.316842878112376,-6.169453668293999,2.363535425499077,-2.6717385653461863,-4.876198014270613,8.141295566122487,-10.596587959979335,-5.664982853159463,-0.3549351246965187,-10.442320868281634,-4.58687774726357,-11.531494207797422,-6.438811805877361,-3.850092234222929,-10.768259142672381,-9.467125787002692,0.22297243623752402,-1.4742936628748997,-7.975141920382227,6.123511509217624,-6.382563826545108,-15.859794251521507,-9.737083784241111,-15.904041119315638,-13.191631265283805,-16.39975817969223,-15.936731169681057,-16.87039462109023,-16.533232739114887,-16.54035646863441,-8.142360406680831,-9.666762837856142,-16.53718334424622,-2.1975767850620915,-14.414402101873192
1669981705.447353,1669981706.442953,13.49331283569336,14.48891305923462,4.0,44.61816428893039,0,-7.034974725094131,2.938581485289946,-7.392694717463797,-4.501359032236624,-5.847307942250865,-2.814022470864363,-3.167506497892222,-9.815130250807636,-6.382796323194696,3.9998566455089017,4.080845251585894,-6.944913598646072,5.6949921423662095,-5.9709692447123,-4.826844372479546,-1.0337608254671347,-14.3456850795292,-4.046945641066984,-9.680004988357044,-3.510140952641815,-3.9378667417208457,-6.169730615933186,-6.740308932766151,3.781850776512638,-1.96834916176146,-6.883757946714843,7.476597425242648,-11.457660044740505,-7.086038434260348,-1.1953512261807107,-11.93946919997266,-5.623153015058974,-6.586353749201985,-7.149370692153008,-5.017686627554976,-9.493969517191092,-8.075300661072276,-0.461923701162266,-0.08412253920166027,-7.962893213337454,6.219124620298235,-9.197330173008787,-17.02386471180625,-12.080769091941661,-18.412149402143626,-13.012107926156633,-15.942753482284964,-14.053370907138934,-18.697527015143827,-17.406520460335578,-16.27915364363262,-7.796417130312379,-8.347700609200693,-16.558905599556088,-4.50567533575282,-17.982441198477204
1669981705.697229,1669981706.692829,13.743188858032228,14.738788843154907,4.0,46.7640761581116,0,-7.358825871538464,1.4233722660043382,-15.052353571956873,-5.182166776604344,-6.095905518247643,-4.77833935498141,-8.15844183175657,-7.030740079835707,-4.807646365759331,2.0312302210153885,0.16297562032961355,-7.997981013045368,7.915323524871313,-10.640760037501753,-4.7930634432162105,-5.613746591944631,-13.004037713964916,-6.724095488836421,-8.261116218597435,-1.8587033289465047,-1.6895028127406688,-10.046065422113672,-9.246407722161326,2.8527141796139177,0.13009324628440405,-13.91206094195362,4.976397740967643,-9.175954951628167,-7.336604619799219,-0.4543422775930641,-11.757463014996404,-4.977994236635587,-5.85598128962057,-8.431465753391409,-6.724344321786273,-9.304494937727366,-8.514743726268524,-4.456829713254992,2.553732740084344,-9.838393658574912,3.0677562077366782,-9.217514190444184,-14.055766998914454,-12.999964018809003,-20.56854597305268,-15.021886033761824,-15.45696214260023,-14.906788642183749,-18.29798325458729,-17.049318003348343,-16.22334064686247,-10.11120443051208,-5.653701088617607,-13.467739645865178,-4.278830365978117,-20.270958400352875
1669981705.947105,1669981706.942706,13.993064880371094,14.98866605758667,4.0,66.31010502361254,0,-7.2859529521878486,0.3348359013040957,-13.968995396523962,-4.843405419854932,-5.933326477715171,-7.3245103749020215,-10.848793777238171,-7.759511573569635,-6.855185983865929,2.923549576091817,0.4562934808466419,-5.210563410714448,7.068779619174634,-9.704496411529504,-7.451256176356056,-2.1878454110135817,-14.652173161610593,-9.079580638650572,-6.962937868153168,-3.8138250907977866,-4.8194593043034075,-7.471246497081511,-9.984803270773613,1.6260466844188446,1.4635481379913866,-10.667547030486343,3.6788096531869163,-11.219872862163902,-8.615856342853675,-2.200699962646958,-12.375769445652365,-4.175925199258996,-5.971097484478523,-4.90486724024964,-6.765255484903117,-5.608532365839665,-9.236571918085595,-0.736097533666143,2.0663070818397236,-8.364302797185033,2.968453457940043,-8.148664470248857,-14.562685039571923,-14.976803282549891,-18.70720342499947,-14.013825117745524,-13.177686109624938,-11.711530556091528,-19.17445667771147,-14.411411674763976,-16.630335918629367,-7.94222823258809,-8.360917208929866,-15.400426540057683,-4.703713372467786,-17.0291631575256
1669981706.196981,1669981707.192582,14.24294090270996,15.238541841506958,4.0,73.16669369561936,0,-6.623318096739221,-1.6652886142408745,-8.541355891330152,-7.556457577791097,-5.970030920849486,-4.916375576073568,-8.650409467132903,-10.113255666227214,-8.255173127415528,5.0207391819401685,-1.900471253885848,-4.996923753428008,4.416492209614051,-8.694762728387005,-8.627372236159722,-1.745464548752508,-11.04072350992066,-7.265838922059951,-7.110035272868521,-5.227209695338567,-8.776597667739237,-7.3237547925433795,-9.650540627833365,0.9325218800104917,1.1768012392097655,-9.221667758244523,1.6334014655302966,-16.034653785031928,-9.651627682940685,-4.3551687810763005,-10.080255400217975,-7.44089833924437,-4.7186206240160455,-5.879319321999614,-7.959266105508655,-5.703851211296447,-11.193098974684464,-0.5893790044002805,1.2793816713647472,-4.802697791040736,-1.9217073710558656,-7.948088623604923,-18.561882110138345,-15.856974645820149,-19.315422526802607,-14.07466634535211,-14.80063707619178,-11.250274166642452,-18.7797879725772,-16.569280174658623,-18.66302134565084,-8.332202217140303,-8.829441190686097,-16.943529712070134,-6.582980640293272,-15.291639857361066
1669981706.446857,1669981707.442458,14.492816925048828,15.488417863845823,4.0,73.61969066443325,0,-5.174895519586563,-1.3800149211823645,-6.136841589558291,-6.038378416244421,-9.932695273731724,-4.951206879872511,-8.357342970929217,-9.32653333693246,-7.481846532683115,2.721632196267463,-0.38269916228657275,-8.36182469156787,8.46015452950128,-6.700251975550481,-6.799781265390038,-3.848894112726003,-9.68156341545796,-8.934445534667313,-7.261984173370124,-6.109852419429512,-9.874373653035725,-10.252206111284947,-10.7114088103744,-4.242848496850874,-3.7005608397521073,-6.4871082591956934,1.0084482080764292,-11.436411657583827,-9.895345597629174,-3.9133453361481814,-7.998121424130353,-4.939681731055825,-6.817592203820846,-4.660540594578323,-5.258629670570654,-9.631956768674993,-8.371631971358225,-0.672227377769668,-1.7842782184043067,-6.36327967550629,2.5072678141892046,-7.061711226570965,-15.466723155809019,-15.3989542932465,-20.224991258830805,-12.055288023736214,-15.512966145317757,-12.690386320772207,-17.854844572449267,-15.553682138112512,-16.766604993409903,-11.136255545261985,-10.025715425341566,-18.293228331092596,-4.749072049408308,-17.051266065559766
1669981706.696734,1669981707.692334,14.742693901062012,15.738293886184692,4.0,76.30976143778369,0,-6.215284104498654,-0.1352469509450123,-7.699073800915882,-2.460558508613672,-10.858561332160516,-2.0647134766660393,-5.09583454150733,-7.49646046564296,-6.295743463469651,0.022728882226788847,3.7112191695277694,-11.381534291147393,8.809464635051095,-7.3626592952953835,-9.657019084977891,-2.1214344927340774,-8.644754102969017,-4.917572879054911,-5.115949594437929,-6.984578141440974,-10.545321390286153,-11.098078855695423,-9.966637060545136,-0.17879634817685688,2.689908521673592,-6.133452263860903,3.059628259627903,-6.64036357814102,-9.541097382158112,-6.010614718067767,-9.734564155571787,-2.429507924225004,-7.167717217515435,-3.852049531265161,-5.632741625671187,-9.482697897327364,-7.488177375605415,-1.6570472507929974,0.7920303663030857,-8.835647856108093,6.8024320587525455,-5.370069208725327,-14.857966884622154,-16.614080314856736,-19.809406699209887,-9.248902741803409,-14.098277744402939,-11.919161118702334,-18.210528500390055,-17.883993498176377,-16.907895021027425,-9.867181463435598,-10.01947648955008,-17.21725670353033,-2.0727781041799958,-16.747927635467207
1669981706.94661,1669981707.94221,14.99256992340088,15.98816990852356,4.0,70.52908487980666,0,-6.4980296457063,1.0587602625342891,-9.48359191496582,-3.7226771232672693,-6.697920114705247,-3.327606620859096,-5.286370426953825,-8.063287188753648,-7.6726812054531575,4.359635118868928,6.312820017117467,-8.176347552586998,7.30528377503733,-9.066132178532962,-8.213790349039776,-0.9401277821262624,-8.39953240516011,-1.7993006525703172,-5.186387251920386,-6.382196891935431,-9.524152376876877,-10.206218557681057,-10.461364617783488,-1.3241467225789105,3.066744029034372,-6.75811022244851,6.1696630302429245,-3.2453371040276884,-8.528633475787002,-7.323373115000295,-12.28530284385652,-2.7362278185787066,-8.8072949864289,-5.466426423446076,-7.5228442035545,-7.679511145641741,-8.244229820296612,-0.48295567689284286,1.8728519759667899,-7.095230580931152,4.241030848264876,-6.728593206739996,-15.426760149955232,-13.891654430550012,-17.235280371132728,-10.567944021038823,-17.89251324823184,-14.147419128497148,-18.992983811752637,-19.20458108076268,-20.759384104965072,-9.549367233309582,-9.571541858552225,-14.235788566010461,-2.3411682650932146,-16.03060335202554
1669981707.196486,1669981708.192086,15.242445945739746,16.238045930862427,4.0,58.603237755021034,0,-3.3943108451332145,-1.8823027149654614,-7.419380269068036,-3.9946412365947515,-3.6748449164151173,-3.1514407170759946,-3.456865750530293,-9.120535874094932,-8.336984548590618,5.872603456814696,3.367930023968117,-5.657790934773056,7.199860256987389,-6.772554831335787,-8.336769410880024,-4.284851568385081,-12.304377775968842,-4.469732735612572,-4.756343022231415,-4.496354254916555,-5.749544020522137,-11.771158674460391,-10.209382233369857,-0.21598737918580047,-2.199837245617084,-6.686371018248427,10.277845407844879,-7.963348450076273,-7.184756827235904,-5.281191913611682,-11.086621138997817,-2.461954577622915,-6.497927826145734,-4.936788412531865,-7.6466131934075845,-9.073796585406326,-7.470956556190744,2.2190251631548485,0.9231781132838018,-6.8615877590208925,2.7728540543894247,-9.210653342761058,-14.916547608836318,-14.797823686916791,-17.441852988240313,-10.535345368630626,-13.616735510099806,-14.232379360757479,-22.532384184649192,-19.206585670130668,-20.37957413071732,-10.868939336925594,-8.117772997006778,-17.087656580200942,-3.5105545835254635,-14.374869410272249
1669981707.446362,1669981708.441962,15.492321968078612,16.487921953201294,4.0,65.80370229847598,0,-4.357606688818517,-2.7064247491168087,-8.903504787581346,-2.276070205171477,-1.9010792405480208,-4.132462695658963,-4.454148821336588,-7.7501339395520885,-5.688453021354994,3.092152078101314,2.7216252854289644,-5.594451392227036,4.977876907812114,-9.529257646742526,-10.485673346608188,-0.9844818014095933,-6.461868658436921,-5.471170549007854,-5.112874482195984,-6.660858619961607,-5.251211087405714,-9.10126672631148,-7.422644413463367,0.009865107574454225,-0.9094763189790794,-4.675743853178697,10.925947844864783,-7.244938940575645,-8.59591822649774,-2.5402502689665156,-8.152223633187067,-4.111731240057201,-3.8746915501787265,-7.13861663312305,-9.443117616050486,-4.327258050552323,-4.292853499365107,1.7008260721139674,-1.938220363895799,-4.495047546943722,5.526843609144009,-8.211782146455013,-15.16062641938574,-13.621461955054508,-16.228264023662604,-13.020476244943676,-12.367314953726511,-15.77353632512511,-19.67441921978802,-16.74357324721347,-18.64717078358478,-8.579212307910927,-8.536069572759747,-17.362610614473084,-4.168384466920377,-16.96270092000627
1669981707.696238,1669981708.691839,15.74219799041748,16.737798929214478,4.0,62.46332181341136,0,-6.556734596329762,-1.5712808138134762,-7.5230248778067725,-3.359553671622611,-5.809182598206574,-5.360966169089371,-6.479798537123561,-5.34812210146419,-6.147437660754116,5.55840228350309,1.6295552483515539,-8.76934624830588,5.594476921722956,-9.135893898482031,-7.468460774418509,-0.28653659756713157,-5.123142913182881,-7.860435587546926,-5.991781090391493,-5.008651274618355,-7.119595904420759,-6.189564501577735,-4.720424344987074,-0.18826078072004052,0.32319411235107537,-5.91972393110408,10.050375529633097,-7.544227688107673,-7.190999850518108,-0.22195282220220183,-10.522008197857806,-3.3846537772535177,-5.821487187152653,-4.173023064389631,-9.039788397679514,-3.895512256747896,-4.497576251063559,-0.04090685249635995,-1.2896450368848291,-6.887603301527667,4.876007003571719,-7.17284191858457,-16.237029828246627,-10.086497505706667,-20.710600529108913,-12.20746232865592,-13.474690024769892,-13.899752466260365,-18.707126564655614,-14.681707631600599,-15.963669404329002,-9.973854740475474,-7.469262650783939,-16.374075315615425,-7.08708835495162,-15.796723116253762
1669981707.946114,1669981708.941715,15.992074012756348,16.987674951553345,4.0,55.31945141032539,0,-7.337802200749593,-6.8298144091930615,-7.072200003331036,-1.9744329076942158,-6.300702826643754,-4.591037673093645,-7.941784693455203,-6.543992775259747,-8.112507284625872,6.959056312276354,-1.2817161366139738,-9.10771901898249,3.485714301443755,-5.522419152072844,-10.193031148351343,-1.8875133365272,-7.933639927800529,-6.00310638740443,-5.835722016441196,-4.935637903233295,-9.606976505749381,-6.4329310134171855,-5.808793136131067,1.443814900813722,0.5706432428502775,-8.999360542734818,9.22325958555048,-9.150994687222944,-5.026919854310133,-0.5968525035046006,-14.413790110857729,-4.116045036375509,-7.503055068852451,-1.6672726928434336,-8.516249203255878,-3.9805722166464212,-7.079142467613626,1.1043160894215407,1.406820213628951,-6.462572296851164,5.327318676754475,-9.31080916962178,-13.808366998317451,-12.196400538939564,-20.99788893882476,-12.224420128751794,-15.933140207718179,-9.91097644020327,-17.448537739261795,-15.328043461301682,-14.226339600926174,-9.969102182759972,-5.385932381985102,-13.802495135226378,-5.70654518539861,-15.846795242221539
1669981708.195991,1669981709.191591,16.24195098876953,17.237550973892212,4.0,59.35836158068939,0,-8.204233689525683,-3.8511865291823373,-7.635581528777485,-1.7507802410326136,-4.80299448741415,-8.506251055966287,-8.004242721798803,-9.297711691757236,-10.075648534311823,7.403140803082133,-0.7037817565895879,-9.413800840214051,4.782825863835701,-6.306962878957057,-9.620229091106106,-1.4334259944149144,-10.674994854848736,-4.850826245365846,-2.703310727581207,-8.83988868873701,-6.89745031711245,-11.554424688017482,-9.288153437060767,1.8418315044744136,4.443815339253682,-12.092593545528025,8.418759408485945,-11.730685689089329,-7.628237513165159,-0.269773767185875,-8.817523581878074,-2.6839960598398633,-7.53336716823026,-2.310174116556008,-6.006420182841772,-6.107549397572142,-10.631653913980795,-0.693682717840576,-0.19136089689329613,-3.944855072808975,6.160466560638768,-11.582748171955377,-14.192854955631983,-8.558049981951726,-16.080583778233624,-12.80405078549597,-15.5597557900201,-13.27301156132773,-15.0213377195349,-14.67695092229302,-16.094620183929973,-8.957667667676292,-6.402557030093632,-11.367107284670466,-3.894054822815093,-18.0138241518906
1669981708.445867,1669981709.441467,16.4918270111084,17.48742699623108,4.0,65.25919360388782,0,-6.500752444641549,-0.9217859226971801,-12.032489959663867,-3.9260550934808904,-4.623625991566138,-4.391220255834616,-5.469485898064956,-8.170241854170957,-8.90304937253264,6.576129516834399,-1.1244634449908713,-8.714313243148073,7.715086270689376,-7.795831109536505,-12.200334598019833,3.2087058541130897,-13.158531474658039,-4.545599290222856,-2.730082983247932,-4.795465628498566,-5.59537758920662,-8.178212139826531,-8.049381543825172,0.5356227668273632,3.428719382883896,-9.467139302754559,10.05915864080453,-15.406540092406036,-6.332497378767686,0.988382618964818,-8.071595098808269,-3.221196659473869,-5.762170207532824,-5.06960453467232,-7.610930415973028,-8.727309248003598,-6.14657042838771,-2.3807614167592277,2.7876193385955568,-4.546849806580561,6.20048873305969,-10.614915413741329,-13.469441885071005,-9.54967472900063,-15.261574032100258,-13.644411845904825,-14.942740959080716,-13.95371501839402,-14.510923142977894,-15.668873099407927,-16.24764284577628,-12.104992353149244,-5.617760960889978,-15.29034648199222,-5.282706442691953,-17.866263852181316
1669981708.695743,1669981709.691343,16.741703033447266,17.737303018569946,4.0,65.56825414717088,0,-6.638058659909454,2.3335226360397647,-10.411508678559274,-5.369169715265784,-3.1728576856372293,-2.6811815079797565,-5.5272339884867385,-4.478789534422053,-8.292791751897536,5.57515581366656,1.1117258557679905,-7.0018458868790105,7.0646830339267686,-7.945630992561128,-10.611502835496932,2.908939674966255,-7.550513515830057,-3.5793489378361976,-6.220164913506788,-3.9840931363717855,-5.689974160963198,-4.920763507505008,-7.285898722562658,0.19110272035141793,-0.7935158582912255,-4.414002364519822,9.2207089580242,-10.62630060500208,-5.600151686248961,3.981679947297173,-6.92135926733685,-0.9135962613520703,-3.7023071833050114,-4.905056993741286,-9.938144336475327,-4.503733818214368,-6.654000305935664,-2.079486541012485,0.6728696978802505,-6.581244834539649,5.996102912933096,-8.44005013513722,-14.576863144739837,-9.834323352338219,-15.663049927197147,-9.27236993577253,-13.60915538511387,-11.809114603072786,-16.66299844204703,-10.989239943087078,-16.779163028785554,-9.764573668977565,-8.060366694444046,-16.035390710931043,-4.587185012236374,-17.46474105459168
1669981708.945619,1669981709.941219,16.991579055786133,17.987179040908813,4.0,63.02136529480076,0,-7.920238708590763,1.967350203686515,-10.609992181025362,-7.186959082007731,-4.360820742119226,-3.0245068058176923,-7.879410377107126,-6.526431495219947,-8.241504245816827,3.50527820803233,2.065077053873784,-7.845848226439504,3.575854920321469,-8.317064711321953,-6.704340991412642,2.009606299639255,-7.718269624916766,-0.30901712434568757,-3.9348632859790458,-5.215312963322361,-5.221611576766557,-5.709795491756671,-5.92438708113732,1.3727262274107894,2.3240310767581422,-5.232943681928396,7.956182271895936,-7.551705449601501,-4.834638443110107,6.223457276247912,-7.044012363654808,-2.144973627156663,-3.0427255333546004,-3.4742381316148507,-7.367103786525231,-5.99460959965472,-8.76413329589726,-2.3285626056321225,0.3215696447004395,-7.226230928902034,5.51831681783952,-7.859576611399196,-18.298473141269106,-6.764452657302775,-16.79796997912559,-9.487778154935636,-13.2311506963891,-10.470554173725484,-14.768609418309701,-13.327757769346071,-18.26354497563059,-11.016599622880253,-8.762053513224973,-17.29182656048365,-3.8804501839144874,-17.83500947012166
1669981709.195495,1669981710.191096,17.24145483970642,18.237056016922,4.0,53.97056507152778,0,-8.839312179335083,0.06740828650785331,-9.228142176808262,-12.823449455884411,-4.725668127838821,-3.0390516811376855,-6.324084122710291,-7.119525384731739,-5.26934169580281,4.000878810184137,4.013150799181291,-6.177867772757849,5.8154155320397924,-7.805152067773625,-7.846417412340337,0.45321487924949355,-11.471545845687993,-2.10687613192092,-5.542604056994534,-5.978990979258531,-5.7472071412977765,-6.69035289236243,-6.188853938869463,6.083098362530281,-0.021552157754967882,-6.87297863122142,10.300027071243303,-7.12556593500794,-5.101083484165131,3.595869121484379,-9.495571504100367,-7.048797794455198,-3.481141436923061,-3.5669618894373007,-6.414350800547788,-3.534180928721622,-5.914064865359773,-0.666654355629745,3.0698565818215533,-5.94421168517199,7.345597666457582,-9.927634316726696,-18.271224268001504,-6.931411543212316,-18.253079393943256,-12.76329487666275,-14.685421979569073,-10.478020567892177,-14.422666679940765,-12.14171816981176,-14.649936626177727,-11.664661255735684,-8.895169920414652,-14.883385445978627,-3.5889940251781614,-17.727087217038253
1669981709.445372,1669981710.440972,17.491332054138184,18.486932039260864,4.0,37.31404724076179,0,-7.298466964920892,1.784124201490648,-8.731800766381925,-7.744858474392302,-5.322825688236406,-2.2646335405884694,-3.5634775839861064,-6.441500435613125,-5.520473827284461,6.131455592055712,1.9162681991235924,-6.565581930863441,4.157037930542354,-10.406253129319252,-7.514344154822608,3.5352166839071515,-5.988968055422132,-4.40222964675904,-5.712748525821696,-4.627870032668587,-6.348371619803494,-6.414277880952301,-6.682302468764046,4.940454011054756,-1.4845368428582644,-8.29572451393691,10.039281494829309,-7.30094623247045,-7.849744784390463,-2.114927732329439,-8.63571080106768,-7.03078053308627,-6.929214028156312,-3.534893230037744,-6.161893258472791,-4.260952013160191,-6.749084578366469,2.9163509901144296,0.215797559746491,-6.73394847473804,7.330567209637976,-8.02496063403516,-17.415996152427876,-11.73671192575899,-18.89454104014009,-14.549444533610183,-16.197826457194108,-12.888697196109717,-15.435667315707926,-14.023733728391017,-14.446823007300383,-8.809085702393643,-7.232833652240007,-15.14543904108801,-3.0643934223497453,-18.5143344916881
1669981709.695248,1669981710.690848,17.74120783805847,18.73680806159973,4.0,44.02523735390719,0,-8.850682944295567,-0.15942668916031488,-10.73610010562678,-2.3354211566912912,-6.707196835382119,-2.270337410401396,-3.5222914029344796,-5.654849597780823,-9.131867623280181,7.081623791843233,-1.6616009352838204,-9.281444973721719,5.4001501076545155,-7.862155348959877,-8.201870815861936,4.4294720830060745,-4.845236859448095,-5.184411434066102,-5.532233536122053,-4.735188708175613,-8.426228897412177,-8.146974468981243,-6.5623348945260815,2.1959413562909433,-3.0986710696472493,-5.471673407542789,9.284745852062875,-7.352279405074302,-4.980308260046237,-0.3946789112216223,-7.149997330235019,-6.069471310744218,-5.121238454829239,-7.656473883179842,-9.932028875137593,-8.292356279558662,-10.19301827505698,1.7290562883254812,-0.8350531692217616,-6.801862260204922,8.04042427165832,-7.135485701538322,-13.412289938926378,-10.145063404692063,-20.079869154399987,-14.800501548090633,-13.462349883474403,-16.13179711700625,-16.593575523199227,-17.05003493395867,-17.55716208179395,-8.333512024351624,-8.521373948136254,-13.953628494021775,-0.36399881349097446,-18.566460146246943
1669981709.945124,1669981710.940724,17.99108386039734,18.98668384552002,4.0,46.109002340624656,0,-9.969396760478212,-3.47541216845615,-9.443081136083734,-2.3332132518029463,-7.68833389546943,-2.5300315434971488,-2.6072122479496573,-6.064480304004233,-8.745636345044696,4.331439846508213,0.2625154246931557,-7.288905556573866,7.040974646670575,-6.275621578156043,-13.377186513859144,1.9413388283371447,-9.996577499860193,-7.409596460936435,-11.15610433282409,-7.581514402275471,-12.194075203088172,-15.342698717455026,-6.661882157724044,0.9945588508275636,-0.7533137482046336,-7.2754346948002935,3.6201146784572207,-5.540269138192496,-5.003738647595306,-2.265009970057797,-11.226386043294683,-2.8274576797520776,-9.08781926900401,-9.333847578951998,-12.207159760010818,-8.416440746815926,-12.15451243409685,-1.858910887525052,-1.3954416262550697,-9.561631391789565,3.8118214318112678,-10.450448656703157,-13.212262871569118,-8.66604422419815,-19.980894673665517,-10.071197469503216,-16.306955225133276,-13.960357393184013,-16.885922557617263,-17.634732028380196,-20.15073460739911,-10.666545674467361,-11.290734758951565,-17.5123748958308,-2.2089907545896916,-17.358412112669892
1669981710.195,1669981711.1906,18.24095988273621,19.236559867858887,4.0,52.53449726997063,0,-13.315152080319638,-1.6261898982794576,-7.209487139452153,-5.56376806562224,-5.024972859248283,-2.3849551898350456,-3.1970157679010085,-9.53805718346621,-6.570646854410195,-0.11555451937248064,1.5087770415445756,-3.6110172547675248,7.6538515945669685,-4.185462542158937,-10.604137689786988,2.1402895955957266,-9.802135787914949,-3.5311043326488627,-8.06185008717413,-5.95300361358539,-8.434747127617197,-13.740093344789596,-6.282256535342462,0.7616359243058168,-0.47241206878133996,-8.608698867078164,2.3913709634297615,-6.7391676177547275,-6.263212695526729,-3.1621104664658244,-10.405156188893159,-2.0050203845930743,-6.679616912969044,-7.226648489461559,-12.71650600140919,-10.160175833899086,-11.09054972229602,-0.7579801846524259,-0.0964144775356879,-9.095370627612548,2.38764087291,-9.892648002818895,-15.015756794171782,-9.884769562370774,-17.97879705958949,-9.512077409739902,-14.128108764135845,-12.466107989631801,-17.83422776565184,-16.750119683299538,-19.541419565458092,-10.904878867969078,-8.943616418040198,-17.100893065838065,-8.212808396651534,-16.068039518358784
1669981710.444876,1669981711.440477,18.490835905075077,19.48643684387207,4.0,58.63748387557756,0,-12.085657471002747,0.5609339548968352,-9.52193875016604,-3.7379620707250414,-2.1735355053257357,-3.2289382282742496,-5.264248287339645,-7.077659818048218,-5.376368284740771,-1.6674218975155664,1.8259686350744126,-4.601788469805592,8.93699222862763,-5.12334009676192,-6.267483843554144,2.301695536278252,-8.134558040256683,-1.0610260686630362,-5.362402866860977,-3.639018382814787,-4.751768047888337,-8.075153195620423,-7.22801583953665,-2.5158900940463784,2.459426491763778,-5.918101376833097,8.27282435807091,-7.549386071009415,-6.658419231599275,-1.7189418798640934,-9.72378984461147,-2.452969957004094,-7.4811479153510785,-7.174028266744794,-7.759393647760492,-6.481568366179081,-10.053471908808083,-2.1305929364918526,0.47705797166365493,-7.407751891719572,3.094492187218216,-6.493497709326199,-17.10658330150413,-8.823943428069686,-19.285498628065074,-16.791652615793762,-14.606123845033078,-14.387185679634186,-16.401061142884473,-14.01016349476453,-18.80062075182628,-8.859149552819957,-6.502471266937972,-15.929843913487144,-4.214547304784343,-15.756609352731438
1669981710.694752,1669981711.690353,18.74071192741394,19.736312866210938,4.0,49.3875710504261,0,-5.886761322121713,-2.617447208281765,-9.317837832007482,-1.4493656747515737,-4.555144292741354,-0.8620604514756985,-2.3876048820977314,-8.27761802331163,-6.940442481333891,2.2660745888744445,1.9806607467758348,-5.3255347052493995,5.697267751429137,-10.188523634516343,-5.964591751060059,1.7531806510136856,-10.3932145734351,-5.96951184808873,-8.073393780243004,-7.387212477676439,-7.254646230789323,-6.845083395320688,-5.27682310157523,0.33493721128581044,2.176848631741416,-5.000242647203815,10.838726839816582,-9.288716883408439,-7.482353555184087,-2.1259391053331345,-10.821955011839284,-1.908745061236203,-7.420569069995424,-6.1014373820421675,-6.793699458064908,-5.889531047169477,-8.72925373294227,-1.9790928017380371,-1.2864184849031592,-7.418872580138064,3.1939509324220756,-5.659777760779247,-15.403208104934855,-11.161718548306034,-20.104310569712226,-14.263939461828215,-17.343572723794033,-14.937413082915313,-15.03242899444696,-13.230568234828908,-17.027987781089372,-11.098179129111237,-8.40961245992885,-17.153615430291502,-2.796163532466245,-13.11501275969837
1669981710.944628,1669981711.940229,18.990587949752808,19.986188888549805,4.0,47.98071510997891,0,-4.97918009075195,-0.17159107598211334,-9.116644458739268,-3.6714536093284504,-5.633232404085337,-0.3263895079839571,-2.977134974879279,-7.740936957227932,-6.65612593234722,4.760026485903468,1.550016343192029,-6.142130814110174,6.562386476155772,-8.458432141950444,-9.049245397777772,2.818259772889504,-12.096888032106932,-5.830869235988862,-8.724332162939229,-6.571679051528254,-6.918942783403962,-8.011117929926598,-7.423959385623556,0.077233390306141,2.2603351906056575,-7.268441520668908,9.418771823751204,-9.304492950216133,-10.318763163789242,-2.3894303162773345,-11.755260709856831,-2.845692961944019,-4.586948154179281,-6.495977426353794,-6.77517107319617,-5.985252124211035,-8.434921765475362,-2.137707472491732,-0.09018474370089852,-7.5256587078476125,3.9143836352357835,-7.535125704053113,-14.95000053306843,-10.654095146105629,-17.618087440251408,-12.820986586037664,-16.905498539551502,-14.118430802179534,-14.778346401832321,-13.853535317920105,-17.111653071099568,-10.620646250612149,-7.967370773607916,-17.552611499936305,-4.507848703836376,-14.924401271375558
1669981711.194505,1669981712.190105,19.24046492576599,20.236064910888672,4.0,48.09960504283232,0,-4.709349630114233,-0.3876705726944828,-11.593375289052233,-6.311791111212518,-8.246858281299286,-3.3703692548340527,-6.457893501741959,-8.909216018623724,-7.59656370003031,3.767502804136339,1.2452235085841887,-9.16230418012036,7.992442207508635,-9.842209003838484,-3.9631401897196428,2.008761574482732,-12.82771512017709,-3.1153091065575844,-5.188765035621988,-2.2057394798672583,-4.659628256744926,-11.958383463765346,-8.45328599280101,-1.9390177586576771,2.7134942637139696,-7.973590188341503,9.289346011134803,-9.309776777937982,-8.782828072060568,-0.8515008514559151,-12.391328271230275,-3.295351520937093,-4.4130477665535475,-6.292585743821881,-8.084045343691797,-6.934731297784282,-7.889891766023068,-3.4123226114047025,1.1060172654086131,-7.518864551245265,6.496883913228947,-9.416778589162806,-15.458374312013966,-8.129425753382932,-19.281983526526254,-13.052639224259018,-15.11870037642469,-14.656616177845635,-17.34818637495102,-17.53096053082485,-15.755244999356604,-11.430659897198938,-6.585130490796778,-14.468795034466853,-2.950445797085722,-14.950034801022998
1669981711.444381,1669981712.439981,19.49034094810486,20.48594093322754,4.0,38.78547445721024,0,-3.0936929019760107,-0.4053954487365057,-12.050330725529726,-0.16729125653493004,-6.684364196450425,-2.4004479136554604,-4.577474115593874,-8.742620412542944,-6.297882931990025,0.5366958724406747,5.72593461378492,-10.419421972719455,6.061532890309918,-8.768145637551694,-5.2667554167052515,5.195375473947462,-8.781113596016768,-3.8105428885993264,-3.7922189288061716,-2.9297394362423583,-6.818387622139943,-10.182536630340921,-7.56157582571433,-0.4106844829355294,-1.3603571187730341,-8.319850135402893,6.660858447077284,-12.276655741597866,-6.976488003643025,-1.8032539147895816,-12.11268989502243,-3.5658310784784653,-7.024210338774902,-6.782466581364464,-7.409464047121234,-10.373297031118591,-9.89748266567531,-3.3188116908656746,2.837673882768825,-9.624466293019491,6.087008416721681,-11.316673089268166,-14.407955890460096,-8.755374203110785,-19.085635852330135,-11.66588135249425,-18.013457333871436,-13.684897300696576,-16.771697183149424,-18.933938671998728,-18.800512880571574,-14.914664029324705,-9.634113930785066,-14.384532200762557,-3.7203226407824093,-15.519855274031006
1669981711.694257,1669981712.689857,19.74021697044373,20.735816955566406,4.0,43.01027257930951,0,-4.83291240707341,-1.290071865791431,-11.13343245961833,1.0584872235735026,-6.407701575879756,-3.4842938841960924,-4.909437462829535,-9.100755494349924,-7.050444320144362,2.7950341298184296,6.336862887997264,-7.797974267142768,3.696199978407143,-10.0138770612719,-7.595962760301576,4.041987485242861,-6.816171703542295,-1.2133189308988106,-3.057219778698292,-2.9590783863669943,-6.343480986339946,-10.036043570831769,-5.861872660570588,-1.791504802001484,-0.6280272445232915,-7.305041603696036,7.739397971791092,-7.059396877930376,-7.932351781324964,-2.7226878100748304,-13.691512540741808,-2.0808304332054384,-8.62756503869041,-4.67649134692671,-7.707311032216487,-12.660689706858484,-10.222528402242732,-0.3820935703606853,1.6034230086516317,-8.633571369773575,6.530189373932455,-10.116768789041593,-15.87341205990147,-7.996195888473185,-17.130036911156058,-8.868646768563625,-18.7941347322948,-9.914806135968592,-13.58566025584194,-18.283514238468765,-16.337686800245223,-10.998738700276611,-8.655717106370426,-15.59328326363985,-4.119613490490153,-14.851351143173282
1669981711.944133,1669981712.939733,19.990092992782596,20.985692977905277,4.0,47.889530235802155,0,-3.406187880424925,-0.46892499494159573,-8.166776243726945,-3.327366365823814,-3.7723384206530426,-4.351953863077338,-5.544733642728266,-9.253018671100122,-10.469043341604667,4.316085931078711,3.456117454267804,-6.76630897888953,0.2597082328597612,-8.772702709599498,-6.074004496174222,3.065825438415275,-6.00694914742216,-1.3265795372719358,-0.2155837242580898,-5.105857732952716,-3.5916789722875118,-10.35522515423154,-7.70492350268947,-3.25992620274496,-1.950600602955848,-11.138109533617405,5.675696939219717,-4.727544743925499,-7.628113090000666,-0.3837995976546653,-14.18751458279775,0.1664169375649706,-4.006456407762993,-4.933001956575997,-6.895339590685287,-12.528236303958206,-6.179736330450837,-1.9241609614715116,-2.5432184354011356,-7.398348232125025,6.874504682881037,-6.955597462564293,-16.634259760437626,-8.575607521535517,-19.35265126163271,-8.171149920961788,-15.153722941985052,-10.580417533231323,-15.37165494850353,-17.006925391214903,-13.161409390342127,-9.703835149900478,-8.558186338772774,-15.334068581648646,-3.2100649131402346,-14.651780963733621
1669981712.194009,1669981713.18961,20.23996901512146,21.235569953918457,4.0,45.72840690706067,0,-5.570446517271739,-1.0295499097033716,-6.794313306840096,-1.4775906285460008,-5.81139022049181,-3.600631173527737,-2.733814719038495,-7.479468161328665,-7.736489995969581,4.475669698597117,1.0531983847566206,-6.869308677202385,2.2097542225950852,8.72727243169513,-4.0398280787375045,3.488467272177211,-8.305301625767896,-3.048815844943973,-2.0707466187387586,-6.07305492929203,-5.548229428668828,-10.682958033646825,-7.356027643245067,-3.4936071970965066,-1.955233306817329,-7.632644640771797,6.6073160082559745,6.673739846905646,-8.417438214714458,-0.558835758113459,-12.533175474208235,-0.61737959709681,-4.9620276273306105,-5.353485054688213,-5.083274052824698,-8.677455747804867,-4.664165907414512,-0.11284000092077506,-2.636959380778805,-9.029973577355522,8.14058878576507,1.138643264997174,-15.323662255421395,-7.244651287015577,-20.644227674127883,-9.18924382369925,-15.342004244878193,-15.863207720513861,-16.023778751332195,-14.097485754324449,-14.035622594034411,-9.776794906777202,-9.654387946038836,-16.93733968379786,-1.0077289375104581,-8.08075720339785
1669981712.443885,1669981713.439486,20.489845037460327,21.485445976257324,4.0,57.005275918229934,0,-6.345840857865995,1.5755407080090398,-6.890466344484926,-0.17479296409980274,-4.500144012162279,-3.7348310436466905,-2.495555460024834,-7.257947996355368,-0.8274864139544307,3.2975125944880683,3.339108830260535,-5.682360366344838,3.6319628911389823,10.949869450898259,-5.858837344944918,1.2726845033486676,-10.481461707549524,-5.809624775005994,-1.7755891981580343,-5.0276783658689865,-6.495763770381302,-6.95055252526261,-3.9274455199468523,0.1252026000474079,0.10571124026511353,-7.402892366995336,8.769640968277375,10.258815139033695,-8.420450030060756,1.5664335554480224,-9.869808969208842,-3.65810030373099,-5.519297703476861,-3.209480683350685,-7.192168534966756,-5.6290341056978885,-3.809701981968787,-0.014188790058910602,2.630487018795505,-8.870779745929134,7.609994590927455,5.1636438158464015,-15.445905719935144,-5.619381550752508,-18.486855554089804,-9.993520474334865,-15.275018693646684,-12.89239216302187,-15.985340804943151,-13.514298793606558,-12.650446493590923,-9.29811212088309,-5.690684666416281,-15.831933430933635,-2.194385494664048,-5.96109413646491
1669981712.693762,1669981713.689362,20.73972201347351,21.73532199859619,4.0,66.24036650326556,0,-7.114672841565705,2.043220632137585,-9.590548706130377,-2.3388494900432333,-4.820349256616808,-1.670200565193241,-2.761572169652831,-8.088325088957966,7.56113268774175,4.625754407885551,3.5198428539125706,-5.330091105231038,8.409122215610198,1.1811446872659341,-6.676979509334685,2.31296422603505,-8.394097121082556,-5.80973555764401,-2.027545784470282,-6.025998352190665,-6.020729538096273,-4.33414226728528,3.5212305050815096,0.8668277990626703,0.5943551966147163,-5.928760081856331,10.70599595447052,2.6592565051273054,-4.718996074541871,1.849400628673239,-13.245143526542336,-2.609893392058706,-2.832320596554148,-3.0525994180209763,-5.00222620568816,-5.215815655902757,2.530093051472668,-0.9547937869359956,2.41905601591485,-9.584272390353027,6.859594924705162,-1.4420954781880964,-13.871395343309647,-5.945649562887497,-16.61969020801205,-10.43463469181604,-11.735086313720114,-11.184530864080704,-14.29308247861952,-13.404154821554057,-4.883321433459683,-9.279018240072222,-6.456463572749711,-14.950621947961316,-2.9024102912488736,-12.590980673981289
1669981712.943638,1669981713.939238,20.989598035812374,21.98519802093506,4.0,63.31056281740653,0,-12.360414030962875,0.2449917874853621,-9.841875592116958,-5.039333278621024,-4.905826071065468,-2.717330591246566,-3.533714595301593,-10.785694625601373,4.081776677854203,5.005666939084829,4.81624902911358,-7.826676582421173,7.494032927343881,-8.933508277442376,-7.039699639187761,4.521398678922846,-7.94004387954005,-4.074765317645064,-5.525386023062069,-6.973934659859521,-6.093679619416203,-8.759124048446917,0.20835161857604562,-0.021480825896413282,-1.3682916352747954,-4.600351850871936,12.205521597415958,-8.651412285729025,-5.375170680130124,0.985942419076069,-10.612424073911342,-3.9189446384792874,-3.2541871406719536,-3.6741121370654897,-4.532293766382426,-6.505449167411195,-0.49007522896502614,-0.843357413584122,-0.30093962835546684,-6.253389701167736,5.953352920619998,-6.339457996610087,-14.788040386412202,-9.315658937609246,-17.331695102328318,-13.733609753121005,-12.165411130988414,-11.859648337704849,-15.787424158603145,-15.320415219172736,-7.627215011787797,-10.41694870064415,-4.695527117446381,-13.304866354440472,-4.101377861643993,-15.916485709069912
1669981713.193514,1669981714.189114,21.239474058151245,22.23507404327393,4.0,61.76719172460089,0,-7.885031573417471,-1.2914170283146509,-10.338662315213746,-5.633906018483305,-6.389747002315738,-6.9633581638974364,-9.875453225749727,-7.7509950413991335,-8.981870415664016,6.582236602718055,3.2786384706105425,-8.41187359761267,2.3453041752280197,-9.144494852812006,-10.856839968750176,-0.0060914085584455255,-8.943399951720508,-7.550397024942994,-6.854710614017064,-6.585058380946655,-8.475982638055786,-12.787137523415364,-5.006378255194135,2.006366808854572,-2.3282578601595825,-4.452037226605654,8.699900395155314,-9.023721767255186,-10.087107435957709,1.145123962872581,-8.228031822370081,-4.065554214370489,-6.855896890913215,-4.531921182430119,-3.6608252023193257,-7.617736790579129,-7.787506893293736,2.1672948001100583,0.8047306479292076,-5.951780814162376,4.302539696450948,-6.622534670263117,-14.767162035392564,-12.363706172964779,-15.432520575056763,-13.326159846980133,-14.955006052986725,-13.834949531485236,-14.5841942372922,-15.697714891545187,-15.789179572053575,-8.337524974773373,-5.049408792902394,-12.400415875029246,-3.389217770942623,-14.556946413184956
1669981713.44339,1669981714.43899,21.489349842071533,22.484950065612797,4.0,52.64650522496524,0,-6.617385525579413,-2.293522815189597,-10.118054926755725,-4.405956726176222,-8.671644986571309,-7.350623648672202,-8.225213873149833,-8.879733122249245,-8.750855768312032,4.903869000166877,3.012731986856764,-7.343352802754275,4.263782474700327,-10.126508056903212,-6.738185849120615,-1.8376205915275003,-8.809178701198414,-4.646022178378034,-5.653760411189301,-5.541018597962357,-9.931997231564601,-10.067238583879854,-5.956519741538723,0.5109941317304371,-2.9902007755156585,-6.476968129010297,7.062492241020266,-10.495535649093767,-10.484116372711014,-3.112200876417441,-7.774628580062566,-4.202461652861374,-4.874128496190666,-7.119350253937208,-4.428181291719309,-6.355791189177751,-5.984718109633995,1.2345674251334464,-0.28351873587392773,-4.692470043397004,3.79824219029935,-9.257938556952622,-15.666706009843033,-11.993482183426593,-15.409624195050505,-12.246073683501457,-12.519288061495379,-15.212017652004633,-13.467255979789991,-16.161768229375017,-14.149727578901576,-7.329938933696464,-8.477751715076693,-14.281317781955094,-4.692509621696899,-15.613702641635117
1669981713.693266,1669981714.688867,21.7392258644104,22.734827041625977,4.0,38.466033249758134,0,-8.593161888329723,1.0771394897615103,-13.026607099959033,-2.597378577910315,-6.800225144396741,-7.991748984085973,-8.174614794405514,-6.594343450062622,-7.825294353905168,3.831929410234177,1.0402505598136316,-8.308392174029361,7.013532796556601,-11.251296143761627,-5.51637570544057,0.47856489508828426,-10.587650434481938,-2.58230337952371,-4.70219375183599,-9.269808041122893,-10.754034093602268,-7.947973209953885,-7.266674608359526,-1.8131808821128996,-0.8345625299659222,-6.4396728703597175,10.858570079928276,-10.403612926596963,-7.639729486794917,-3.8355490540849173,-9.741900557619157,-4.495851870441626,-4.957396491767038,-7.674519110185132,-6.720704607981958,-6.091680931167622,-8.350716124092711,-1.5791320845430878,2.8290133338305887,-5.229270940258889,7.08923428222982,-10.41898159682935,-16.30624543870511,-11.460788683973464,-18.808215764306308,-10.58085808686261,-12.505631683627204,-15.504923412030296,-14.006885177331583,-16.763721289217916,-14.810597631576211,-10.96485706271544,-8.116169025665192,-16.546498032576014,-9.732331786843964,-16.177506974304137
1669981713.943143,1669981714.938743,21.989102840423584,22.984703063964844,4.0,38.94402041537188,0,-8.845067297882128,0.9211248946076824,-13.62716438358107,-5.519770428196679,-7.3741820510459055,-10.825621980337225,-9.607987340498521,-4.577845672309671,-4.488792012776373,1.021161124439721,-0.13955153348035718,-9.953201965539101,8.338235122489696,-12.846245251288405,-6.081888215214053,-2.1882312132467163,-12.553847643781612,-2.901017605760177,-5.722486858424855,-10.061321547116295,-7.512066768867173,-7.36592515699945,-8.222523662703978,1.0560035577550282,0.34301815729563134,-9.687116889619032,11.151259060520227,-11.998271902341509,-8.770538908391197,1.453363450658911,-9.175570282081956,-2.74818878402904,-6.7067413112230145,-5.233716761054833,-5.530023511589512,-8.165298334597985,-8.944148144356003,-0.0032663644054540582,3.2309618660129233,-5.301948673943754,7.996840194568568,-9.529542980088143,-16.237226334379507,-7.720903796769848,-19.597245921665753,-10.122092005164799,-13.535897363771207,-14.709195853830897,-15.05511292303048,-19.369976206080253,-13.85224980369896,-12.51050771809889,-9.206414053459538,-12.410013330743169,-4.221984859757475,-15.680705202033971
1669981714.193019,1669981715.188619,22.23897886276245,23.23457884788513,4.0,41.28236920991879,0,-8.193983579910299,-1.4188666816871542,-9.71634483738146,-7.33464538082464,-6.960855310139293,-7.829244682156472,-13.69891719101015,-7.218827601209197,-8.22094710644254,7.619629046646246,1.126026746619597,-11.149869582965223,8.56970991424445,-13.09137051094008,-9.752574034028223,-3.3344341704875413,-9.651225818939176,-2.9539765288019786,-5.529790713459757,-11.111199340336126,-7.3217166672574665,-11.509087406180445,-9.136991504835787,2.6553980904043684,1.9218124674869574,-8.91927091152911,10.116437886125063,-10.053142582814893,-8.963271452949183,1.5134740628886267,-10.448072668897453,-4.698028924176011,-7.4921048720938845,-3.7594950796890183,-4.296376508963056,-9.94900138422812,-10.326883999926071,0.7492667883993107,0.32404751551197125,-6.1737497143699365,8.57796423185571,-7.928235053245505,-15.80740648204737,-8.163873048798523,-18.881928810224135,-12.095314823557226,-15.164139147761302,-12.660172612502807,-13.910207249782031,-18.57671931742759,-15.736921319400745,-9.158741393321016,-10.131219557879156,-14.00557203175378,-1.7065779629003086,-16.054718737382615
1669981714.442895,1669981715.438495,22.48885488510132,23.484454870224,4.0,36.48847185465396,0,-10.292667232393926,-0.27055736324289187,-11.056885840562362,-9.593728004633519,-5.882184125037208,-6.228397019734004,-12.014786399791188,-8.025544356733624,-9.986000043599969,7.472493218357265,1.7679011900546078,-9.995023583854666,5.8646797355793705,-8.860463729260648,-12.984956653842005,-2.3685645141681437,-11.20581512330342,-7.427282678101374,-4.816939737064239,-6.161887041545073,-8.500211814569562,-12.134017798741692,-11.885072710783206,-1.285514040899962,3.878207409038852,-8.04228056498053,7.587725781852496,-7.965912519414985,-8.38682472142867,-1.3150838255231592,-10.344373343132709,-5.386300156508607,-7.87001202661954,-4.189003485908245,-6.173743809240689,-10.022638418691582,-7.033135862542964,0.06890352693563218,-0.44695983214681184,-6.9512866218621845,7.145537936760837,-7.413351440360153,-14.650272044621332,-10.120925642044902,-17.94410381409522,-10.798523197778124,-15.75415017403442,-14.464292811927473,-16.298870724724374,-20.67161078398254,-16.37548955837638,-9.394459856613608,-12.610317920137803,-18.594945139196284,-4.935791540103816,-14.434146582186553
1669981714.692771,1669981715.688371,22.738730907440186,23.734330892562863,4.0,39.800170640549716,0,-12.16998057047136,-1.6028653606194885,-10.313881827357786,-4.492867827743057,-6.5359713714894605,-7.926035431333055,-9.727111421489191,-10.5308958567033,-7.67600266166133,3.2684924776253057,1.0055992976643062,-6.963154863395021,7.686311461885815,-5.784791137807945,-11.274577001425726,-1.7789169954835071,-9.977063952410074,-8.773840183778086,-7.3491005979324875,-3.579245714330328,-6.647388183945726,-14.535651952047912,-8.600137782041749,0.7512472264950745,0.37557268680474676,-9.18868584778713,6.002342860020341,-9.142054444046284,-4.618807793159941,0.5091256850001931,-7.7082757838460765,-6.192937426303374,-6.159035936172691,-4.900447811672772,-8.28845411476356,-9.968276321738795,-5.647625039330045,-1.542355857665891,-1.1133587059937191,-10.483595241068016,8.355988715397999,-7.54406591474945,-14.382904232352288,-9.146999469265438,-18.252613515797897,-16.04114600516069,-13.948757872970923,-13.402330371442373,-15.250148112746594,-20.888336927764332,-15.913939111216774,-13.633773479483084,-11.690997603009244,-19.133798438852494,-3.5574106982822338,-15.703440241173512
1669981714.942647,1669981715.938248,22.988606929779053,23.98420786857605,4.0,46.73829133729834,0,-7.206849093857053,-0.45532040000513035,-11.102631972350732,-0.6102890184801647,-3.4170224298502627,-9.471031768501284,-8.573187153968801,-12.365742421705374,-7.214514854952602,5.0570047172139105,-1.9992006962130393,-5.587903586417412,9.338429725453402,-8.817467257569003,-7.082715601061025,0.36743286837858496,-7.492314252280455,-8.726966953439,-6.389730935102545,-5.253587214959918,-4.736095177705764,-10.116521742138167,-9.71252062171343,2.9126228272077634,1.293704626643217,-6.7390622750788465,8.38519772612205,-7.418399405908254,-5.184179732374582,-1.6745558447749902,-10.447110867458363,-3.89862064798905,-8.212046990038903,-6.188583465613526,-7.17729219081114,-11.518938298385775,-6.736668324178721,-5.024801596736726,-0.7235572294492227,-10.651782142845255,7.415332191683557,-7.007468537051026,-12.812450373030915,-8.553309543571087,-18.10737094793692,-13.241321139647136,-17.44267186217266,-13.591179765817742,-13.656476315019233,-17.993853989985485,-16.36920838984772,-12.622575207024012,-9.039037640551426,-18.60340630571208,-2.7163313117876147,-13.811210355258881
1669981715.192523,1669981716.188124,23.23848295211792,24.23408389091492,4.0,67.42974845859057,0,-8.538452911285416,-1.8622072764135555,-11.998597594911065,-4.529002678244798,-4.162319340363641,-8.460882810501175,-8.618846622293924,-9.471035898119425,-6.272805614009458,0.4097358368068494,0.9007086079006212,-9.943554123847296,8.082728705599624,-8.161137703513733,-9.114739928930026,0.952692386469735,-9.656068367184872,-6.233332519274896,-7.409578521418421,-8.829404035965535,-6.5722904246805625,-9.302453229719756,-11.463778794755155,3.6486696221093706,-0.56087830577987,-10.626110885218774,5.600530560291502,-8.370687888878141,-5.346780640857217,-1.744452637685547,-14.038451910730094,-4.806284270751769,-5.600452481133158,-4.951933149713075,-7.571914508218764,-8.031634866735976,-8.018087956935391,-4.739561999737334,-0.7396808200765403,-6.102509773242301,3.111043398665492,-9.679629661664004,-12.743675443383095,-8.611845497445469,-18.387235428036604,-12.474253447498633,-14.685554031208575,-16.274897574052122,-16.551665493974873,-17.435897964756457,-17.863990258910285,-12.359932363467038,-9.09270606710037,-16.254137844677903,-3.792352049650006,-16.32257155948381
1669981715.442399,1669981716.438,23.488358974456787,24.483959913253784,4.0,84.25367332922089,0,-6.837970714935286,-3.1141308787418915,-10.053642345934628,-7.901070560188912,-7.400213157090416,-11.088854536993768,-9.067580780668239,-11.050074839163852,-8.412364858935028,-4.660014739063129,3.1862661995663895,-5.719346253597664,9.119091977093799,-8.17620966282886,-9.58063896994133,-1.4582972893839825,-7.516078107784669,-4.929755849991157,-6.714849237017287,-8.180419151153428,-6.544907119889283,-7.865819189700245,-7.003708608533138,4.286707008652178,-1.4233261210383998,-8.386940236305843,5.373765818483836,-5.627326255209978,-5.890075083580323,0.1962355423654477,-12.73417325871586,-4.218363932735725,-4.613869875292113,-7.538068008453724,-7.443812559734275,-7.235852392293241,-5.792583427617047,-3.0776579055954434,0.7047596025162712,-9.176300081763932,3.2875727199360676,-7.65905663464784,-13.800853619985558,-10.50012729424714,-20.775155469637493,-12.583692196786807,-12.765618762560955,-17.661525074929273,-14.161406318998369,-16.583606673210937,-18.210545819823793,-12.48546391150427,-9.535923654850535,-19.836186790028208,-7.510326026739953,-18.53710337249741
1669981715.692276,1669981716.687876,23.73823595046997,24.73383593559265,4.0,84.38260731160723,0,-5.313464532188775,-4.2188924540656885,-11.556277589531344,-5.976017408831843,-8.10393116380457,-7.361160988414009,-5.3238886907082525,-9.309859675689049,-5.962644202952489,-2.4907553211462723,3.0029058876746544,-6.374138006466021,7.225860657155982,-9.594845777881396,-11.857033192475747,-1.5014994261655978,-5.998592901749148,-11.159705835557208,-7.369224799137285,-8.432689525384674,-7.685772104456086,-10.278297158473663,-4.810071296040736,0.9251391652292604,0.6505910535541336,-9.017814500943166,9.463947238376472,-6.166310757855897,-6.638130845900915,-0.4480467081501689,-10.913302397941747,-2.4153309211914715,-6.34663051928749,-7.362150622118781,-7.395794692790197,-10.221346465531765,-6.0290144694925285,-0.9986763830582025,2.73344345385869,-6.984339045115101,4.699510887002059,-8.165395250146714,-15.077571013370811,-9.963675679945151,-20.2426808290884,-12.78146759472669,-13.721262149426991,-17.91059419640974,-14.79712173618379,-17.872412636926683,-16.012619287333123,-12.426468114577652,-7.810072822742786,-21.534146506067447,-7.328431095200361,-17.83720055979217
1669981715.942152,1669981716.937752,23.98811197280884,24.98371195793152,4.0,83.88892890585868,0,-5.865175332612486,0.2968262271616463,-9.093805497298446,-4.063335984098815,-8.327426240610038,-6.384356590195562,-3.7812763830823863,-4.5067050163742115,-6.875965052662767,-1.9895606462225763,2.0551598781978346,-9.876533902531525,6.287814510858961,-9.162248200823125,-11.602121749024075,-0.3473356949607491,-11.29660959329229,-7.002102998619502,-9.472364505918605,-8.399885363281804,-8.418741825830608,-12.199570863468326,-5.308709403043828,-2.230315597363133,1.0301542529925147,-9.475157543976016,8.142814101151128,-10.308970390831282,-6.427474615633923,-0.9378560044515103,-13.31432161361247,-5.602582465268625,-7.148754321082393,-4.501653080680066,-6.949767183200784,-12.221959435555727,-10.364579774945991,-2.146038302700247,4.349513982371861,-7.493217004756167,5.941447940044993,-10.656165232770018,-14.085785386462932,-9.745520580251476,-19.78626134222797,-15.763943993588345,-15.547770180721534,-15.24558657726947,-14.9581069626439,-18.776285119798647,-17.426630865141576,-11.909024376761758,-5.704492128297762,-18.404410806742646,-6.1049903355752475,-16.94019662171476
1669981716.192028,1669981717.187628,24.237987995147705,25.233587980270386,4.0,78.9324983551283,0,-6.111885241705314,1.1621461588593327,-7.866195287435894,-6.40868621784929,-6.745215807974433,-6.932772410670336,-5.262888883625499,-5.152432537529488,-7.743217339009849,3.362809253388444,0.7455895141138903,-8.203430492717814,8.14171510516662,-7.4382124517324275,-12.235546904541616,-1.2294918502943157,-15.928033920129403,-7.044880121155028,-10.722983612696124,-8.319844032678242,-10.405276539915416,-9.216649149583509,-9.419776517261532,-0.05647474025902448,0.4016074846812359,-9.534101160530861,6.622241591341896,-10.833559314211229,-8.262947019308093,-2.590690576676768,-13.106451739079787,-6.338107130082057,-8.10970415255674,-4.935092690665005,-7.1758686998691426,-10.5866340570306,-14.356714734774192,-2.153766219445895,3.91851948255012,-8.026607971614737,4.840945310583386,-7.9492866660897334,-15.531533813793938,-10.949190149912926,-17.62650180473145,-14.801557507088074,-15.331307820385438,-11.583758968077609,-14.981971189083268,-17.98314117524115,-19.73562184874361,-12.980810714057418,-7.04441550730134,-14.390420174591494,-7.530817323882628,-17.326340124245398
1669981716.441904,1669981717.437504,24.48786401748657,25.483464002609253,4.0,82.50878264185609,0,-5.113723456555164,-1.3736703878991543,-7.448228214700285,-7.786421749410769,-5.14058934633559,-4.405499867848334,-4.993322699555941,-8.061982150445315,-7.741005732377822,4.640418142601863,3.947187369269456,-8.305511138548436,6.876979278545237,-7.276409348240916,-7.877630111731129,-1.9362206218076927,-11.42177751462124,-9.086845562470725,-5.829683103890126,-8.19186202937155,-12.469787494441192,-8.193678143636467,-8.396728358386882,6.7356302591091115,-0.26852298955472614,-8.14702443753326,3.9668957309061827,-12.369841773920406,-10.146871745534868,-1.7460449883382392,-9.853866659898548,-4.523366780297538,-6.231278510917782,-5.800951642454049,-7.309578976101053,-8.318834454164609,-11.450109087746803,-0.6547725184444698,-1.1757981896839862,-6.572643756683217,5.0724312996515835,-5.66782390569621,-17.547555168639313,-9.123067737769414,-16.327608822253847,-13.374491355025889,-14.166793113322836,-12.750551523313183,-17.02376455913814,-17.465971154239664,-17.030858481076013,-12.838164685566525,-8.664576073102268,-16.37314277010472,-7.4272659519273345,-14.474473238863808
1669981716.69178,1669981717.687381,24.73774003982544,25.73334097862244,4.0,81.60740041177606,0,-6.453618445092658,-1.2045883576653833,-8.79482216373265,-6.207820174089095,-4.096874641516884,-4.644467508962855,-6.031069411639143,-9.804570328931886,-9.136250277943688,4.303063937316062,3.8280618463069604,-5.302111664549538,6.436643922691814,-9.104865288413327,-5.580645403518162,-1.5789315573610652,-10.936712154627848,-5.334160051614251,-2.4745040755434755,-10.030702522828726,-10.682558235814192,-13.04901977026436,-7.095045439289346,5.59801042609719,-0.31646778082755367,-8.645455260707687,-2.937555908795285,-8.79902089775472,-7.40611839762321,0.676607769195416,-5.542063786629338,-5.109448449542089,-4.071570583448382,-5.007556780995958,-10.281504422370379,-6.996019569312862,-7.82838796115561,-2.0851130166543683,1.5377755530151935,-5.733564969082612,3.2411938178366526,-5.301312294188982,-16.4242003137779,-8.440233101145967,-15.085867519065603,-12.676700524059212,-15.69224614928767,-12.541935061999238,-19.407334637670836,-16.27214421530497,-13.977923121793676,-10.744205776367394,-4.9486348486543426,-16.152003178699683,-5.811436790492955,-12.188120028328385
1669981716.941656,1669981717.937257,24.987616062164307,25.983217000961304,4.0,77.9580122036656,0,-8.374808148671653,0.60827813454313,-9.907185827449606,-4.68432571921431,-2.112683262700876,-4.537810809537134,-8.326378515846454,-8.772241563035271,-9.754507694342418,8.418119729487834,-1.446393833772044,-6.167942030623319,6.562822893696611,-10.327527528959026,-4.634925821257419,0.4121812061498858,-12.897897599809019,-5.426900507001663,-2.7037566747555,-8.926175732250178,-7.88397340656395,-12.313782565894208,-8.820918198076889,3.3299965942855083,2.7966493678368085,-15.825008973786108,1.3382035752165637,-5.376703641643975,-4.034832898709887,2.640448465472163,-4.9924267896015415,-6.352370697846576,-5.0675256878907105,-4.216916508597613,-10.6299924428831,-7.022003480471188,-9.024091570269603,-2.9048362052097114,2.808582056679787,-4.882246947029264,1.283291944807823,-7.1177763773369715,-14.345032761008238,-8.765464577838758,-14.433164104876937,-12.76865120243804,-15.375577656196375,-12.406144531929883,-19.388535745767765,-16.111181280640395,-15.62326986893777,-11.177534451080692,-4.662406105236331,-13.024939120943444,-8.355664287547844,-14.953934759387494
