stamp_i__desc,stamp_f__desc,latency_i__desc,latency_f__desc,minimum_cq__desc,maximum_rms__desc,data_fixed__desc,eeg.af3_8_12Hz__feat,eeg.f7_8_12Hz__feat,eeg.f3_8_12Hz__feat,eeg.fc5_8_12Hz__feat,eeg.t7_8_12Hz__feat,eeg.p7_8_12Hz__feat,eeg.o1_8_12Hz__feat,eeg.o2_8_12Hz__feat,eeg.p8_8_12Hz__feat,eeg.t8_8_12Hz__feat,eeg.fc6_8_12Hz__feat,eeg.f4_8_12Hz__feat,eeg.f8_8_12Hz__feat,eeg.af4_8_12Hz__feat,eeg.af3_12_15Hz__feat,eeg.f7_12_15Hz__feat,eeg.f3_12_15Hz__feat,eeg.fc5_12_15Hz__feat,eeg.t7_12_15Hz__feat,eeg.p7_12_15Hz__feat,eeg.o1_12_15Hz__feat,eeg.o2_12_15Hz__feat,eeg.p8_12_15Hz__feat,eeg.t8_12_15Hz__feat,eeg.fc6_12_15Hz__feat,eeg.f4_12_15Hz__feat,eeg.f8_12_15Hz__feat,eeg.af4_12_15Hz__feat,eeg.af3_15_20Hz__feat,eeg.f7_15_20Hz__feat,eeg.f3_15_20Hz__feat,eeg.fc5_15_20Hz__feat,eeg.t7_15_20Hz__feat,eeg.p7_15_20Hz__feat,eeg.o1_15_20Hz__feat,eeg.o2_15_20Hz__feat,eeg.p8_15_20Hz__feat,eeg.t8_15_20Hz__feat,eeg.fc6_15_20Hz__feat,eeg.f4_15_20Hz__feat,eeg.f8_15_20Hz__feat,eeg.af4_15_20Hz__feat,eeg.af3_18_40Hz__feat,eeg.f7_18_40Hz__feat,eeg.f3_18_40Hz__feat,eeg.fc5_18_40Hz__feat,eeg.t7_18_40Hz__feat,eeg.p7_18_40Hz__feat,eeg.o1_18_40Hz__feat,eeg.o2_18_40Hz__feat,eeg.p8_18_40Hz__feat,eeg.t8_18_40Hz__feat,eeg.fc6_18_40Hz__feat,eeg.f4_18_40Hz__feat,eeg.f8_18_40Hz__feat,eeg.af4_18_40Hz__feat
1669984250.911748,1669984251.907342,0.0,0.9955940246582032,4.0,53.883286053523165,0,-4.742515099972403,2.8779432963335645,-4.695344012336832,-2.11683540956472,-1.9082856537388848,-3.1772698771526175,-1.5692555826372556,-1.9356833129861832,0.1822032898152871,-5.5812693896005285,-1.5184232011647738,-5.492468974117387,4.013333960933389,-4.972627812905224,-10.108583183800508,2.136266726247732,-11.996035441260517,-1.74153839945596,-7.366910983284293,-9.278486897493552,-8.696647570358994,-1.4194204894481124,-3.129277563644443,-1.9451130804244732,-5.0535555314567375,-6.359198246496575,-5.12768727642352,-1.6513405684644589,-6.084937891049522,0.3990251513856278,-9.60743517363854,-7.105475296061982,-5.9524156740263106,-4.609660004766935,-6.051721348506252,-6.378057274275793,-6.092896636707284,-3.9921886386514824,-6.577150181679475,-9.589397608817535,0.26839782229709236,-3.360963316317604,-16.127039053916825,-7.473141148687519,-17.771402432893463,-16.751264152739346,-14.556048353263522,-14.95066457867454,-12.709421594173913,-13.483109597753732,-13.150382352578083,-13.731465505881353,-16.828588890307476,-15.446989009707355,-8.637991728354192,-9.986582438931968
1669984251.161623,1669984252.157217,0.2498750686645507,1.245469093322754,4.0,62.0692610957693,0,-5.200405470213077,4.408911288997903,-6.546041127868444,-2.5697455402842415,-1.9551948545099465,-3.171342108291177,-6.378071346266999,-3.813221459711963,-0.5272890019623413,-4.735241756518595,0.9353739235829566,-7.63711581494001,3.334057101774598,-7.69239285679637,-10.81236878772021,1.087695334958197,-11.09658906040809,-5.973737917027061,-6.359894908308771,-6.7544026873024166,-7.8306662450560065,-7.179394571153277,-4.224468519090923,-5.333443472332847,-2.3938411914752935,-6.172076753402603,-2.678028442216803,-4.101895198563525,-7.556068531307645,1.804537829805083,-10.354545051935604,-6.998929305848877,-6.86747806667705,-6.08932490556025,-7.485808220517466,-6.7103192304660055,-10.618288379903795,-3.2757619276808074,-4.840286379909088,-7.642693275541006,-1.851589672324383,0.45176724968406035,-14.339294062284134,-6.238453989927101,-17.804605233763894,-14.848826837392552,-16.388666927601243,-14.61063503114287,-14.673602438989715,-14.322839499750089,-18.46662597847757,-13.907636548776935,-13.583972855769153,-16.550190933985387,-8.744099749578872,-7.1832098478510815
1669984251.411497,1669984252.407092,0.4997491836547851,1.495344161987305,4.0,66.02411667823077,0,-6.958508528547873,1.6579212273874968,-6.8078098871968695,-0.3521619763989525,-3.7737045425576743,-3.128253882114832,-6.882251833745108,-4.339074966509506,0.11911118537525103,-0.8488644194166703,0.9121169248592953,-5.806057583269965,5.653953321643511,-1.886615385778664,-3.4187499282805165,5.314122498773045,-10.489502172146334,-5.101061061204724,-4.758583381832465,-3.5190668964830287,-5.597317556065983,-6.216432201136532,-4.359156319436801,-4.001651433363101,1.3918253030751768,-3.596836998552033,2.917824553869351,0.5920850662486425,-6.477299701056656,5.544567530065143,-10.361312111559274,-5.541451001763172,-4.543135750973651,-5.005771806302951,-9.506945080325048,-7.772267429792055,-10.350575065412468,-4.351113771294538,1.3371646766500143,-6.404573551311204,0.02393495130584043,2.9634879577625775,-14.454508054228977,-3.846755527153501,-19.355942026639855,-14.25673449558616,-15.829243088229894,-14.798517824648341,-17.845784659133834,-17.710066747699802,-17.13102373178074,-12.243522398132427,-11.928170716583217,-16.371192420943714,-9.267905420551934,-8.722063446372179
1669984251.661372,1669984252.656966,0.7496240139007568,1.74521803855896,4.0,63.44166040412484,0,-4.543924495974548,3.2794191233366936,-8.070065742927687,0.16216964835243464,-3.1040621585532007,-0.3854974644996111,-0.8085012630737393,-0.9124625350642028,-0.2734675217381629,0.6856931894514582,2.097098614553406,-4.470474349888525,5.731381286173579,0.7955890604759943,-4.013350745173377,6.4783768232217485,-12.65234004393782,-4.486531134620366,-5.8588122515341965,-3.7913396707863525,-5.373043045215493,-1.8263645036205889,-1.861230028645024,0.49477816859493456,3.473898580311428,-5.148788944180279,5.261996620388541,0.3309187415026865,-5.946416528842691,3.587846946661543,-11.66528142191228,-3.3043262956946347,-4.424090052551656,-4.1080143478166775,-6.462184903819049,-6.978177691347253,-6.1486117563676,-0.523021779960663,3.097524064003471,-6.232181571942368,2.000110197405098,1.7640999198721534,-14.70094905634143,-4.15302711362875,-18.851985149163024,-12.665093058799554,-14.178426068451287,-16.04858061131686,-13.66284947194271,-14.83048412553281,-12.803940349726446,-9.415930000312077,-8.360381320356701,-15.528415095501982,-7.717881472162691,-10.596814718939893
1669984251.911247,1669984252.906841,0.9994990825653076,1.9950931072235107,4.0,49.84079386083279,0,-3.646641261625241,2.188236522781911,-11.957238969070902,-4.344371877968231,-3.3239821760858774,-0.8283647406668992,0.7377329936830965,-1.0729012149377444,-3.8945601219675625,-0.9649938976799421,0.20637158859824492,-7.121892763742372,4.9020624351692055,-0.14853426221420846,-10.512445536089427,3.8454386370231712,-7.845991200279489,-9.066918896759384,-3.980149407221949,-3.756048408967586,-5.594469727185171,-5.736253744667547,-4.786210517036714,-1.667325421154505,-0.18162475154275384,-6.286954522944768,3.697981452540912,-4.526454290306992,-5.99357563191076,1.7655149750828132,-11.248595547023445,-4.8814475739919025,-6.714257671166632,-5.747323566730078,-5.604368669737278,-6.3764654398682,-4.293155789213783,-1.2042814329151905,-0.4730380643860626,-3.677231965933323,0.8672620154261808,0.9841834169598552,-16.249318161853207,-9.383444616868195,-17.4568807840962,-15.23358702120846,-14.261786795817777,-17.725752271294812,-13.176714483319795,-15.878407451267575,-14.41216341207574,-12.378899150061862,-9.771356158514507,-16.2485766805375,-9.633233524024641,-11.469682011095303
1669984252.161121,1669984253.156715,1.249372959136963,2.244966983795166,4.0,38.97462162603944,0,-5.663269452354109,0.30599096826345595,-12.413345524310209,-5.718085965111001,-5.835716668134522,-3.461098498498869,0.36063383592988774,-4.1241121875646645,-6.827812308395753,-6.176601244082755,-3.3963730599566815,-8.342223056151475,1.147694781147632,-1.6309534628244096,-13.097140345295855,-1.2963859585992181,-9.365976992240963,-5.972530065165396,-4.481935101527694,-3.9170047456212584,-7.6359123057977465,-9.449206447285034,-10.08202113245055,-9.838768963831003,-10.68512494226974,-8.445129730157413,-0.7261608925888681,-5.822396141200427,-7.797348184513283,2.511864803247211,-10.306912493576021,-3.557328871498454,-7.534015028361299,-8.134820634733028,-4.50674110113715,-5.514053066429182,-5.508796651792217,-3.566729201565325,-6.343267018604606,-4.1550842228740335,0.8122604727475192,-1.4334578964161686,-16.139707807212858,-8.685488279453589,-18.798350034349774,-17.142991743177614,-14.445622757441452,-17.065803897799608,-16.465516634064045,-14.078831239315639,-16.9357098332031,-15.85202019438315,-14.036650466742561,-17.562673654063577,-11.53537686503941,-11.921037889534885
1669984252.410996,1669984253.40659,1.4992480278015137,2.494842052459717,4.0,25.03401943191644,0,-6.762350092070607,-5.718123013213937,-8.825848389445472,-7.022656546841237,-3.840752245324881,-1.6035264525915307,-2.806477958601871,-3.513855590766565,-7.814790874644779,-8.95166797713286,-6.33222876055933,-8.9203315377844,-2.2819812927291623,-2.0853117412385727,-9.534221917927667,-0.21239469133290279,-10.823488978527395,-3.6324709964596402,-3.4649250053697758,-1.6302217794290281,-4.110323319993693,-8.892867619908166,-6.58073880340673,-6.965169660232274,-9.214485278644124,-5.554237134640367,-3.9673033576071544,-5.117617530706598,-7.054845066930917,-0.6018360173748141,-11.60206820554432,-6.8074799531484,-4.464125180807609,-1.451379698236286,-4.214312518312709,-3.9705120647048835,-6.391545999794088,-6.058131933747014,-9.32582980240998,-7.761312762427021,0.16276607019053163,-2.0184541954493938,-16.28056167263094,-8.951607463360231,-17.866533386743555,-17.58889471370249,-13.384346701238051,-13.670404596301752,-14.399382241457335,-13.335521691452453,-17.16564193622155,-20.128770244711234,-14.544546614057117,-16.257521161794564,-10.498550753241659,-12.96801040135653
1669984252.66087,1669984253.656464,1.749122142791748,2.744716167449951,4.0,32.43905500407661,0,-7.893951653802396,-2.0093032926425987,-10.738648789745245,-4.475049651694874,-2.144873038943753,-1.4421612116313784,-1.2192261873096304,-0.5130147315806497,-3.922098626961378,-7.475231769917513,-7.628086575648917,-2.5450677085371423,-1.0871846284621347,-1.5299555920192422,-11.768808301400364,-3.354133846729198,-8.748365538700204,-5.212733993850689,-4.706892541683869,-4.155248172448898,-3.7385242675188235,-6.76654135650041,-8.42753913020085,-9.973634504487766,-10.784200380079302,-4.794794279762332,-0.5568336332600075,-3.8414297995602533,-5.776500578823963,-2.6963816423093268,-15.73995009168787,-10.667125981458913,-3.7817003498901998,-0.9388101018073275,-7.4433688808936544,-6.062023704564372,-7.220333105418763,-9.821594183514284,-9.342469325254253,-9.422557512301024,-3.933203152531095,-3.0803990440577222,-20.326069824421534,-9.868776402059085,-18.66045652166093,-18.327087221273985,-15.18928170664972,-13.213948786022948,-14.656912406071205,-15.381067272903078,-15.681677262166202,-17.438951125055628,-20.111003530296912,-18.70079129276465,-12.579743164092374,-13.818056979809025
1669984252.910745,1669984253.906339,1.99899697303772,2.994590997695923,4.0,52.75049886868861,0,-5.879099796713389,0.5082722216448866,-10.036168174791388,-2.6756884659224793,-1.2936663041613232,-0.8451360277355607,1.433769431787292,-1.8200300379391021,-2.611218323792237,-6.480662964139359,-7.235003468488052,-5.716106797635544,-2.4509850081255453,-3.172865633080122,-9.15396786299689,-4.624455888076239,-8.687999248846305,-7.212495646270155,-7.056539220921091,-3.265709570962115,-3.7671550847451094,-5.058260040159672,-6.440635202890928,-10.342682432954009,-10.418534801466599,-7.270843940348104,0.053148149089242605,-4.157945218667499,-7.6777979882742295,-1.0405366511402476,-10.160276273797656,-7.20643952687103,-5.304989321284362,-1.7968093619813037,-4.98536521384898,-6.478998726387271,-7.136911805948511,-9.503130371603051,-8.373783339517031,-11.842328171311813,-1.9923095742434314,-4.118167133877298,-19.29794010778599,-9.816325086392606,-15.820946273822358,-18.307829680591666,-15.408353165368002,-11.803297434598644,-13.323330525558177,-14.253525900678161,-16.538197777859963,-14.134742805974525,-19.64231925019515,-20.561022134772152,-12.409303340675972,-13.351517527863844
1669984253.16062,1669984254.156214,2.2488720417022705,3.2444660663604736,4.0,50.674520045001856,0,-6.536101740399344,-2.498506274930344,-8.53411392760394,-3.512048523087712,-2.9058179078683573,-4.087652587231251,-2.1207520800215622,-4.0212964430457845,-2.077578339085202,-6.841975779008839,-6.668583227960153,-11.10619815481476,-3.615547246757397,-2.7321789294848573,-6.654441383871975,-3.997522415259806,-10.659001435426294,-5.225396161845052,-5.381286747850008,-2.3837355336146073,-4.679710747554563,-5.98944671946671,-6.156349884108795,-6.438485326316141,-4.08862562679658,-10.218616994257895,-1.7292946193462422,-0.2362244613291153,-9.91015490948388,0.5342632170983395,-8.191776276101786,-6.360584704147448,-5.376936529453175,-4.643013141266742,-7.5098756412590175,-5.842916460132804,-7.1999699109889175,-5.6120672356028525,-3.7322905314950288,-6.822317571145015,-0.29898135972717843,-5.366383926820984,-16.049464838487093,-11.08105757984525,-14.578836378049525,-17.681831880230845,-14.329007996414528,-12.110955228949356,-15.239811309886937,-14.932381621470336,-17.491828915083257,-13.000545401223713,-16.122124211305938,-15.478455892566853,-13.282013321763507,-15.546223044049725
1669984253.410494,1669984254.406088,2.498746156692505,3.494340181350708,4.0,50.982342030990495,0,-4.978662601677705,-3.0480039998957746,-6.623713711751225,-5.860218059554313,-6.817727545313814,-5.232074750695011,-6.176046229516935,-6.249085014048124,-1.5154046904577598,-5.9682076925245475,-3.7482418972403364,-11.360011184792263,-2.9708257098140614,-5.823498125420869,-5.4313645269273785,-7.276519684012578,-11.082910770924643,-6.753049117132951,-5.74129646045343,-3.513871285285652,-3.62704440736475,-5.60144198198969,-8.84359669866831,-7.341167107160585,-2.64395580087365,-7.795214826655279,-0.03304615632695996,0.006693379573917275,-11.535915460060817,0.4451700271175856,-9.50494740988645,-4.552357118761695,-8.829278625135084,-8.498943084430989,-8.46428710042099,-5.771260174165134,-9.317356792495138,-6.277629573460986,-2.942002440448647,-8.78182715254134,-2.4298822588260083,-6.739811345202378,-17.41302633185544,-11.15357150085487,-15.159975449571178,-15.642021805319363,-16.01023979298019,-15.248376626467797,-15.127593499309581,-16.301578640713114,-17.646770251329357,-13.526803886371608,-14.231243754288167,-16.78033265760273,-13.620384516766437,-15.051586299872582
1669984253.660369,1669984254.655963,2.748620986938477,3.74421501159668,4.0,43.273902214167784,0,-5.866510010984993,-5.647368106991891,-9.7949477824051,-11.768116621284118,-4.818475184242296,-6.789420947232178,-8.351989041496177,-3.9996991431819477,-2.311452336336743,-5.916675031946246,-5.620410979393789,-9.944141520612131,-4.942235956598454,-6.394716399390607,-9.561146558923696,-2.7547581519119273,-10.077201991797665,-9.695129871571,-6.994176631457928,-5.483026833185316,-5.4422725822864235,-5.167418463552748,-10.05821169829668,-9.905135206050575,-4.734005293004792,-7.960012844062053,-2.8965906725765245,-4.996541533514676,-10.992638441986431,-4.533382673084664,-7.645014863470346,-7.371309823027762,-12.578802375394336,-9.948701584060412,-7.898203988905916,-5.643419911702408,-7.100621874931288,-7.182814099261452,-6.230105822236455,-7.306118946959349,-5.539424296384512,-7.321449659593913,-19.933677981004095,-12.385819025306128,-14.959019327585843,-15.868546275277422,-17.61341035917004,-15.464476583142826,-16.062513386031878,-14.538580681455366,-14.603405526472987,-16.517362856694234,-14.28789873411252,-16.08348627143944,-13.550679641344114,-14.154982680510155
1669984253.910243,1669984254.905837,2.998495101928711,3.994089126586914,4.0,16.30279816079942,0,-4.792381333076741,-2.6123720240867594,-9.960880609692534,-4.885703180582225,-3.7820863920514887,-5.014851622189176,-4.74550458773153,2.6848443865397202,-0.5724534722589973,-4.545214310455618,-1.8363482280259742,-5.649369440453999,-3.847179115988077,-3.8227532384799288,-15.148762798959858,-0.5523604111831186,-8.256602115323835,-5.168850704144775,-3.6459155881297836,-3.0362688248729635,-1.2484622594522978,-7.151502598635073,-9.285251039730799,-9.373328798082147,-4.463241671513404,-3.60280122478329,-3.504576495479702,-5.7976759397963615,-9.456576899176918,-7.056509246535274,-5.6282833836397606,-4.622765052079718,-12.345362178505981,-8.515113041327897,-4.324794431312478,-7.664044324966424,-7.98666300288229,-9.178663119356843,-5.847246562567703,-5.758160134843995,-4.9973502786025925,-8.338985017870858,-22.353602349855073,-13.399162887988947,-14.204264787354044,-18.483203262816076,-18.65436956783876,-17.838496313447983,-14.346164694351414,-15.899739850528041,-14.899580444453235,-20.33334600638924,-16.738733840520123,-16.696517778271495,-14.5446655828664,-16.57511818078372
1669984254.160118,1669984255.155712,3.2483701705932617,4.243963956832886,4.0,10.531920185978564,0,-8.278298599668076,-1.3343835058429951,-9.484714760213988,-3.281018549691785,-3.354830228244973,-4.3648961950820855,-3.5133206771424734,0.8200940644094391,-3.3704514036149975,-4.988224392648148,-0.953105838715721,-4.703775657774178,-4.535435979770534,-3.022294156270045,-15.026295791986787,-5.52986938600303,-10.274563070396013,-8.327314845562663,-5.031426797471305,-3.028413734446314,-1.8378841642432187,-6.098633844643745,-8.963285150850217,-8.616971289195444,-4.153921036036267,-3.5175047699988173,-4.591840376982327,-4.723038966255236,-7.607944001886987,-5.112988205382196,-9.881341533411954,-5.982283083885868,-6.6325680456647165,-6.368779966364384,-5.50717859484402,-8.019594998244253,-7.307994184549508,-10.21908401187716,-7.7887914719394455,-3.6312958589380995,-7.137545309218758,-7.136581238600831,-19.235494888238836,-14.173593890879125,-15.146278423779258,-19.459725454634697,-15.300176767248427,-16.55777659986359,-16.387791151979783,-17.240340892313178,-14.767723342910903,-21.46685920814687,-16.9071509077575,-16.213239908213318,-18.663910886419618,-16.681767866182412
1669984254.409992,1669984255.405587,3.498244047164917,4.4938390254974365,4.0,9.384722808825261,0,-11.271451040215066,-2.583255220739598,-11.943490382864155,-5.742912223864841,-6.2596633844284435,-5.990752457073314,-4.0057360889897495,-4.3641595076713156,-5.038330832942779,-7.1084111986827825,-3.7014514095396613,-7.632479551382968,-3.1406941112728575,-6.747270590216683,-15.046074385117143,-3.145163714108536,-11.151597255623395,-9.515813001800993,-8.614121535012366,-4.984993971151189,-2.516366564970358,-3.9877175878413196,-6.936169803230211,-7.137415859172501,-4.034341954310573,-6.425695374107297,-4.867539328026666,-2.6692217730236423,-7.498647516457249,-3.1670985970045455,-7.144039642787449,-7.900963325155999,-7.369688028552442,-10.67022949043562,-6.015251154386487,-4.617080846953205,-4.909391090414372,-8.328816343106299,-8.246854292122949,-6.671772298464812,-5.717898238597975,-3.3871779885918203,-17.402663009644016,-11.804121212170699,-13.783922037489972,-17.89714548034744,-14.538200757138522,-16.56541447669238,-17.38064785059192,-15.457090922769567,-16.50248355652009,-16.665436041440447,-14.958351258966553,-15.583993804401093,-16.498035935183218,-14.695630843176295
1669984254.659867,1669984255.655461,3.748119115829468,4.743713140487671,4.0,30.741669006386612,0,-10.229652615952805,-2.86591287479925,-9.536677528205509,-6.009960795315752,-3.5695589867498265,-3.0707590756806704,-1.6250273666429658,-1.3919432001742753,-3.617965156597289,-3.7198377968131116,-6.589915136938133,-7.904690309238447,0.5908548466513567,-3.6324742189817867,-8.35782809242296,-2.5196415580691345,-11.793472931451275,-7.002723364605422,-10.473429211413928,-8.37448193067874,-2.808456598363975,-4.94879032805936,-7.257946449815771,-8.745072144773596,-6.697645588515981,-10.188459047765704,-4.020994215945289,-3.8109953034750976,-10.373171558206643,-3.7271444041741346,-8.226014512764742,-6.742429391287802,-7.094315482437114,-10.229331226723644,-5.962318210168506,-3.285409367902676,-3.9742871994938955,-7.080896449350023,-5.981094910875065,-7.586838660698744,-5.329106606599595,-4.82972505794156,-19.3965898077916,-11.313562039468657,-16.48681185987887,-16.203927488524062,-15.266763892125363,-18.045223027686315,-15.658809969382766,-14.845609243346175,-18.74114016037421,-14.947975963248556,-13.87672091206885,-15.8231521766663,-13.152654882257817,-15.365088181824557
1669984254.909742,1669984255.905336,3.9979941844940186,4.993587970733643,4.0,41.612320269234715,0,-3.4893576893467575,-2.626871225714545,-5.504763179487123,-7.034402395193546,-1.9113040041173213,0.19606804923294777,2.6760034692824854,1.9254951290709665,-0.0996279097052951,-2.7812458322613987,-4.948559947600572,-4.867513189411375,3.028476383538408,1.2171348151575265,-7.252484775224401,-4.809065613777527,-13.560363969025031,-6.989492619798268,-10.823309392295988,-10.898852019154015,-5.541296599223669,-5.679520230435834,-4.642208594924453,-8.54806984874012,-11.568744304516102,-9.650723766304921,-2.934964458531743,-8.627560000711727,-7.7683241044512314,-6.140981329187158,-9.293722684742596,-5.748991922179876,-7.868745538946461,-7.871041906687345,-5.601818542733255,-6.379855470511665,-9.048492956399555,-6.711128763588762,-5.775995097134784,-6.348892571199371,-6.643282440637195,-7.129167158586257,-16.66678479149513,-11.42523857207542,-18.33018388362092,-13.389708958250793,-16.286148297778183,-17.054515205372677,-15.613574388875232,-14.650448452981369,-20.03792879776471,-14.936436098367079,-14.218413118602637,-13.516802483165232,-12.672733382881278,-14.440853064552861
1669984255.159616,1669984256.15521,4.247868061065674,5.243462085723877,4.0,49.72772770661996,0,-3.1160971782548335,-0.14755949015834802,-4.4306148035188055,-5.284268126389283,-3.5103406949257163,-0.5590043462812984,1.2359655004206924,1.5241402915739872,0.43244212932875253,-5.328090163320316,-4.081992508878464,-5.349950072521576,-0.004603276332368491,-0.38577440396362267,-10.015441426704609,-2.577572325222649,-10.807868573488918,-8.603043263666171,-9.383210066373664,-10.697686154492892,-3.613908561663139,-5.213820972024788,-5.389692771222174,-7.134141933944306,-8.755665434215773,-7.010897561128329,-0.045071444140467445,-6.895763490919391,-6.7013824034803395,-4.8570979834271375,-12.330551021174925,-7.85763940714155,-6.087432224695829,-6.560836431092262,-8.220181678681357,-10.262556184714652,-12.636225744597544,-7.610899389398407,-7.624172561436723,-5.756615061737773,-5.464416780333217,-3.0306794419125778,-16.075258648459815,-12.767830889688502,-18.345813172000373,-16.55733467386089,-15.913772896159642,-17.020983537314834,-18.542022064440236,-18.721560736483056,-18.50175213004883,-18.48254050388026,-16.766343722007903,-14.176390528375535,-15.71858471837465,-13.636000976589528
1669984255.409491,1669984256.405085,4.497743129730225,5.493337154388428,4.0,61.18581152646523,0,-4.4935476616031895,3.4955150866787763,-4.660928969953159,-0.9484310265190936,-2.0775268517430963,-1.0475076510115175,2.367511029589405,4.167223221801267,1.2387001189487057,-3.8050199498408466,-1.215330793832199,-5.326244696879896,0.22217366523952475,-2.950057472940735,-9.936813700580515,-3.097573913401004,-9.727571367351835,-3.3385475165215626,-8.15500259370448,-9.449886328139282,-1.760713149767417,-3.56104285790652,-3.170915385179142,-8.395820299885036,-6.486036899833154,-7.757749258353924,-3.6704626262035904,-7.8917813870276845,-6.1154415202822845,-2.4104369626707283,-8.915678155097627,-7.116548704896655,-5.6833255792804485,-8.050497311660065,-7.09982848645161,-9.990300979951606,-6.012108258132517,-7.654545403603561,-9.094887891703126,-7.262408596994897,-3.080193990609893,-2.247271457856417,-15.549091780710212,-9.901534033173611,-19.479201351896837,-15.681796883288213,-15.094600504728838,-17.990707714814288,-16.80462918533513,-17.91473985153023,-16.187340406447458,-17.274223909238604,-16.506256620114296,-15.709595703861547,-16.343738087031372,-11.299606062741994
1669984255.659365,1669984256.654959,4.74761700630188,5.743211030960083,4.0,51.68362496852522,0,-5.684018918956778,0.5078563291802775,-3.4009980588010063,-0.3319200548434839,-0.09262865390183402,2.3491177799451335,0.609369440639514,2.740457666539864,0.886471801109632,-1.6505222015867382,-3.262895050404539,-2.366578894929165,2.0305278754086014,-1.9030682841298079,-7.451569652999681,-5.719482193631595,-7.12807216608487,-2.0649317482400726,-9.755220227256993,-8.901989908990142,-3.9075162200449687,-5.800399071370227,-4.811572165600585,-6.434428891093575,-8.468096744548557,-9.96145163233637,-6.222890452456703,-4.29179509097235,-7.933129167598195,-0.5444715512972487,-8.035337676096505,-7.81881226426275,-4.977087745695234,-6.006152500358438,-5.404332904404675,-7.752465629144714,-5.247485325793496,-6.558428291956382,-10.873324563937608,-8.62097903258915,-4.340363388209886,-1.4810434113272672,-16.065971455416197,-9.07715717738452,-20.04187963780865,-14.518612406732599,-16.773032452633622,-13.520105197391599,-13.674945427942832,-15.840781080046341,-14.653769686681336,-15.980284768777667,-18.525576318209495,-16.313516183050247,-16.08165123152641,-9.091304216134636
1669984255.90924,1669984256.904834,4.997492074966431,5.993086099624634,4.0,48.64470703076212,0,-6.007119271258555,-2.687663238540007,-4.815025432313163,-1.1947216174454478,-2.1122966004594783,0.45769409729428173,-3.3148383820070175,-0.44679498182167593,0.024240645717129937,-0.699639609660472,-3.1085517210928906,-4.710512586231451,2.7805334531088457,-3.810290830055866,-5.1733490877064785,0.840570325951086,-8.802362775392407,-3.7992360045479985,-8.489136033408318,-7.016448219314547,-5.725168658527824,-10.184237313819928,-6.1003953821966785,-2.152268467810371,-4.4452811266207135,-5.192373569996191,-5.503911751481054,1.5620612904325117,-9.135210607906753,0.6426556766764145,-11.184178793228046,-4.793634066890354,-7.0562178185094115,-7.765211891857238,-7.577791841182472,-8.228562411539091,-5.723409068665326,-3.65154918317063,-11.925264155177473,-11.004086525774772,-8.97175349082427,-1.74307804366491,-17.111997112436068,-9.286497446159935,-20.46387522944935,-14.343909587290568,-17.568019685759502,-15.915428134959344,-14.445798688112463,-17.263175380562053,-14.390883296340046,-12.639898927005952,-17.100338383717702,-16.730241099978723,-16.724320490874234,-12.319927824860912
1669984256.159114,1669984257.154709,5.247365951538086,6.242961168289185,4.0,39.64957416810631,0,-6.670449202293001,-1.0682810573277859,-7.944631769651113,-2.977349410151326,-4.045376763947547,-3.6342430533656254,-2.542204205021015,-2.745562739325133,-3.735739303535268,-6.514913485865526,-6.720365453125812,-7.564708459218103,-2.045326248989779,-3.044488752876747,-6.515414101283281,0.0032287232892818925,-10.432741042666283,-5.488699776085474,-8.135002924582992,-5.331230858552926,-5.508791214232421,-7.113723679836932,-9.731289408689026,-6.181255013857202,-5.868822399195254,-6.184295417605337,-4.253464403498858,-0.5016400562349417,-6.579221359862041,1.5003038279775607,-8.337627291534938,-6.453743826397286,-8.3270480330285,-6.570929563275694,-5.887567874067619,-6.3241806209659455,-6.971680211330861,-4.358725809632775,-11.044915950159325,-12.688249592735776,-6.659955474781855,-6.293812290549724,-16.69923079523645,-5.3074673267504995,-17.486760861992668,-15.176369727581118,-16.061356456137194,-18.762638571544187,-15.867055578976226,-15.881744420892169,-16.230561254297406,-12.13778424470956,-16.241694433355768,-18.184124429942546,-17.64427105181456,-16.260447576530236
1669984256.408989,1669984257.404583,5.497241020202637,6.49283504486084,4.0,18.369932721782572,0,-3.4146890426970025,1.0720866294258657,-5.272065695322304,-1.7309608841546789,-3.2042135837273333,-2.798521873070296,1.932830092380371,0.08680369026473186,-1.2164009555495914,-3.248440410399065,-6.718178353481057,-4.893351292631208,2.7994108610775124,-0.8120865174675711,-9.274033157321268,-2.907822992352985,-7.55631743879473,-4.57436111327209,-9.529976504228179,-12.103637031958705,-9.077521171545001,-6.258617410268398,-8.037164145298537,-7.67072705958885,-8.607701822354056,-9.300712537863546,-0.08415412101564168,-4.383788975011368,-9.106345760818158,2.932951754965715,-6.906971267116399,-6.654963814253713,-8.63682822681623,-6.617029249657805,-4.601954933161291,-6.700130607623488,-10.470883517721873,-7.979427459035419,-8.292757920238992,-8.874100205428492,-5.334502542423396,-3.964639646271113,-18.907207014858216,-3.346842139955626,-17.198941365800053,-16.934934631700337,-16.36749789183331,-16.709817268142572,-12.886965015567014,-16.221009534405137,-19.80428339265363,-17.511271477366805,-14.9895871032166,-16.464399209714305,-14.935175155119108,-11.115900720507488
1669984256.658864,1669984257.654458,5.747116088867188,6.742710113525391,4.0,42.21410460849045,0,-5.171586478768302,3.7110057012634687,-7.218458588817707,-3.282234148003801,-7.750785507464357,-3.90186981416355,0.8668716122113989,-1.113791210932714,-2.4040761797201076,-3.462996374739193,-6.005799477714105,-3.746201727256071,2.6987568763841043,-2.5556448356337436,-5.428294152979369,-3.4968892264330718,-7.646137157314044,-3.678705897302455,-12.196029672123426,-13.84975674133785,-10.642777363031314,-6.6995686212899415,-7.690669330340565,-4.186017556870166,-8.242776162774078,-8.898988634251943,-1.9270636949062463,-5.411207200778408,-8.813264239323221,3.2638901811342897,-7.23627567812069,-4.177600779039611,-5.941988023228745,-6.837221850426638,-3.9104055314736086,-5.956271316221997,-10.355853567758526,-7.537343985407436,-8.311860448532675,-6.453785692827724,-3.10051550110634,-4.770328083241433,-18.097176666091254,-4.27270121236935,-20.017836060107605,-14.568986787079794,-16.223654405887984,-15.07849233914156,-14.08839599764966,-16.02223757823047,-16.80645513363006,-17.818768082513657,-15.178198728800226,-12.931667737197895,-12.109329933836133,-12.376732608459264
1669984256.908738,1669984257.904332,5.996989965438843,6.992583990097046,4.0,46.91841961396278,0,-6.986287196332448,2.4230866655283156,-9.36202614524898,-2.458599260830837,-6.228865844908866,-5.419404901544715,-1.9396579926297586,-0.8791263739370204,-4.01619491348976,-3.2858967688237115,-7.413704213674032,-5.160542265681664,0.7358366623674646,-4.868109071040257,-7.622060655768525,-1.8058129828398017,-11.997998845581531,-6.92204110630392,-6.897664926166824,-11.914430554020086,-9.603106190922782,-6.66122854985691,-9.923538563330268,-7.5034759795937855,-9.865881614789838,-12.336976792688585,-4.154199855608742,-5.3281524429932485,-4.432450277006783,1.9580589786354579,-7.257923184548696,-8.183509447294991,-7.469317537914076,-4.177556637217781,-6.494944307817663,-5.314283731596722,-9.256523037289274,-5.347858330914082,-7.722332733260371,-8.011858161567192,-1.4085653988407514,-5.7510505755679295,-13.64184544445066,-7.976911680256372,-16.445673709483874,-17.142828353799835,-17.75207759122886,-14.516861005953611,-17.605207319497502,-15.146304026725621,-16.04745344132545,-15.4310950542377,-14.488612525449385,-15.91030207125871,-11.29345510644237,-17.864673377085335
1669984257.158613,1669984258.154207,6.2468650341033936,7.242459058761597,4.0,52.9201729226595,0,-11.332845724436613,0.5070479022368917,-8.398298725886894,-2.592753056044408,-6.7877090670862525,-9.036550460357956,-4.25085423914724,0.3024591825719285,0.06377898105449813,-5.237761029888946,-9.700569371084317,-7.96195137145185,0.06168424017111797,-6.000147488393923,-12.287755308878484,-0.7111524821102031,-13.429914271700445,-3.124860970919567,-7.02996594671447,-9.665820816219146,-10.340375296551255,-5.953152512687273,-5.495610952320514,-3.695025066384225,-7.708504571991491,-13.053590725992466,-1.9795079368344233,-4.188225308670844,-4.808077406523656,1.412092592500731,-10.356308612539634,-8.827869398971451,-7.671502222520417,-5.84213319907397,-5.704473465789262,-3.5564593433503116,-5.649438333373249,-5.116160135088493,-7.208400950817877,-7.19915477057204,-0.8605759157789271,-5.0293164903328025,-14.040528871580381,-11.942211211372125,-16.077780515123766,-16.91634738081062,-17.945651194356348,-15.385579151915731,-16.019475815166544,-12.919789392485772,-16.88686113430369,-14.12062723391591,-14.487920684521976,-16.857160335857728,-12.506175234507522,-13.452550945624688
1669984257.408487,1669984258.404081,6.496739149093628,7.492333173751831,4.0,53.212514857311405,0,-12.31920917607093,1.8896250014916507,-9.933507084088681,-3.547483008519572,-3.212818194940782,-4.231883606826714,-2.6276964486076473,-0.6166408620148532,-1.3954870087411309,-5.760961685266064,-6.824278317151745,-6.454531030219139,1.7039793207699003,-4.29334021627459,-11.722129594305347,0.15921614137966067,-12.23668694048585,-5.40069665842533,-8.3590903462683,-8.414439959051808,-4.756577866984498,-7.289581067725166,-7.552034303120094,-5.040939791108913,-9.151336330733526,-13.05455994962875,-4.913215178990151,-5.886856466103749,-6.75346281424341,2.7929268595849983,-11.863995973108976,-6.317980112725906,-7.406719163454545,-6.729736985498159,-7.024924228196237,-6.167725544703577,-5.429145450528608,-4.710861242316785,-6.959785587009892,-8.16247650730432,-3.105085200889886,-2.626210892128963,-16.477528316248495,-8.215426050284648,-18.43235780147142,-14.74086908844087,-15.753120086642443,-16.931502131003473,-15.951900103717518,-13.9633462665425,-18.79235105155583,-13.652591229243498,-13.139410494112347,-17.956692117538932,-13.769917605885635,-12.452427715086765
1669984257.658362,1669984258.653956,6.7466139793396,7.742208003997803,4.0,39.32467590498885,0,-11.45892403416793,-1.313783766693408,-10.889594819394091,-2.3802309440698064,-2.398285805481982,-4.9164260618424205,-2.2397283935025154,-3.3394076294709625,-2.142226469594476,-5.094887096409932,-6.579934988819495,-5.84021356031537,0.20283502104163403,-4.551843105611497,-8.011452505668032,1.1410260616785615,-11.191090808593785,-7.2686976607400835,-9.378910909031166,-9.879374503709975,-3.2079937396571943,-7.046071828544795,-5.788380352198217,-8.22377700288526,-6.603792485113159,-8.996243869321287,-4.033645000001701,-3.273179147310225,-7.020174292621153,3.8500230234187987,-10.233767280732579,-3.7218204585813446,-7.0147424625483445,-6.720218910694193,-6.2604212975733775,-6.9904092818540455,-7.1595142616792105,-6.660320877020204,-6.357530243177689,-7.6478447187110445,-4.938555649007194,-4.085585753378149,-13.584406152128729,-5.707127954328301,-17.956625707393805,-11.025190328694139,-15.880143923202878,-14.623174385422333,-16.438868433953864,-13.861021654820814,-18.36109197555109,-13.50911007114381,-16.144404830145312,-16.010917449176485,-13.639312466537099,-14.318306710741183
1669984257.908237,1669984258.903831,6.99648904800415,7.9920830726623535,4.0,52.18767190844476,0,-7.468024452478583,-0.5466434095215378,-10.573944160485302,-2.8830355633105715,-1.7197465671861603,-7.8244930687359515,-3.3937575551674555,-3.3597419729756712,-0.19029486078697752,-3.415781152660991,-4.349186252861175,-5.627663661095058,-2.130747316830639,-1.2625317984639917,-6.617660268545798,2.0257396737126143,-11.948732950749443,-7.0863746481683325,-4.899388924851431,-14.79179415926555,-5.9967462973358465,-11.293758640397868,-4.952146842980317,-4.716505501235979,-1.5858927848807394,-9.111732355041205,-1.1941732689097013,-0.7644516177127236,-8.887742933964606,5.58914219735261,-8.06399204646747,-5.245442054549175,-5.365783111915036,-5.888725393284297,-3.3672241788704618,-3.6045802633243977,-4.806764418897956,-6.550523124969297,-5.327728109463038,-4.026943194050394,-5.02858389217451,-4.629094393991558,-14.524970918705284,-5.930955953305962,-17.994079093236085,-12.439304943730749,-13.857056541062423,-13.6891389605182,-15.754655302310269,-13.59142589209136,-17.958853965935624,-14.233528670411442,-15.193408887254474,-13.517221147052174,-12.881663603473454,-13.46255633221694
1669984258.158111,1669984259.153705,7.246363162994385,8.241956949234009,4.0,46.87576307403732,0,-6.353605037241965,0.9362041500145134,-8.655477091623512,-4.623165596127698,-3.739475857772141,-4.0967036438314866,-4.183771585379982,-6.370597821263005,-1.0088296374360275,-1.8790921553433564,2.326752289041518,-8.363505017325348,0.5957364219412296,1.4101458519188088,-8.372801656633769,0.28671206797660503,-5.747007609824575,-3.00949897167797,-3.6475353838279565,-10.282711999469491,-8.68686555454969,-5.442793355124412,-2.9668930323499447,1.3325574001263907,3.594803530813246,-8.240718782481162,5.989088540425422,-2.0047976490994137,-6.206218223913815,2.0043860458125162,-8.898456747562474,-2.5307330903347385,-5.3031327671705295,-5.079620535387908,-3.1394742265612834,-2.194858944104478,-3.7129848477426792,-5.803479742503508,-0.32737491876021535,-6.212457882210921,-2.20743870078582,-1.0483771799458526,-13.272693964310008,-7.512839671115001,-18.052014408069844,-16.73832419986164,-13.43209196430207,-14.54423907881604,-14.038291017286566,-17.450838610226512,-15.587345050572353,-13.047797573182471,-7.615020944488721,-16.84855763336051,-8.822022484358937,-9.997393359197913
1669984258.407986,1669984259.40358,7.496237993240356,8.49183201789856,4.0,47.67562565088352,0,-4.258493302593955,3.1980390772577434,-7.8079231921291745,-3.9151293438426995,-3.669654199672474,-3.3567808059302817,-2.9775187338979987,-6.711011853317734,-6.180206742429762,-4.948125804741255,2.948970327650991,-8.473625489332585,-3.8136672448797055,-3.198084088150026,-5.9351614145847185,3.3913730696906534,-4.610826466915988,-2.1497206263499398,-2.4136489814173845,-6.296191494792362,-6.2693687092499975,-3.0451776094912035,-2.9601876441139954,-0.1841381929287459,2.561933857266396,-5.77395063659478,4.638978946449304,-1.1551724443685298,-5.429836399555188,0.894631315864824,-8.955920444123946,-2.7533072470570117,-5.358826859045221,-5.625952256982453,-7.734893217329777,-7.585917696840246,-6.011261370225584,-4.793666324953064,-1.0738452800664522,-8.616237538933792,-0.041644797257451266,-1.8384426663134006,-11.865379168110772,-8.227556564744622,-17.013019261329717,-16.600146598369182,-13.026083012226088,-13.208645574771738,-15.304281078575917,-17.82372065887388,-15.560776493510016,-11.1268976849197,-6.767416799761441,-18.892523924771673,-8.04734061843773,-11.008005305903312
1669984258.65786,1669984259.653454,7.746112108230591,8.741706132888794,4.0,43.28222542780225,0,-5.691148636378369,2.518799956343711,-10.20809537521335,-3.2497876785668307,-2.347815257675581,-4.27928090544914,-1.07115968312513,-3.966444469861945,-6.639967838375409,-5.262915450460036,-1.2159947644105078,-9.248794404996005,-0.9034577248518372,-3.791045887601107,-1.2136068681945027,3.2712104182669597,-12.19569480364397,-7.870786816903986,-1.2473052594993463,-4.725167276691017,-4.247705734967861,-3.4779011381369522,-6.041997415759052,-5.30469569106975,-0.7582128968983148,-6.252571182780352,-3.817193424633472,1.3549014958232979,-5.6659367438131625,-0.7733051389296706,-8.988966053402907,-5.775644706606019,-5.936602980801534,-3.9342657015829907,-6.3558445512253385,-10.395366550946576,-6.913641609091909,-3.974304139618238,-0.20099109614348157,-10.124838550622295,1.5023700559012043,-3.2216000046198348,-14.16663320912001,-12.710632948642857,-16.442330092141628,-16.784885649457628,-13.623801693556771,-12.435732487593995,-12.658878767990666,-16.421520646372635,-14.975967895641054,-13.965806001265895,-7.726403113193493,-17.92968359965729,-9.88409605054046,-10.44486539283075
1669984258.907735,1669984259.903329,7.995987176895142,8.991580963134766,4.0,15.957833232089888,0,-4.804002974548136,3.6849996539242285,-10.932505760112841,-2.545098685969548,-3.4067139890783347,-3.55051240823516,-0.968950274027004,-1.822128295627547,-3.862561391789524,-6.403121329745299,-2.255035034358799,-9.185373736984534,3.17265297107024,-0.8014505102033888,-4.221213866551409,1.457279152999943,-10.08731029500749,-7.234093611839306,-5.177067205457487,-3.284910753038406,-0.5152837974813511,-2.06648259098462,-3.8446513602775108,-5.740876862865649,2.204776688821049,-7.400397492810766,-1.8877366814536125,-0.5081056788583022,-7.248658237841373,2.778945366962531,-9.037657452961778,-4.786901567992777,-7.010674577864185,-2.3679357628685658,-4.615759627662043,-8.753686925044414,-7.143759421367463,-4.052762740784153,1.1508661219963847,-8.036868285711126,1.7638050717446474,-1.9333871410793968,-17.015457485719793,-9.996654938810877,-17.75074822426436,-14.72381240233879,-16.184414513939814,-10.982631407961625,-12.297172765890846,-17.58878226066042,-16.414736806800494,-12.58890651555128,-6.497135735238652,-15.420719883627282,-8.646897524785546,-10.213562691164777
1669984259.15761,1669984260.153204,8.245862007141113,9.241456031799316,4.0,12.508147358044457,0,-5.164955000354809,3.90509991593824,-10.222322600618863,-2.0562847022077273,-4.175916110879299,-4.1958453096131345,-6.068907768361324,0.8630055265738237,-0.40491789541047035,-8.469380991450219,-3.0351527381232444,-8.455129609934705,1.3156165985230155,-2.1154756185954007,-8.906232436410914,-3.3950744143875404,-9.745670918848486,-5.847865597274846,-4.553457752936406,-5.28097194834248,-0.2521862945980148,-3.458895434517655,-4.983350771518083,-6.779242954704695,-0.5696119971336072,-7.916883363280957,-3.6192386990098777,-0.6953784017927374,-8.127584380320233,2.616169989094175,-8.079421871621124,-3.385701638674959,-6.217493657230815,-5.210078509335877,-5.6474787421180555,-7.866535297896753,-5.97717882516493,-7.173534380547812,-2.5269515917232708,-7.376892953488596,1.6194824755729085,-2.323591135199004,-18.701323830148763,-8.141646942802355,-19.14810413985329,-14.457626451501875,-15.725441328809026,-13.5551966382673,-16.54637129102223,-20.53663825587252,-16.580193890186475,-14.872721010857752,-12.309462621029521,-17.337094519810595,-9.754102414375454,-13.839164734403706
1669984259.407484,1669984260.403078,8.495736122131348,9.49133014678955,4.0,13.658446964338369,0,-6.815301334139403,-0.7586044732262391,-11.869986988229634,-2.7177818544818604,-4.677765450756636,-4.078137787466537,-7.406661444766325,-2.611074218599177,-3.0547326954989567,-8.175918790897594,-3.72222311271433,-11.407314884702329,-0.34018885081145805,-4.344236419462581,-9.55883833316499,-4.511748513370536,-4.936829385206145,-9.128630434456445,-7.229471548422914,-9.96716581398992,-6.896177809719237,-4.085345416790208,-4.331944819744051,-7.699813625889348,-7.947581879029942,-5.313165369499554,-8.429328491029128,-2.2872047216899447,-8.56736255492881,1.892391519700307,-7.780045653084489,-4.271888488518066,-5.8477005342657815,-6.228964253518239,-6.186100362768723,-4.332263736631895,-4.405928280853949,-6.819233780161959,-7.432784218433986,-7.256397573029336,-0.06486676279038954,-4.279284715926775,-17.090880805356523,-11.675984193564432,-19.443924249496742,-11.756655175820267,-18.60977297331211,-13.917824234624035,-14.018748468336952,-17.472966554737436,-17.292127946542337,-14.003506992360196,-15.520176913866809,-20.340303872612502,-8.672119056508809,-15.645728116176924
1669984259.657359,1669984260.652953,8.74561095237732,9.741204977035522,4.0,25.95401128777853,0,-8.268888124840641,-4.911957544483143,-9.169393744652922,-2.409571014824852,-3.10259446505544,-3.3016828388461956,-6.808323768229104,-1.5368172130931899,-4.4901920383114895,-2.82888616505614,-5.370963535319432,-7.62976250378827,-2.090077781653693,-3.2862082189774426,-11.20710099171973,1.724972553491071,-5.134892790531747,-8.303071369037076,-3.942885563038338,-6.697126998617832,-3.7704211896141575,-3.34515382113757,-8.44509540145873,-6.403942073077927,-8.121821067961633,-4.627088329026549,-0.682605752846043,-4.6849063909868995,-8.819716330486607,2.730863786487245,-9.411569749318762,-6.7102681525500145,-8.791186389835632,-5.565265897396267,-4.507551641503097,-3.5534910098296986,-7.078907506772854,-7.0667728049734455,-6.518797732181437,-5.611277720712829,-0.16181298013202253,-2.205178812054127,-15.936325778772812,-9.981542756968583,-21.069270075087267,-13.731800072643278,-17.18774159033256,-13.218412184646402,-15.721951111323715,-15.095089771521135,-17.201516716023384,-14.199844268811137,-16.170106476879333,-19.227713726796523,-12.075037398374931,-11.745967986218036
1669984259.907233,1669984260.902827,8.995485067367554,9.991079092025757,4.0,27.201675355788314,0,-8.4061416238041,-5.271779543513104,-7.023588639310802,-3.141748669450484,-3.645359249028011,-2.5899913975154334,-7.83753142494597,0.6675239216755252,-4.013873340171795,-3.880068155907626,-5.995003271605157,-5.2764581565204445,-0.12118160314111988,-1.3035976673723557,-10.778235699030038,1.1028605192305423,-10.053332387659228,-9.484810839788077,-4.475050736663569,-4.867724299717981,-6.263751531289543,-5.245725436490223,-9.253902140527337,-9.576082518815642,-9.060924054649327,-8.882860855457519,-1.0513005222330782,-8.827753179239364,-10.279268483151164,0.25690887251527067,-8.660604617449813,-10.915929766954292,-4.9143359865164165,-8.259466697545134,-3.8467281223807035,-6.181034711423601,-9.216624466225573,-6.959650251259125,-7.378925773937012,-5.102270400117276,-4.439799664069467,-4.103074813352744,-16.54313030314928,-10.13544775236489,-20.855782395852668,-17.134328598776754,-15.325886946997677,-15.3160556053727,-17.093333150234827,-17.7517187003601,-20.645042956051526,-15.108025434993454,-17.153072534249468,-16.453695375326998,-18.332499603995164,-11.70851110233662
1669984260.157108,1669984261.152702,9.245360136032104,10.240954160690308,4.0,29.861001232393747,0,-6.160616767330921,-0.8142491358221775,-7.518616251775314,-1.3385433724072393,-5.81319522568948,-4.098486287288358,-0.8901822664242625,-3.3317121603694044,-5.823466899680847,-4.049430287297077,-5.611910677120172,-9.35596391020417,0.6725755354349178,-0.04589937232946868,-13.003031225439772,-1.742923686384048,-8.290208111205425,-5.237871280479038,-4.2380189832652935,-4.813149196860024,-11.087187898950315,-10.857021113965766,-11.449320563563091,-13.136552003375783,-7.73322907374748,-8.007064574398633,-2.418965945406552,-6.389647249620648,-8.330042979219154,0.8060700302363035,-9.7282963827264,-9.253216756916418,-5.535962313381447,-8.653386398737386,-6.051525204651645,-5.541848447548099,-6.134076807845071,-5.355968546918532,-8.215493236913057,-7.541262932398683,-1.9564971780384632,-6.183532926543879,-14.147799287723778,-6.85575080719076,-19.251838553847854,-16.843398602081542,-16.498829140943837,-12.839122791029547,-16.09758657438598,-18.280946288508872,-17.57837078563987,-16.187722546345718,-21.514920800352982,-17.72772309268459,-12.183376557802472,-11.672697191058194
1669984260.406983,1669984261.402577,9.495234966278076,10.49082899093628,4.0,31.84053583797257,0,-6.639861101451597,2.341069154464623,-6.450205234296843,-0.3143319291240646,-6.3626998446462535,-4.171599297484549,-0.48740600763447667,-3.7637220328507572,-2.764518319183969,-1.3512645545831083,-5.444414910461005,-7.319757136678263,-0.43125853472155834,-0.7434179838380817,-11.295613217553303,-0.2759406761770713,-7.838189373248153,-5.472920771412214,-3.3577476280511287,-6.535817165481359,-10.111182132896053,-6.6475989648784335,-9.730705303286435,-5.333814783698592,-3.099595417307168,-5.783118281492371,0.7635388828689162,-6.050784331244285,-9.594661260037576,1.007557577304382,-8.580020507946948,-5.520003827370448,-4.852000608505272,-5.345768355036484,-7.979050656659124,-3.55008994944003,-3.174946937708884,-3.2933589577857947,-2.56201308019753,-4.729168021854019,1.4728672033215626,-4.931645762926669,-14.150551288142756,-7.931750430072228,-16.678144895821347,-14.168430696208066,-16.91663048416764,-11.278032129866817,-15.695945468968983,-16.560332893709266,-15.023559391664222,-12.459933699541196,-12.306150751828067,-13.213988785175104,-8.274314673377665,-12.854044412688543
1669984260.656857,1669984261.652451,9.74510908126831,10.740703105926514,4.0,25.101001333730387,0,-4.941513963613845,6.644412780089922,-7.44874252621247,-0.35733445283831605,-4.944315660246148,-3.5452626538788383,-4.127540559962412,-4.291748020871941,-2.8412559866759315,-0.45140591358838245,1.357059264828648,-3.689800724042378,4.912872652647876,-1.2482039909631637,-7.94495774986321,4.365359839539458,-8.214203199789177,-2.2848702788653066,-7.8142843972438545,-7.593618983378018,-8.22830461985289,-5.369097459738585,-7.959680012400428,0.2187300256398721,0.3941138754540477,-5.166294190214945,-1.9263617820980572,-5.865875743250982,-8.41125117691896,2.2343767927883462,-5.850430748455135,-2.591094598178994,-3.553005797872713,-5.338440094122953,-6.883699611979553,-4.93599146561724,-2.0876297115721414,-3.158646665598331,4.191100377762416,-3.566648477590974,5.232348788486091,0.5275858666886806,-13.591732878414891,-3.73112955275778,-17.86565047528934,-11.258352352562316,-13.78751506343917,-11.704884306355028,-15.990690398235841,-14.745346107930757,-17.411158499024026,-9.491496755483112,-7.129803872056312,-13.914449522687615,-3.5755075914090098,-9.366497381525422
1669984260.906732,1669984261.902326,9.99498414993286,10.990578174591064,4.0,34.85514958595529,0,-4.533993184905427,4.268914095224574,-5.47991686033985,-3.119103846612818,-5.209406182624958,-4.511283797013579,-3.6202574574807618,-4.195764942085985,-3.46940227862295,-2.455084569597794,-1.4355642860858906,-3.6370322360335168,3.4444666444821714,-2.4884389218825937,-8.751080862876957,1.9190790355166132,-13.244412615236467,-4.284215396603529,-7.985569031628069,-9.473644320272971,-7.998888528954348,-6.424342050256567,-5.9257407957951465,-2.119892183673623,-3.608346720068798,-8.943642750138585,-2.28292424178169,-9.85142055822043,-7.606801916671016,0.04630308127515058,-7.668583141884265,-5.859496436904477,-5.16806589339879,-4.3610687255652785,-5.214997208339637,-6.010073460140973,-5.745627640889781,-6.459255900816592,0.7374319615602142,-7.1033844927942225,1.4365744208064914,-1.740916294578778,-14.23106679568616,-5.478657922211888,-16.917900901525925,-14.577147206097308,-14.367215370610829,-14.373258719548252,-14.688728587870825,-14.941380692303593,-15.722552226773065,-12.43061268736499,-11.559297128720157,-18.91350952264666,-7.166713633083429,-9.756403263023527
1669984261.156606,1669984262.1522,10.244858026504517,11.24045205116272,4.0,42.84134667166977,0,-7.158717452059031,-0.3990459221677031,-5.220209696227198,-5.956937383012198,-4.092459754644455,-2.845931489827887,-2.1412658966844327,-4.83851965587261,-3.351412139687376,-3.071701105085321,-8.714950674183365,-5.9223897690349405,0.29821888731606017,-0.9486062019930739,-8.94760241373257,-5.610094609847419,-13.54202261332044,-7.122922272381609,-8.41839852664452,-7.228398071018155,-6.248531708264253,-4.8703771509263225,-3.218559118404874,-4.149076239605969,-10.375215453779349,-10.095563850201689,-4.743601573833742,-5.368767907623556,-9.862355360934245,-5.018027913431378,-11.127963794199934,-7.189026074580985,-6.201476444621602,-3.2927533760053813,-4.616708973937521,-7.247894886361127,-7.839235175681419,-4.722402993657365,-7.770582342300072,-10.745582119518733,-6.0650842835294885,-4.082448524000524,-16.054639229533834,-9.56012681109048,-17.368057711951785,-14.986470593600473,-14.68838907667693,-14.145792835832125,-14.254484998078487,-13.105173195308392,-15.406966147664091,-14.072223461335911,-16.013132123493186,-17.284002010298217,-13.608011011447328,-10.020483332161039
1669984261.406481,1669984262.402075,10.494733095169067,11.49032711982727,4.0,156.11430210810116,0,-6.002452246585688,9.617109697550145,-7.086281847552308,-3.312380177616487,-3.992429018888677,-3.503004835759085,-3.0365216207199515,-2.6578566326456254,-1.5979357501670752,-1.6758686634713618,-0.21465105512813837,-4.8507618800473145,2.6532060683883025,-0.4458716647445252,-7.479558210321025,5.349044739093768,-10.692036057541559,-2.4032009059947126,-7.37755514913251,-6.790105501751933,-5.801387438389404,-3.7648436505614926,-2.4833187871295133,-1.0274116723879698,0.4422909945018038,-11.976553585845561,-1.0585080232144664,4.668233213113409,-3.460004421566936,2.7789773311696706,-8.113985598164259,0.8167972517188524,-4.931124329946572,-6.369453345636869,-6.721041406120108,-7.0956357738358244,-5.775306364625822,-1.0338892273470761,1.1873992697571092,-9.489736382969603,-1.1214292051451726,0.6003716863867924,-14.03969417902063,-8.037181374340886,-19.02140546576166,-10.182774866656034,-11.937644045667906,-15.110354583019435,-14.311368983549293,-14.651512758929563,-17.499551895261092,-13.616084334860785,-5.931077919524551,-17.25964482781368,-8.111532584968433,-7.984630684533542
1669984261.656356,1669984262.65195,10.744608163833618,11.740201950073242,4.0,204.18411690216607,0,-1.0468293313034036,13.234055120145767,-4.098962934752324,1.2908150098487945,-5.54438609737287,-0.5618380531414557,0.1357954849650163,-1.6724263643830162,-4.297209143034088,-1.0367237745739804,6.072285493253715,-1.8000419339451241,7.713527211644613,3.837274844198232,0.778427602855758,10.702421552754977,-6.61066025628558,1.3021235511349625,-4.076578151371707,-1.6168190350865774,-3.2024502050040144,-2.9280308553709706,-4.644516598580385,-0.29338345242654,3.7748771646907975,-7.427791678839353,4.0126152720191115,9.259110567630632,3.063761755470348,8.288960832143164,-3.0579761681160273,6.455564651685303,-1.0162740463547006,-1.6473162602441918,-8.771032415191243,-2.9463589897914417,-1.6418680788203934,2.5194432731999523,7.164428976857534,-4.747696008834047,4.497404426885404,6.766569242118548,-8.915092955846529,-5.617011579100555,-14.970886747088482,-4.855187044207145,-9.517631506580406,-12.567321002493625,-12.612678369545945,-13.640394612960804,-13.115880469722473,-9.057428304398282,-0.935599498992205,-12.629359794786355,-3.8508588009508937,-3.354889520193879
1669984261.90623,1669984262.901824,10.994482040405272,11.990076065063477,4.0,269.7646971523084,0,-2.0941488285054994,9.081580928075116,-4.997051554438803,0.2277041140476212,-4.749440863518418,-1.4098490982542098,-0.18479383527607737,-1.603360234238187,-2.9788833019760337,-2.5488502641948125,3.6758457127026745,-3.5943903323471487,5.241086225653737,3.9179661716623686,-1.0272769120233445,6.790353906467734,-5.7350989662762375,-1.5696530786557972,-3.333796316231379,0.4110665232366506,2.0680454741674366,-7.794660858045028,-6.658253575414408,-1.71643263619994,-0.7007710159434087,-8.382491741281274,0.2978825965237663,5.536825427237099,0.03485972773193233,6.720732896328756,-6.620362328910055,4.4235468858399605,-2.268504613650482,-1.3967679755609312,-6.126778239191485,-2.108009940110949,-2.485424449010149,0.9020833050327304,6.036233620449625,-6.2606934181053955,1.9578746924225254,3.726390921334961,-10.84604150005342,-5.7442782867202835,-17.191932155015397,-7.519786207373642,-14.424278503203482,-13.805170909872972,-12.483964588732636,-13.792256044246326,-13.82229882910119,-11.455279327161193,-3.6637109950956237,-13.856227257001281,-8.320083497989447,-6.474023457635799
1669984262.156105,1669984263.151699,11.244357109069824,12.239951133728027,4.0,273.34320709753297,0,-3.363605194921458,5.81705900524515,-2.5454787207658285,-2.2216431979647706,-0.4380049613042697,-0.108615568738174,-1.4606577567282795,-1.957006286851167,1.2780710676254883,-2.598222530809615,-0.5280726151742208,-2.355782829513614,2.9013840728780522,0.20821895783270036,-6.287552838390069,4.17817569469401,-4.838608823388244,-0.4042287771260431,-1.5041036140331443,-3.4960641404053545,-0.03686268201680564,-6.881133626580392,-4.019482785567448,-2.313775089792781,-3.909183010685596,-9.565708926801916,-1.2546951822146926,0.7062256549024746,-4.12582921031159,3.962841944550771,-10.504662411761384,1.698410992344839,-1.1436049462554383,-6.294218017756488,-4.769771262021142,-6.070863848117154,-2.257737273104583,-3.3312282159788174,-0.9331897745940197,-7.499740289529417,0.7663653600426092,1.6481841571390854,-11.703556962050857,-7.867139428373981,-16.405209021210023,-9.442604452953894,-15.505183483362178,-16.012647642860593,-11.247326095374158,-16.66498335523775,-13.894699186837297,-16.904603504484182,-9.512759352834205,-17.73997681512292,-6.8745441849953455,-9.25804797652952
1669984262.405979,1669984263.401573,11.49423098564148,12.489825010299684,4.0,214.65390286848262,0,-2.6323389999240088,3.1805328599020126,-3.05316584774975,-5.892424304135435,-2.3229295732175945,0.9969991824785861,0.7648754933484075,-3.591348709036673,-1.0805550471684962,-2.5182337488283286,-0.2826007136832182,-2.1778451659507687,0.4865283890931113,-1.3693271908741647,-4.87712373622071,5.800811192035395,-5.694206098541948,-1.3903830828245758,-2.5266420578687776,-4.24207997444174,-1.9449584761707286,-4.732146923275464,-2.207015853270598,-2.9600245790834636,-6.459827041787991,-8.278990366080002,-3.2529893481477794,-0.08957989015876719,-7.363449674493124,-0.04785668400297452,-9.586195162108213,-2.2954390278354477,-2.950217697317183,-3.4286460530151777,-4.18437725918362,-6.339935307949132,-4.0861707889585155,-7.739207558893975,-5.484614117045268,-6.3880779870448325,-1.0792617739859989,0.11065161323455755,-15.347984038955628,-10.926960369253614,-18.24270944869221,-12.121680975951241,-15.605480956631963,-18.217785953972943,-13.860735849583952,-15.466294339434995,-18.138623024188163,-14.948909869547034,-16.938823834350128,-17.95555623151017,-8.410199137289032,-11.57082039549712
1669984262.655854,1669984263.651448,11.74410605430603,12.739700078964232,4.0,191.3985872546607,0,-3.645234898980373,1.9130228062288328,-3.8341421314711557,-5.503549064640643,-2.624606450430132,-0.02413757477978936,-0.5613946781259775,-3.112277918568282,-2.5007102634815066,-2.3580413948173184,-2.955150285444999,-2.7560561429694697,2.3960149393747674,-1.6150246804117696,-2.8183174224957552,3.3801153645880797,-8.443171438773362,-6.727475716495091,-3.625744232275877,-6.843865043175795,-6.692051028472612,-4.3638667363915316,-3.8547949408724262,-7.703083958894096,-5.042050161526489,-7.841978805170808,1.1650011980277344,-1.379323297394861,-5.884511088117103,5.014743926891306,-10.815178595650467,-0.2786700376832796,-7.148539264652351,-2.8284582350392835,-4.706026995634824,-4.020770990736082,-5.230034539128039,-6.163747241031881,-3.186885417770177,-9.215385600905277,-1.372346292885331,-1.251958442847464,-15.30077797905224,-5.619849227289696,-19.81371129020162,-12.654987346100564,-16.491177458210984,-16.160521370417907,-16.371345823517867,-17.046096039757266,-16.668843530107175,-12.580292835138513,-11.511793264676873,-16.15351818905215,-9.501081290082888,-11.549890877764229
1669984262.905728,1669984263.901322,11.993980169296265,12.989573955535889,4.0,95.98452569028157,0,-4.701958188513629,6.35342119160722,-6.75715681953207,-3.6462481974985477,-0.6662466441034192,0.32119736872463034,1.1322577343403457,-3.994602495076501,-4.631702351880465,-3.5702828649872504,-1.4752503757851767,-6.257483613620542,3.477427316477439,3.0616653383533228,-3.0235215350366524,6.744051905675147,-7.478988283011004,-6.5808447575802544,-2.4757277086267377,-10.24094164651039,-5.875270868595913,-6.269189120415426,-6.999468089404318,-4.165933085283139,-1.219436573771521,-5.32735011957066,1.0182986885471752,0.2589466264813669,-4.71484015213345,5.492936731733669,-11.359827314097862,1.4928180716817154,-7.159811945637086,-5.1621626645577665,-6.066996668755857,-5.615543279036789,-8.734887970383822,-4.199958595303016,-2.1235208087318553,-6.946777678465042,2.691530326438491,1.5997723388992902,-13.914688608844815,-3.6480156325809543,-18.498921294233263,-13.235421174888181,-13.788154206105395,-16.704604459456426,-13.572751517566777,-15.700924156857106,-15.517926397973767,-12.911351118619962,-9.231154712900798,-13.354544744454158,-8.584750624803858,-9.156671391544664
1669984263.155603,1669984264.151197,12.243854999542236,13.23944902420044,4.0,63.71317961713477,0,-7.924157746128474,8.606583706888141,-9.425649061076445,-5.049501128225198,0.602658231757351,1.6177770344970834,-0.7269159775429822,-6.138581191192721,-8.89226909280013,-7.389751165530047,-0.9292191997866048,-8.760664172954193,0.7134623508436232,0.43254145674268274,-6.344923920929434,3.516954160979489,-4.5802470668635875,-3.637646114827368,-3.6404830037991998,-4.126484491218266,-3.089086088541383,-4.018622033575933,-3.2762859007826552,-2.5096009327955286,-3.6238436548330895,-5.197882328045868,-2.686992294838786,-3.3189999196812443,-5.451913973965498,1.9540172118664394,-9.485260949078029,-0.17922633828508688,-4.662276646977762,-8.089796090891191,-5.844710173217891,-5.84210809218861,-7.998998876269148,-3.391806462456359,-4.758761141123692,-7.374753854136188,3.2415759201280494,0.3957945968505422,-13.994215687318935,-5.262289893843678,-19.740718155950315,-9.978127799767217,-12.955742123388038,-16.801509443642573,-13.04621490709512,-15.02215244871568,-13.520660794441445,-14.71529052357933,-11.734779300268173,-13.381983057754091,-10.35948328282155,-11.254234931921616
1669984263.405477,1669984264.401071,12.49372911453247,13.489323139190674,4.0,56.35378243398097,0,-7.061969779770038,5.972435426163923,-9.13743300446982,-3.057479886457488,-1.4454208874350047,-0.3171719536018076,-3.4027243204515925,-2.226867840446447,-6.347695356616397,-5.641369147913295,-5.821980601649321,-4.823635796566343,-0.43777090195725926,-2.3229050911999978,-7.857478677547107,5.216503265611911,-8.903071782202492,-3.5628223273160127,-5.72846836094206,-3.5042235302677387,-3.7891051247968655,-6.349148037102198,-2.507874288164374,-0.8615069151779882,-3.103801266474413,-4.948810594608557,-1.0930621180356639,0.8638685838007767,-6.770419693419079,0.8498632454361638,-9.088144314053379,-2.0660632552145333,-4.831155146413534,-7.913218540191698,-3.650561095514554,-3.9070634911858515,-6.999761010671984,-2.3344936706618418,-3.63525058028153,-7.181827230071304,0.027821986263391822,-0.9047379524708298,-14.294546034004362,-8.674786552518688,-18.729610403866637,-12.574803819357589,-13.244221460597775,-16.566615192022713,-16.26578338606461,-13.85212496495192,-13.04778838148723,-13.189061109370495,-14.289286114425973,-15.900111069502348,-14.145227609236866,-10.375403784824197
1669984263.655352,1669984264.650946,12.74360418319702,13.739197969436646,4.0,44.49396335673149,0,-4.637499277771136,4.534909433621827,-8.450573841575684,-2.8130674988626065,-1.8657188871398245,-1.6202051387834389,0.1901021957257912,-2.2810030590394046,-4.666703467129397,-7.437040430403225,-4.608666048854888,-3.903895205488441,2.543077910668611,-0.6194120200832489,-6.06402738894126,4.8137368811584995,-12.110681558383723,-0.9284301862534418,-7.7204449994033055,-3.557418736664827,-2.689195302509363,-6.469918576252733,-4.1565416047244526,-3.105936139488943,-3.3985077370774563,-6.172177165094405,-0.4410905624755085,3.43766864397708,-5.884065544229885,2.5486903083950043,-9.146543969896626,-2.007098447097699,-5.362665073785756,-6.583268224147238,-2.9600901457088966,-2.9016787515777835,-5.3739049437208495,-2.0779403805390477,-0.6075566686312386,-8.581336591933818,-2.6733729898880387,-1.1277587294449205,-12.210833694335271,-9.636121699460784,-17.779189838499,-10.186898867844397,-12.255168182303077,-14.970004756195953,-16.33780727150095,-14.01847408325883,-14.233351240236411,-11.289152539863787,-10.754348161102227,-17.19182198892379,-10.516930754975258,-8.595262354811975
1669984263.905227,1669984264.900821,12.993479013442991,13.989073038101196,4.0,40.1681000479421,0,-2.96240071989335,7.410108137223661,-2.9895632651352155,-1.0897776969550157,-0.0901111300746614,3.304020741280374,4.384908026121034,-5.381030153171792,-2.8361479111291943,-0.3998797390380491,4.318491856246334,-0.033976752905501416,4.043372537971387,-2.1465577524818986,-4.1637967042046755,-0.8677628813838856,-10.186335646715696,-2.5736718576791375,-7.435955027027541,-4.215342703572132,-2.6121771727214194,-2.6121273933359013,-4.956195469925077,-4.366815187571343,3.218296618806887,-4.497217515259783,5.665005975839215,3.082854275236273,-2.904225896604281,3.542243634045364,-5.876946711458661,-2.406406387634627,-1.1542590165172641,-4.361560259965972,-3.623574126547862,-4.583637542845519,-3.3937427575031083,-4.749266491272337,2.2949135680201485,-5.3179898157696535,7.42639950092217,-1.8512943149822263,-10.002464597552553,-3.8449774736571323,-16.103720717786402,-10.01904221842912,-10.57593002611184,-12.719637386496633,-14.311478303278841,-15.033766702199125,-16.005477343673657,-13.641717993004566,-7.212961718478796,-14.696069208450613,-2.047953963663172,-7.282874992957459
1669984264.155101,1669984265.150695,13.243353128433228,14.23894715309143,4.0,23.897505709513844,0,-1.5228202295829298,10.14325951087472,-1.0103761086381011,0.14347514682910148,-0.6737904910530829,1.4442101456510212,3.4968089009630843,-4.154631330038786,-3.1510750688692752,0.08627899064947689,5.163817712949421,2.1445141912159498,5.029777456233279,0.8741013779112033,-4.568994526275508,1.1195407734315375,-9.146768656218065,-1.6330957977340346,-8.17684569534783,-4.110950202533145,-3.5916492061991248,-5.53571135363315,-8.08350774184425,-3.1635825876595773,2.8785916903459325,-5.91671785235423,5.47277018631533,2.2147474997345116,-2.0758670034900977,2.983182901368649,-6.646869878220668,-3.5092438057050024,-1.31628889443817,-3.3925248251507694,-3.267812519123905,-5.1348169032581215,-3.3586826308627127,-4.73912397282929,3.199852818660232,-2.835876845928242,8.55872748653295,0.1280368249825869,-8.419349193959757,-2.2866664616596166,-15.898870672201703,-9.166797884961307,-10.963056928326033,-12.147633281959912,-12.333778553866077,-13.193045241839208,-12.184565269525072,-13.90266645482356,-6.75669467422078,-12.589309102981751,-2.283739223809845,-5.590739379292936
1669984264.404976,1669984265.40057,13.4932279586792,14.488821983337402,4.0,25.93601010139079,0,-2.2765256384488994,5.768782864425848,-1.9158351187211435,1.7798010451865076,-0.4688739798760117,-1.3597515915885405,0.24678114383839408,-4.705642447315573,-0.2225273423275096,0.3172158212866284,-0.1898514909781221,-0.40006668968257675,4.3824160073190015,0.7577684734250677,-5.501247595207813,6.547267216638626,-6.81862240809356,2.301962423051945,-2.114192575748412,-4.772102402382715,-6.349919367378211,-4.634359161749783,-6.927116835357713,-3.848728093602352,-0.6874909738986523,-9.766003443629687,1.4482908752391344,0.06759678726199507,0.5839347088043284,7.793528760013708,-7.743509384625497,-1.3576241287779607,-5.151070981523338,-4.357360472968848,-2.487729696920181,-2.6827227465218777,-3.2726470507573686,-1.6853906672074261,5.344179216898473,-2.6045666780098813,9.656548034604223,5.618966106755147,-9.603721652522779,-2.6524716477091603,-15.709479100735722,-8.460213102621093,-11.624693014055506,-11.899935625894589,-11.865024662483446,-12.437493380911366,-13.535010091457575,-14.87899536210017,-9.104862755116777,-13.174328416039563,-3.97149274406304,-8.272715615272082
1669984264.65485,1669984265.650444,13.743102073669434,14.738696098327637,4.0,33.64820032354723,0,-3.680142816643146,2.6564478106681206,-1.5759749797245592,4.846032077499558,1.0768895960501068,-0.12353934547613286,-2.0842445382716406,-0.01909277398274091,1.7394815697479358,1.1040744892762075,-1.6321791781174908,-4.46715226981799,4.972133584048962,2.398987146652458,-7.92612983653629,6.546971690337181,-5.720016949476809,3.0686319201728907,0.9270764468783359,-5.6679716618604985,-9.302926937943454,-1.7445510705368528,-3.8433455263473144,-8.178386571469849,0.5817547561153562,-6.783198000345122,1.7000738483739393,1.4431193175093098,2.2666540698973385,9.989249904024666,-6.594648774110991,3.121556111119154,-2.3938412455886997,-3.8874061832373603,-1.9179715349709234,-4.770501989892092,-6.109472953870535,-2.421230122747347,5.9842754286063915,-3.1150308531949222,8.766023703499798,7.046327462634737,-10.865154716571425,-0.027439320049699352,-15.10452864658351,-6.694686679082624,-15.060255902147803,-13.066915678887138,-11.962152936386893,-13.683529215457,-16.113242062645586,-14.44813970429611,-5.747116905156355,-15.013079855624953,-2.937671530403651,-8.790223303839012
1669984264.904725,1669984265.900319,13.992977142333984,14.988571166992188,4.0,36.88313425769016,0,-3.67863981213452,2.3433966549410314,-3.8097573582135524,2.1035561085948924,0.3799277104835329,0.9679479143947698,0.41958195798186304,-2.5197526047364205,-1.0221913741489361,-2.7110928208646374,0.8589447024736239,-2.377802133195109,1.8474522552085038,1.738986049766812,-4.550753039691122,7.6731004106213065,-6.991568930869874,-0.6950253604530607,-3.3905354123291827,-8.189335994460027,-4.434322448351811,-6.703986213678777,-6.071369824123468,-6.692385532669479,-0.7712494351665296,-5.26836938239925,1.37102966772271,0.993183779823948,1.2320626440565527,8.009687442157897,-11.526679335568971,1.5769268771622116,-2.8028277913087956,-4.634850632588635,-3.919949941372269,-3.794246075015057,-4.745183312275652,-4.178694370321957,0.8049844019497149,-9.567014648897832,2.1540764498749003,4.728134546261925,-12.253668072748791,1.0736607500277608,-15.671778914258814,-8.426174632803852,-12.576613638665536,-16.4231633174454,-16.60406198746778,-14.809860613991557,-13.198972282060922,-14.061597714931729,-7.423698357416683,-15.594061020550857,-7.630926461873072,-7.622345816041328
1669984265.1546,1669984266.150194,14.242851972579956,15.23844599723816,4.0,47.172354414840676,0,-6.937155868932362,8.40296156593624,-6.689231104668395,-0.964534075200164,-1.8521860304316884,0.9972072353304542,-0.43248367764797535,-7.19987874880995,-5.464101125497775,-5.233090704148127,5.472493119824705,-3.4059385499682815,3.4677796804292322,-1.8823691570853436,-1.3972063716401246,6.319067829818428,-6.826230500536791,-0.6003886813667795,-5.569936489789015,-9.348001864133906,-4.8275976508283724,-4.1159401321850195,-4.806850630799922,-1.1137689468294956,-1.0483280655187335,-6.68341766926477,-1.5716993877799366,1.8372285279867473,2.845444872439545,6.8108526344157285,-6.391556686909233,1.0337288096266595,-4.083611169774948,-4.240390522634369,-3.3300065260093517,-4.090715064424217,-2.464629769782464,0.3404369964497449,2.7176400195473764,-11.949623495389545,5.815814852818008,5.189529192585684,-7.140708300840859,-2.022962758810869,-13.603566952062703,-8.735570517407984,-11.005816704436697,-14.52251205063832,-13.325306906624688,-11.276108258761536,-9.935245096835587,-7.291878455737923,-5.028714687476787,-14.893543518081756,-6.306792001574254,-3.123121979271229
1669984265.404474,1669984266.400068,14.49272608757019,15.488320112228394,4.0,59.88706671906523,0,-5.901987865783949,10.303865498044233,-7.934538451336036,1.556556838042569,-2.546790923712527,1.6557727602633443,-1.2046609117955729,-4.051545071260778,-5.251941069151265,-2.472971323572399,7.114529927338488,-4.013817403620342,6.0781436547259124,2.0146129389248917,-2.331690059238787,8.690130600854785,-7.456331055944643,1.0130703766441143,-3.0557943051956356,-6.8380254547812385,-5.433751097240913,-2.263969817181038,-2.0364373796109008,-1.1677206764215193,2.646744301847681,-6.399690868799791,-1.6434993053158418,3.4994617189894206,0.34134838417636115,8.371682283566281,-6.859626190659428,4.257567908668451,-1.051113104999306,-4.409275297257766,-2.7584199927155844,-4.149999195744417,-2.343149744126942,1.2854421807950702,1.8596876072436075,-9.28353828233704,4.351514691661492,3.7435629890720263,-8.775472627057376,-6.653769685078277,-15.725114903903908,-7.540011769509599,-11.431357122722094,-14.917376632442341,-12.805275337936529,-10.990589039633916,-10.513149714700205,-7.898794753170204,-5.956143945763851,-15.20929513325898,-5.76611769978578,-5.623917665611019
1669984265.654349,1669984266.649943,14.74260115623474,15.738195180892944,4.0,122.48302018905561,0,-0.373029280487881,9.359707484232171,-3.3000794725653315,4.38492540392417,-1.6861558352087522,1.0333254334395676,0.9815250413599986,-0.7969652024868729,-0.4138943072660667,1.6879151762967401,6.228095974534382,-1.1059360691564737,7.986956031329106,2.599300552409299,0.22427001094215898,13.626457487432246,-5.752535577377734,1.049139791328647,-3.0265434365925907,-5.22871151041664,-1.6327449702472547,-5.312472308820883,-1.8222122550840973,-2.3450488733833335,6.884863378212015,-4.681103514259874,7.61114787505175,6.8477608266284085,-1.3550164281828092,10.989225415756374,-6.284334086011677,6.377023876962403,-0.7912988462904238,-1.9543922027935072,-5.319828658522758,-4.032379255960694,-2.086588509272028,1.8073829605696283,5.952352443826351,-6.853937742931376,6.706739005486653,8.174336021347038,-9.737037283637989,0.8723515923322585,-14.9046559220028,-4.5363080093760315,-9.625788290729385,-10.951351103247877,-12.604270620565236,-11.527235355369942,-10.761463902492975,-7.966373440147205,-3.5403404359146275,-13.339429001042628,-0.022459982717963557,-2.3657674112771416
1669984265.904223,1669984266.899817,14.992475032806396,15.9880690574646,2.0,249.44671766895343,0,1.4796366107059031,11.648574419355855,-0.9812311187322733,8.934360293998898,1.5820687480507556,-1.4873351568084403,-0.18666997297485302,-0.36528601304982167,3.1926724585027677,6.9397284144496885,7.566585643879513,1.768625348700872,13.385238001607949,0.9775370525437757,3.6422449143039963,8.97109299882387,-1.9400384626984526,0.3845007170583796,0.2562040390576167,-4.555417770920855,-1.4505870554281124,-5.938603301301919,-2.6670140598545395,1.5257409195235505,8.041916743815147,-2.024834285284755,9.84192801740625,6.161135585955202,3.6140132370558984,10.958715351125093,-3.5101284722018993,4.821312858712598,-1.963326773301618,-0.9301283649207501,-3.119142017631318,-5.034381486100514,-4.561361244598381,2.5263072235088724,10.16512070761163,-3.092910288722497,12.240557109172748,11.324480474312502,-6.185583474976549,3.6052756084367727,-11.303786382548404,-2.3664815407574396,-8.467147448886255,-8.465990266608976,-10.5747748412671,-10.976579613243377,-9.72583202551573,-5.104058828308128,0.6101014698945189,-10.596265821223547,2.5820869385701735,0.1497277572317008
1669984266.154098,1669984267.149692,15.242350101470947,16.23794412612915,2.0,281.0896271084156,0,1.438506082472849,8.707473167622414,-4.415618649881252,5.234598494407214,0.9691815588878665,-1.5893404860810758,-3.1197865655163506,-3.3903885343045523,0.8391340813182695,3.920428852378652,5.165913995391513,-3.400616409476225,10.585117924907086,5.603105124607564,-0.32635467859118084,2.699686017321784,-7.408705324031496,-4.530672923720011,-0.2274763623146345,-8.328229868641003,-5.615881534389672,-5.836083389283512,-7.336570616634843,-4.7605340065956545,3.9140440094803948,-4.236223036251406,1.7641423669170198,0.9116175838613089,-0.8810850536982942,6.436791179607146,-7.368678507004097,2.8857224248619424,-2.428753485315939,-3.5484279850439227,-3.1100453002645767,-5.042739264667414,-7.3045507722393115,-0.8408008313742409,5.086333852173988,-5.8912970994729905,8.422386859254074,5.294340592031269,-8.880279988203142,-1.7707486510987676,-14.310200243965156,-6.277543958701893,-10.242225350299066,-13.4362613381576,-12.186434404213102,-15.398195838441202,-14.754909090519675,-9.738979729969907,-4.891516310838185,-13.42631537328665,-4.838750350846399,-4.190687810690429
1669984266.403973,1669984267.399567,15.492225170135498,16.487818956375122,2.0,340.0175306296529,0,-0.13338593173473248,7.933553428900856,-6.269574418807348,-2.154357260228193,-2.4472665464670857,-0.954328304558889,-0.9487012459144871,-4.706616424067088,-2.645657671826652,-5.343802888766963,-4.889960459597232,-4.3097160063770446,1.1912324529008524,3.8471416257825415,-0.19658332325788092,6.251078946889207,-7.993594118953627,-0.5276410815373233,-3.9852197289802627,-7.716844438510874,-4.96232578649249,-7.803996403784551,-7.1393924677614,-3.059796672443748,-2.4284288012034434,-6.575028921296704,-1.34905994315332,0.9800410918290154,-5.3588469433232415,2.9535104957582576,-9.712720140740597,-0.43312066672485555,0.5031459353529598,-6.213052865375359,-5.048071052161306,-5.526690059324882,-6.635021399383843,-5.112632002667562,-2.8851314791903833,-6.259377342550067,-0.9748251099446612,0.6731704378806446,-13.559063267668694,-4.827070822296636,-17.51947550773155,-12.827986336571227,-12.437685836056836,-17.018477550270376,-15.452503919359389,-17.682476406896853,-16.621779809991025,-12.07650407629999,-12.507374492544471,-16.606011133931368,-11.614364387806834,-7.960370603338658
1669984266.653847,1669984267.649441,15.742099046707152,16.737693071365356,2.0,358.07629573990846,0,-3.081572867267108,8.600317132721003,-4.839160784451719,-2.2750294577829324,-0.4939077257854932,-0.27150494080494414,-2.16565209118993,-4.162710020694523,-2.494116363639253,-6.187190665043961,-6.586294936342391,-0.5338174146820828,-1.4729269929405113,2.19572618378936,1.4600695567358755,10.889124040833293,-5.515740555613298,2.875337678248127,-3.9081652187551614,-4.918591439433467,-2.8482099238943226,-4.778509595955681,-2.9639397723995535,0.05073693117273462,-4.836176656157809,-5.955811670063763,2.57278492002921,4.6638245034625525,-1.8174084543520568,6.788138482267117,-6.7107292769244875,-1.6513342293317774,0.27695184358268266,-5.66464572290495,-4.164665982563936,-6.428181501874686,-4.826431880236489,-2.241656819225652,-2.092934797590551,-5.847528507878579,-0.6673768379609503,2.182909119035568,-12.349522644951112,-3.830120288352541,-15.213021891353531,-11.478599022033958,-10.502379995754879,-17.05398689332011,-14.81625616435852,-16.15441768462442,-14.786799753961873,-10.757563243165178,-11.624099304267348,-16.74635925518076,-11.437627748698226,-8.457763217761414
1669984266.903722,1669984267.899316,15.991974115371704,16.987568140029907,2.0,276.7419644358579,0,-3.6469116543909026,6.7507934622927,-3.912918455912311,-2.7597220000184604,-2.804833705317109,-1.265903360174606,-2.3312163023931247,-6.537839066894398,-0.8479941786540057,-1.116856093814558,-2.6414888988686904,-1.358374506483512,-0.27702123050017063,-0.40104314249496126,0.9426868493659241,9.56388144139802,-5.158904653042758,1.379068278072628,-4.069212200738551,-3.0679629934536887,-1.4440765987858108,-4.405485504478619,-3.8828860550637607,-1.18396064742561,0.5619694307911445,-7.059862335990898,4.7559109381969344,3.869806996570846,-1.920240970808271,9.620067701208969,-8.52154239703543,-1.4404593086243627,-3.0638708331775524,-4.609852691589964,-6.57632607789703,-7.171453990001253,-5.919321806317845,-4.507176019654842,-3.93792103560246,-7.486994412495809,-0.4427299306478443,2.9314332994362804,-14.591951251070972,-3.175457605445427,-17.342163391467583,-10.676507645116086,-13.513449225021557,-15.599668339323411,-17.26303222411689,-13.586097019220258,-15.128925667416006,-12.789541234328759,-10.486408890698831,-16.382343597186292,-9.275820670856906,-11.464504009496775
1669984267.153596,1669984268.14919,16.24184799194336,17.237442016601562,4.0,123.50947413472213,0,-0.7500380896283843,9.021463951837337,-3.5934450661038433,2.0899176590717543,-1.4226993621521145,-0.5136772679014618,0.4168857064189845,-3.5681508482858226,1.0371740559707299,-0.2608295132463616,-0.42840821748207614,-0.9446859116102633,4.931784052007356,2.2888038240246056,0.6970118271497343,9.1861467497617,-4.15363773171004,4.863196960084513,-1.796528134139589,-3.252321735477932,-2.196646347726653,-4.799311187499283,-0.7575889824197323,2.6763784432369206,4.848552382256712,-5.3661931568250845,8.685188851810313,3.3018764282045603,1.9443152011602394,11.157729254336669,-9.260149053285607,2.9826608122158866,-1.1986997078308885,-2.8188487353574594,-3.4191404164448116,-5.635148927207099,-5.454013363837857,-1.0372138140919258,-0.4194364213295612,-5.903245121221711,2.0726135403588004,7.998972459902957,-9.15756318131569,-0.5711186880141496,-15.929431661834123,-6.637290444270578,-13.689484753995181,-17.379953170095373,-15.80751911124153,-12.865024139648614,-12.833009334487365,-10.40866813824777,-9.784326230647673,-14.45736141957439,-6.890431849052518,-8.946700597292715
1669984267.403471,1669984268.399065,16.49172306060791,17.487317085266113,4.0,114.04947908413507,0,0.011071676825402173,7.5414335208929,-2.5376700683950326,0.504865261143578,0.20097213437615907,-1.00179412026833,0.26500650627019223,-4.268456991360149,-0.967289703524538,0.30730956559359307,0.8449742457373288,-1.6950311709398622,6.017473628552069,0.9172612783429506,-1.1425291658587313,8.62084719013291,-5.26960581161616,5.673528274893707,-1.946527555197067,-6.366833493141231,-5.897591657815254,-5.604499507552512,-2.396729653584661,-0.9715245821260137,3.4003304224677313,-3.8205215629518547,8.557214696287591,4.823500576333935,1.2088734335683191,10.537177993954659,-6.836811597988146,2.5887641864032913,-2.9187091114452146,-3.2521189801407973,-2.3117191934683063,-5.083873453617281,-4.8125238652269555,-1.5852086186966878,1.202464599375597,-4.651444370864947,2.2414731968681623,6.352316013552899,-9.199396996787561,-1.2269345638333342,-14.406696388122162,-6.476953126708581,-13.459474410415122,-14.957754731598012,-14.051154064977743,-13.530917029233011,-13.340160815440731,-10.093344665290886,-11.660854437552914,-13.130761380777043,-6.746453426602636,-6.719338266963933
1669984267.653345,1669984268.648939,16.741597175598145,17.73719096183777,4.0,46.868468157285335,0,-4.570824953461969,6.170695073315664,-4.51578556954855,-4.829664981794092,-0.022624120538232963,-0.5903605859128939,0.4418841304403527,-5.039757401748618,-3.6142386590437643,-0.9156525801595528,0.11337282925608838,-2.198996104878908,5.887495885401687,0.7082618023137606,-2.1306046213375494,8.45603642370373,-3.6282543943288963,5.571150470152788,-3.1163851905113384,-6.23867690869424,-6.079699083666915,-1.6743991374467453,-7.200776608146057,-3.7612606465479685,2.0292165460257205,-5.320137067920583,6.964231279120385,3.773782810755397,-0.7899581889078943,11.73294872444514,-4.890533334376171,3.9759419143099684,-4.406180897751267,-3.0333051874913557,-1.8154189018754612,-4.273172590621743,-3.971610439953102,-1.5368669805069388,1.7679907738929472,-4.624352992023729,4.417602561739309,2.6592870749241864,-10.56927672435821,1.9177612306070713,-13.276501107630953,-4.03199261074571,-15.125245100148536,-12.951596869194786,-14.97901783983863,-13.170115119862505,-12.728132270399232,-9.367048660535213,-12.239189323521128,-12.391395398306093,-8.098736017646571,-6.896319567820932
1669984267.90322,1669984268.898814,16.991472005844116,17.98706603050232,4.0,22.386141181860204,0,-3.4723087116816664,6.382032700134598,-3.714759304521278,-0.37825179353721033,-4.399346749910281,-2.2317043046719345,0.8653716920712065,-5.70974107772229,-3.7965278740169484,-1.6003674912105095,-3.169632668692746,-2.958107271760432,6.065058988836261,-3.1108842401681507,-1.6529765633886813,6.540976336674339,-4.363455824502527,3.617828264813891,-3.266944519900118,-5.319514261398899,-4.354717919331032,-3.734165802364152,-12.116255080521823,-4.788166296347656,-2.7059897095476737,-5.906655115524231,1.2691576349494669,4.25925360351094,0.6850812343653802,4.442634623359856,-6.662994379774209,4.376468614789916,-2.1017958777855354,-2.563374222840414,-2.7523171090526146,-1.7497825908764502,-2.870202351658031,0.14534895061731284,-0.334992586677045,-9.5689927355725,1.583115552259486,5.284539662609118,-10.312345637778844,-1.588128737867486,-16.281668285157117,-2.8897817779756108,-12.494489719669824,-12.644499070576831,-19.77455670314464,-12.117183110163872,-12.735242169730299,-7.587417251892292,-11.476127837449448,-16.28789982422021,-6.269997946427345,-10.292501992590807
1669984268.153095,1669984269.148689,17.241347074508667,18.23694109916687,4.0,17.81017877033733,0,-0.32985572510107336,8.44904350215599,-2.896637253094764,3.2119043641516836,-1.4521147317984548,-1.4791417684237267,-2.550935023319807,-5.703091280396327,-4.170079915312657,-2.550696858667914,-2.3820837946029623,-5.429455773514937,1.7508736419186024,-5.221698393812842,-2.1895800619459447,10.294935509592289,-7.23924207974482,5.38493109020644,-4.363330716558446,-5.487569331629105,-4.487292048575833,-7.958794821970136,-14.249567793470302,-5.785063125373088,-4.299224335297277,-8.068798575149216,-0.9616620293256473,6.161728432253747,2.64170414770619,3.571359519349249,-8.084893936467498,2.4580012241390685,-2.235236695031261,-2.8482788916538726,-3.2899849992863874,-4.044453619138501,-1.6185626222750968,-0.03087477539690281,0.009539132041787175,-7.180406181797876,2.336140357493588,7.767664619591964,-10.52338127197391,-1.7295948542717345,-16.149291250080708,-5.285850567789481,-12.887019041778789,-11.898136303555603,-16.460687006427108,-14.27447304941035,-14.860939550861046,-10.904144850356246,-10.72043230872417,-15.209644994171382,-6.996669668406835,-9.217403374424649
1669984268.402969,1669984269.398563,17.491220951080322,18.486814975738525,4.0,35.80680301503496,0,-2.016384396516893,6.773559018916764,-4.229467521475993,1.5161219564651154,-3.4689971518047757,-2.937129933764232,-4.708187897508052,-7.275365878107733,-3.567704657145685,-1.8488299011219516,-0.22451014648205547,-6.602479474725538,4.70843544295251,-3.676207750190177,-2.740822522537613,7.4680376738882215,-7.869444938757491,5.638820272470672,1.6508807399772198,-9.016122310600277,-5.110897384202913,-5.510945079989935,-9.592784552964034,-4.025608801820921,-2.232516274218647,-7.3606631711688735,0.7478494182391979,4.916966056448839,3.6244754266293673,7.951628670657294,-8.210102866741906,2.7033169993822668,-2.8080101826738963,-4.6304427332311775,-3.160670559530732,-5.639067434931113,-1.970064244374898,0.03872085066354483,-0.43045165922930584,-6.452844860687041,0.5343757475962786,8.321192372653778,-9.504992258102066,-3.4517530364207296,-15.98283277686215,-9.183588947030767,-13.05400839547379,-13.05263789184733,-12.449554840811036,-14.682239911322082,-15.44040075515306,-13.474561589391357,-9.252732226171274,-14.725768738968455,-11.617018043676113,-5.14194522031571
1669984268.652844,1669984269.648438,17.741096019744873,18.73669004440308,4.0,43.78789711416264,0,-5.155187853303886,3.3853372709069616,-5.44205949441926,-2.167788707178086,-5.238654220038169,-3.1557051642126552,-3.4889867343769083,-5.810065207742509,-2.1832576062792075,-1.5532873297066243,-0.7539157829056609,-4.7865282975747805,5.0137117798904365,0.8096492304217039,-5.624631903550732,4.875332017650561,-6.346715686684762,2.972884649305083,3.317597080798056,-7.133955958462018,0.10405241414108632,-1.4942062806004084,-1.9345208579531015,-3.687792172606994,-2.465451071822732,-6.141536507671649,1.6480816993146041,1.2603458351923864,0.32139344368567146,7.852890334170323,-7.63590212380152,2.763351160015162,-3.4416934558526546,-6.490768578108522,-1.6627269706781835,-5.8702775514868275,-4.329303923337583,-2.8188685956278405,-2.8738372541156143,-9.43513789664088,2.818430790011695,5.504115005874902,-10.893226066272303,-6.196826786654054,-15.401782400942157,-9.053298675121901,-11.249657552267925,-14.0920701585564,-11.054878834253463,-15.640080989805494,-14.691725060446213,-11.51671547310543,-11.972342232755189,-17.179223904047312,-9.641034875514,-5.163231476814731
1669984268.902718,1669984269.898312,17.990970134735107,18.98656415939331,4.0,43.649031450290295,0,-3.1670812293180206,6.893098002130548,-5.886927574454229,1.4128610702220437,-6.847059608641228,-4.812112875955952,-3.1692707452337814,-2.949609069140039,-1.1718937665949787,-8.113470609562057,-0.6858107584784603,-3.2917989325317176,2.9166689075439423,3.140331000253353,-4.240786639438512,9.81543148725796,-7.123580121408416,2.1865208381610755,-2.086143678987731,-6.320219301207411,-0.5338583854016719,-0.8836135750666534,-0.8677174118695541,-2.5137099310417677,0.2690954711122409,-7.44608725060451,2.8453997270956926,1.5289547019734262,-1.978769148189563,8.412428215049063,-7.281477767129031,3.188079966404321,-3.675054033941769,-5.191080888675059,-3.3607108098154836,-5.820540737405428,-3.795825123280809,-6.368080499776129,0.5749630411432806,-12.050063385963925,3.6167766633368585,3.5300240586585407,-8.861823760283116,-0.07887865512979628,-16.46113685518459,-6.582992700243249,-13.007683037183543,-13.18146714012682,-12.028894378441597,-12.82146372614918,-12.959519075978188,-11.746749619716937,-9.204207092866142,-17.77345801865831,-7.948937513590501,-3.75244880748836
1669984269.152593,1669984270.148187,18.24084496498108,19.23643898963928,4.0,42.958065450854924,0,-3.858048418761263,10.026414028828015,-4.4801037895735005,1.8127063254650946,-4.372165972462337,-7.4160529865561,-5.263874575705173,-2.63400133037387,-2.3214011738418403,-5.192263410450931,-0.4404616201117523,-8.365942813803564,0.30843717212840716,0.24420409376977636,-1.0332062251394316,11.673541942595293,-9.197395313630775,3.737548984187698,-2.2718050866611925,-5.930232517904562,-4.57444199134208,-4.818543794611475,-5.125872933396835,-3.340018198717871,0.6363684159660601,-12.618554515316076,2.8306777874161875,1.9907795168433844,-1.4366192903615085,11.404663378873073,-7.196527779153984,7.540368786192521,-2.422814575573634,-7.082765303432074,-4.108175582598157,-4.920235322379249,-3.256621358996398,-3.3169523785744675,1.9040910838271534,-10.19816675321139,3.8428552583483766,6.016236999988568,-6.890351972169501,2.7269324871175464,-14.13050528982309,-1.486949334253242,-14.102918339883422,-12.337096180409572,-11.676139098944521,-11.643291368874337,-10.375396322376758,-8.81896004893697,-5.961354847159579,-14.602390169152917,-5.759458924859685,-0.6885300931240655
1669984269.402468,1669984270.398062,18.49072003364563,19.486314058303837,4.0,33.01063111373122,0,-6.768928468780563,9.261048997843082,-6.91617942467605,3.4047822226344366,-0.3089973903500313,-6.291511034171076,-4.6742469781806175,-6.070390595314215,-4.6222495056905535,-2.35042981586935,1.9746775582717193,-9.381530277057006,1.093280086867269,-4.881418062405554,-2.0325367172885405,10.481490667003799,-6.131367397213062,5.4212777853080505,-0.7305296049142328,-2.209096293196913,-3.872588789985966,-5.945606751529043,-4.537815513789942,-2.8555823909758304,3.629821138344579,-8.956403913343626,5.5266434655704,1.4186940235437875,0.9021131517010321,11.032316569538647,-4.657641784228908,7.81570491394529,-1.951389952268835,-4.134119246759262,-5.11546963731023,-4.235897081601408,-1.4768866195907275,-0.38779265680966635,2.1022894565517998,-6.762383431307236,2.5192439672345635,6.13763193137732,-5.923478539144192,1.6438291588582634,-14.405927031983092,-2.3569716224390973,-12.853670068550056,-12.971524216770831,-11.684078129647455,-13.921888387551089,-8.949609620414105,-8.840729298911056,-6.508618528720669,-14.731692590819376,-3.222870430593683,0.060040341421019196
1669984269.652342,1669984270.647936,18.740594148635864,19.736188173294067,4.0,29.19377571843434,0,-5.980093537345404,7.019928198495009,-6.454086656566195,1.8127949618154275,-1.6634231134613797,-5.658296933389755,-2.959144003159868,-5.804192060737164,-4.366177260637587,-1.974207228532292,1.8753605892667702,-4.017924586612412,3.7872636672180193,-1.7853666653494278,-2.1019296276732695,9.812931031557287,-6.037028048629881,0.572911843316281,-2.5575435319876068,-4.318576343047163,-3.1914018100931303,-5.235458196370775,-2.5428108720459175,-3.524017227498023,2.9326187202111216,-6.997671144103648,5.874641045730194,4.220919015812218,2.7368292723892718,9.682150339627146,-2.939065782513844,6.566869727054075,-0.643474317615431,-0.7857885555122777,-4.106260872754258,-2.6500778435452634,0.3172312125752781,0.46574372640614004,2.4989863580262983,-5.217464016869535,2.709603303870316,6.837544990772981,-9.035183215126763,0.18944136667280162,-18.76989897193241,-6.97059345098253,-9.83878627795485,-11.933905708187433,-13.540491435099584,-15.494246884800143,-11.178838605995804,-13.404781273468156,-8.164900467543138,-17.911648399202072,-4.532361096796213,-1.43940473436989
1669984269.902217,1669984270.897811,18.99046897888184,19.98606300354004,4.0,25.68942209585042,0,-3.770626693476066,6.083938020050575,-5.203680164873981,1.5105262186361503,-5.426340640497251,-5.288167918173935,-0.8749706725303174,-3.7572467327585097,-3.899240496212104,-2.927545884942131,-0.8330458750884623,-3.625288087131844,2.6286193572360714,1.6186163842712677,-2.038021125960615,11.203218711160474,-7.249262653096866,5.619486694303881,-1.2467391056696036,-3.9799055379428934,-4.073938334772612,-4.990051554170384,-3.378183898401343,-2.461846915487116,0.21167455505719468,-10.308686071079304,3.1543723705626325,5.417975577017234,2.955089913534719,6.091018084405503,-3.222234152086363,1.3041512337059533,-3.0736213703198176,-1.362538126151751,-2.1069926471752454,-4.383800758382865,-0.8305264152883564,-0.2813256668797719,3.097537550876443,-8.007311451195998,1.446347730763613,8.217670312916985,-7.314413081937301,-1.3422860488859416,-18.94093299704562,-9.910365297640345,-13.918804070040542,-14.849324374812895,-11.559892223912113,-13.5569841049401,-13.000525262588596,-14.955303340420372,-6.754138027361856,-16.086674677513347,-5.954482904489748,-0.9179773238795192
1669984270.152091,1669984271.147685,19.24034309387207,20.235937118530277,4.0,39.617945897801185,0,-3.7391012032716464,7.069958902921566,-8.257294786659594,3.071278206774556,-2.8070549098387545,-2.452858775294515,-2.557758462801201,-1.7974839921807995,-3.367764856420001,-3.6101553518559997,3.19293064990595,-5.806833013939565,2.040029936573448,0.3361427176718288,-5.869072740054515,9.787310778494959,-7.818443547800662,5.565704534342499,-2.1237892139716235,-6.355183027881716,-5.077861615020892,-4.534586336390822,-6.288326125843753,-3.1832101370938264,4.346916647441795,-9.484737070730642,5.197611988134124,3.5389986458266494,3.0662146642255337,9.170336455927112,-3.9976346924917228,3.2551602102986665,-2.6834087177393444,-3.4773471206721713,-2.007223284165387,-4.432165572669501,-1.9682895433640712,1.6939937617711216,2.1753215930312324,-4.572005049164162,3.148862762916993,8.26852645630626,-7.521554005164703,1.7156421318720962,-15.301807276075527,-6.196889817940682,-11.044566411775874,-15.501486987657682,-10.76052622215532,-13.029495678422752,-11.865967234458017,-10.82676473713931,-6.109385036803658,-13.229400719833446,-2.622336110839074,-4.093283592611556
1669984270.401966,1669984271.39756,19.49021816253662,20.485811948776245,4.0,48.34756237271567,0,0.11187409521295724,7.054669100031528,-5.047085351569209,4.378563254422914,-1.5779944498730505,-2.4189242135900813,-4.496023510884569,-3.394574145377124,-3.5209174758444384,-1.3921025341305604,0.9323768460439518,-5.025835897123785,4.156413368970149,7.246192257251153,-0.9871986830294781,8.764114964753219,-7.758536749615967,2.157679142062558,0.10704224406986929,-7.105587279802069,-3.4703188776204215,-2.930875208858133,-5.068571273982705,-3.4022205413812356,3.111623288941547,-6.6279600579322615,6.202494935069133,5.024161090057028,-0.21531324372551283,10.685441259751055,-6.770849894159836,6.519782945784577,-4.3007023240852185,-4.623708671303224,-0.6139670528405338,-4.877460395030985,-6.906767969585294,-1.0591649939345507,3.0443143316466097,-2.995387036233782,4.770779386197876,7.267794170942609,-9.060970132266728,3.7256586021320226,-14.729912140297847,-2.2002291044904316,-10.515285141649152,-14.480193098252204,-12.562399555476894,-13.349866286785318,-12.529353218303683,-10.43520281388867,-7.129697976879125,-13.88953899178621,-3.880808364620056,-8.606563378600363
1669984270.65184,1669984271.647435,19.74009203910828,20.7356870174408,4.0,49.05612343374208,0,-0.46413079653780365,8.223848151153211,-3.7908732297793435,2.6410536768251216,-2.526654802726271,-4.216455345328955,-3.255078457931286,-2.881994373365955,-4.927720249477575,-0.8370174709190302,2.811445174803388,-3.550579450995139,5.635539201619128,8.143506383884489,0.4429365003421678,5.711541086329611,-6.783990066756655,0.6176193870034701,-2.365671804474471,-1.0355229608409013,-1.1492980425171437,-3.572459415823106,-5.589168906686391,-2.4409888529091757,0.3964950029730986,-6.991618237125696,6.746100368060722,5.567519443753033,1.607964836810234,8.728192400083032,-7.797009821927945,5.463792029966421,-3.939030916082016,-6.222472092251937,-0.9461174914704271,-2.4725274389334375,-4.8491886488975755,-0.7202212892985114,3.462288304042986,-4.18760222958747,4.636782128426524,7.340270526206611,-8.312165693409355,1.9423664826404,-16.651872212441916,-1.510243414670163,-11.878535626777687,-12.674280668305798,-11.70468007666273,-13.077836634461333,-12.53200755388771,-10.310290003803342,-6.497082569388926,-15.690057250828515,-5.7040036275974595,-9.243301983333907
1669984270.901715,1669984271.897309,19.989967107772827,20.98556113243103,4.0,50.520745101670755,0,-3.3128143206335423,7.4952064748797875,-5.693977071882143,-0.4038712265605543,-3.763123108463134,-1.5696999994861085,-5.270906984384169,-2.535530902643888,-5.595580147127185,-3.4897274794093196,3.4752013084589057,-5.324837729580797,4.179980353599269,1.7366348828995959,-1.9193190817813335,9.973974811729034,-7.297170969275934,4.243041724811093,-8.199395119435204,-1.282862788077691,-4.882111632500983,-12.119529986689736,-9.042769689732355,-2.647210543854641,1.7181058614679436,-6.600620550456531,3.9640200494266855,6.642196024796544,3.403760987469301,6.5674260375917,-5.281436987959972,6.2964874211515856,-4.090559230699809,-4.777869278581273,-3.19255200598966,-2.0410644156448914,0.5482765075170968,1.9112633168233828,1.008909141484882,-5.088241180758243,3.25159830059663,6.545572300318405,-7.023172516577781,-0.9479265744862029,-16.237131940523064,-4.499365323403787,-12.003885808479017,-14.255119403079295,-12.267554763743007,-12.093893419591383,-11.531292585962426,-8.546363245662485,-8.806659366611276,-17.034875202440507,-8.625487616474942,-6.181607887427035
1669984271.15159,1669984272.147184,20.239842176437374,21.235435962677,4.0,41.07661735760368,0,-1.401619635979233,8.506504038804142,-4.7141992925288045,0.8847179241856291,-6.363928591703409,-3.101080867012528,-4.396799759745714,-3.297526061037548,-1.8362625665550159,-3.1679268907652385,1.3355919955145588,-7.329534744749764,3.921359489364243,0.2164437270197159,-3.594922680317183,8.334879411886694,-9.907586095000584,2.1769407116565302,-5.2040945985745815,-5.5262370567684505,-5.024805114754357,-11.118477207923004,-8.626210545060779,-2.145954617366255,-2.3076791189260195,-9.036265876179558,1.9049461863456674,5.621037187839031,1.7350181500892163,8.762653423048999,-5.0150734204784175,4.850467030339304,-5.7833687634727085,-6.734000147946383,-7.686582362633193,-3.988822684242238,1.389070463506983,0.35337048913022306,-3.3065888036646167,-6.832699578428334,2.103002359047226,4.243420588114734,-8.389829757366417,-1.5032851064572241,-16.09606476083559,-8.036957797110528,-12.34632456194181,-16.645415242998975,-16.959709936594876,-14.21933179822182,-13.762398545875726,-8.998678959036155,-11.162982421333707,-17.715260318662644,-8.457174289177726,-6.670894564857479
1669984271.401464,1669984272.397058,20.489716053009037,21.48531007766724,4.0,32.6112608974115,0,-1.5719988060082444,8.631865511339035,-7.17313570564607,-0.12756596169101386,-0.4447690696831115,-3.359115921939313,-2.824654301959257,-1.204057888504016,-0.806309837240201,-1.3739612562619423,-0.13646627537767433,-7.388194919280009,0.8372866330917725,2.9240310908907046,-5.0461343401596315,6.109763376164588,-10.457821638014568,-4.06249913072294,-5.2725648348154195,-7.8697146599014465,-6.1166990223544,-3.653386388412285,-4.374527991885145,-5.4779907156611145,-6.01789782700539,-12.108433480619414,1.1885243889286283,-2.2262039157495748,-1.790687857927462,6.31420410507003,-9.23559216828172,2.2355971744780385,-5.161809663225321,-8.467204103677151,-6.699065830936723,-4.711278945765283,-1.8131481643420566,-1.4630965131622111,-4.270970380137806,-9.879960933416609,-3.265015711121173,2.461857984313066,-9.859714915685396,-5.39384380888422,-15.58186874045959,-9.58749156922109,-12.948673694108937,-17.245269591806714,-18.63912192065558,-14.698348814140585,-15.03819689208996,-9.952369863748391,-13.520442338198906,-17.67244094783068,-10.49473268698593,-7.964773579448714
1669984271.651339,1669984272.646933,20.739591121673584,21.735185146331787,4.0,31.00564211456357,0,-1.7850258453985806,7.840240532789525,-11.401912071487972,-1.226477591632957,2.0785357057322646,-1.9753616975134924,-1.6151762309664153,0.40835483070589473,2.3136055865213945,-1.0494174420053308,2.0155228441015973,-6.706834275471217,-4.612315824169263,3.594810758959822,-2.1540335438835,4.410302914578703,-8.781092264956623,-1.6628563600682502,-4.439620374531947,-10.411844429313044,-6.252163167424256,-3.5795946604524973,1.3369673354660119,-2.7146705462867136,-3.3078686455699797,-7.793239815714558,-3.014246054253487,0.3038184627923416,-2.863699655274155,4.683294418853724,-11.487983579967473,3.093124559938704,-5.349168922759082,-7.923944060481175,-4.774512100103791,-4.9696347666168705,-3.2907659338842024,-1.8071268350989325,-5.866027729501665,-10.445783037818288,-2.4528832913372782,1.6797339410248602,-11.551540933707782,-4.063810998979499,-17.773690929068323,-6.646277591073163,-12.441868622029995,-16.201437723634914,-13.673760551235256,-13.955309949923704,-16.80569066065093,-11.437824159183371,-16.7022943038841,-17.519207080227602,-10.052512281401205,-9.4296625279574
1669984271.901213,1669984272.896807,20.98946499824524,21.98505902290344,4.0,28.88228119146756,0,-4.173778187030685,6.720402125286695,-8.367527211801212,-2.4545698798178206,-3.075862134125223,-3.0013483628190656,-3.9169301548962783,-4.924828669192027,7.6673378429068535,-2.59727778199975,-1.5406228021711272,-6.407633590743077,-0.15721493041230494,-0.31483443835681635,-1.8197500107886828,2.7444936950795045,-9.434019677308,-5.1939003504620835,-9.024392457105577,-8.924011793095827,-7.77771685725086,-9.474274977823915,4.256350094287668,-1.6116854563678835,-4.138248712612663,-8.243239742997368,-2.5548214797820274,1.4336729304673688,-2.39255336498074,6.838015047054089,-10.4181993407881,2.7615162435178147,-4.312415982983675,-5.454844465852908,-3.2265140090238265,-4.667007567259923,-1.7189938461885088,-6.473553512038089,-4.378202733942623,-8.103336807337167,-1.8952328237192084,2.7346998328706507,-10.579751879074282,-4.568059272616511,-17.7790526288725,-7.257649418315138,-10.908124985481267,-14.174722435167453,-12.068055721742079,-13.557626967846746,-14.136321249952822,-15.386775466704474,-13.737106095339415,-18.212470556850704,-9.733027682743522,-7.4369168855616685
1669984272.151088,1669984273.146682,21.23934006690979,22.234934091567997,4.0,22.2393757230607,0,-4.409128493822793,6.07890932852969,-5.322018468239055,-2.2504512467127693,-2.687204292831245,-4.077615688348445,-2.435058815021281,-2.889725767477524,4.09390380093846,-0.9642712404718721,-4.894486916809932,-7.905560158511934,0.9672925397687825,-1.254864734294772,-3.7907535739159415,0.8695349775652544,-7.768011978532876,-3.7730231448634335,-9.77654681904484,-4.46312592986602,-6.240370616608315,-9.212052301241595,-1.3471087032386422,-3.981007728766568,-1.1288529476124343,-8.071006318957487,1.3563900548870467,2.1678037485774535,-4.142311280783574,6.536630553702673,-8.150464697681647,2.1817069180772393,-3.470203102378837,-2.6346288688489263,-3.125361496944865,-6.719185530686347,-4.674670020719759,-6.186671903074665,-2.470096284715932,-8.610569895290457,-1.590425779541933,2.611501682163406,-12.904384984430015,-3.62723193561017,-15.24064966199036,-7.756548795238844,-12.52972762364479,-15.572478086706859,-11.788298945534518,-15.537246433737435,-14.92408160918927,-15.34822296731134,-13.65086739982182,-18.757876743116523,-8.435717838240134,-5.689861786902938
1669984272.400962,1669984273.396557,21.489214181900024,22.484809160232544,4.0,22.158853110003914,0,-5.619983330534284,6.762654479214483,-6.428672923121591,-4.291023916535883,-1.925149974076448,-3.544130597727784,-2.990916854631704,-4.030380473120639,-4.846272283821776,-5.414923747254971,-1.0610011669961072,-10.208302441354856,-2.6885203824665362,-0.372892992128952,-1.6584149045753116,5.5753228339117475,-8.192483376809616,-0.7483243301108471,-5.4798344971769435,-5.509357484910076,-5.1331258769321355,-6.375388415033902,-5.351429834925078,-2.5472555971053525,-0.4045976035964641,-5.770076626347702,1.2415024877198961,3.031944483929467,-2.8792373655762975,4.5309782483256225,-7.824155673136149,2.0027821418434155,-3.2749326739274967,-4.542404614123942,-2.5091734573788105,-7.915292372958708,-6.679941992836708,-3.8939545568690273,-5.352651402334829,-5.570094859158784,-1.9334612440147487,2.2029804059127236,-14.64942446247338,-2.8987839927660906,-17.30280084846765,-6.09918861799113,-11.83646551893956,-17.986811070889758,-12.086279937612623,-18.0708004268313,-17.493505230801144,-15.941180264990678,-16.016694605339122,-16.213712713503902,-10.681804400788813,-4.863711362344018
1669984272.650837,1669984273.646431,21.739089012146,22.7346830368042,4.0,14.966989261704951,0,-3.4323110672364847,6.48688235998441,-10.80795291233242,-3.5320963710480466,-3.0824820673395052,-3.3248081036856147,-4.219872542151536,-3.6230445542147245,-2.9656408011328486,-7.114124374591588,-3.028436432377978,-8.018846834836854,-2.3093532842503506,2.3408215569207513,-0.9460961541352306,5.054385096036981,-8.440628563369097,-2.578207859000274,-2.5422594397355907,-4.157206943947893,-3.381803368501632,-4.16655235253046,-5.448198307042885,-5.8099028657590654,-3.573587185524245,-4.930120122799315,1.2132393650031346,4.065779807022391,-4.037956769201279,5.258479356875149,-8.30719971603213,1.463617204573124,-3.2881144121581563,-8.235687178717416,-2.813422705203643,-3.983707661383904,-6.831766577183885,-8.053361626822104,-9.421984248563792,-3.650118962549645,-1.729845652810031,3.656731245341791,-16.949335061956283,-6.408267773934522,-19.010635405728667,-8.015560979693417,-13.904895142220967,-18.108164666564747,-14.303683926550475,-17.301361411305333,-19.97038418288853,-16.920653422342866,-18.338198336240982,-16.410057516308722,-12.559982162146772,-4.370677859102519
1669984272.900712,1669984273.896306,21.988964080810547,22.98455810546875,4.0,28.53238126071808,0,-3.732087027023767,6.433645654748204,-9.95843577989281,-2.584839692821407,-3.576722207637291,-6.126191621910026,-3.597526720963335,-1.1810740025871742,-0.9036418948886795,-5.36531022855891,-5.413783431648515,-6.491246179025505,-1.0479771024818558,-0.18073453398947253,-1.7875673081739758,2.522709792335508,-5.972091393312496,-1.9202015391805327,-2.8967580755762623,-3.8968782679558944,-4.6804300592349755,-3.6991550849925043,-5.457644659336395,-8.890233707104008,-4.229753646565747,-6.250613648002881,-1.7478213749611644,1.2205277731331188,-5.7726918479305365,3.1559516811666537,-10.644116677050587,1.7240571233801658,-2.998060683404293,-6.150982435814374,-2.5689377049092776,-4.465657903359595,-8.205839806107587,-5.782252898096646,-10.441020516687288,-5.585173671382064,-1.6016061555974694,2.912252432645585,-18.594856236897858,-8.156366842260232,-19.158552458537468,-9.676838402119051,-11.62089797942352,-13.65085847193464,-12.891987422175081,-15.247176089515044,-18.87597181099145,-13.194750630239145,-15.50835188997602,-18.353699715012258,-11.943440427889476,-7.942591854365638
1669984273.150586,1669984274.14618,22.2388379573822,23.234431982040405,4.0,37.37054397844496,0,-4.708020868764493,4.804336570110485,-8.874363151386493,-4.863991324856917,-4.557578148991153,-6.990544497714682,-1.8514105170320605,-2.7919897356846883,-3.0530173759860952,-2.845751226825439,-2.8627552049019163,-7.036683677561545,-1.112502656896039,-2.5344388966843123,-1.5023352971223134,2.6621254082849677,-8.783260111359239,-1.237180284434174,-3.2908832795183605,-5.63982363600524,-5.860639492580715,-2.608070575129304,-1.75026568539248,-4.132937792984138,-7.300161178066115,-5.508668943766062,-3.5380408225793323,-2.087620951495239,-6.265011696115385,3.7983463698337476,-14.199552361965067,0.17847711243501166,-2.4381377315537947,-5.493265693592697,-2.6016784430520157,-7.965242376707293,-9.953296529849636,-2.5429084680943994,-4.5521954221964425,-12.211393334879194,1.5980382003310758,1.2253201240075446,-17.806994380806838,-6.49028461445056,-20.21341476361367,-10.21795232954984,-14.329600550699206,-15.89739308843007,-13.394225771429829,-14.859200421336956,-16.75878160515877,-10.907778257832309,-13.526031657570805,-18.22495708836089,-7.844239516894743,-10.266032880294135
1669984273.400461,1669984274.396055,22.488713026046756,23.48430705070496,4.0,60.92696481408428,0,-4.7875957130030775,4.342287480317283,-8.64831657375459,-2.932679180434948,-7.0951470473354625,-5.171999146935587,-1.483540828908767,-8.434198566456505,-8.053602463116766,-4.317821963074307,-2.361439795616679,-8.304659953250264,-1.255833245311351,-1.4771468346205698,-2.4278795166461107,3.7470773880430808,-12.468455329070501,-2.0544060837271614,-5.092981884485795,-6.633252744860281,-1.8223638693651945,-3.8400461158806993,-1.0962540513342707,-5.5617956124879395,-3.7402787480946396,-5.920428583651409,-0.8068111135700373,-1.6502781868988494,-6.700612676271814,6.01604134111486,-9.773991374670741,-1.4081513799754832,-4.334005525455184,-6.3374340921290155,-2.717330759813617,-10.996657573989317,-5.265897935477901,-4.858809962796048,-1.7396972079305475,-11.678977655683418,-0.891106020337939,-1.3276026380766077,-12.983211348933823,-3.9850151203792694,-18.677078378171597,-11.069713793214834,-16.003983764761195,-15.964159158085298,-14.825125317689,-16.784468840199413,-16.0143749996701,-12.38309302125443,-12.765475131045216,-16.940914279976077,-9.605640290208083,-9.802164318900699
1669984273.650335,1669984274.645929,22.738587141036987,23.73418116569519,4.0,72.0770930810556,0,-7.356873354858161,1.811860684672581,-11.172500697430763,-1.5897547931139906,-3.07175222950662,-4.876680002943726,0.1129205961014719,-9.858655633277314,-7.696656613540959,-8.310631715653368,-3.6772114196039904,-6.008730158643139,-0.3995776257318745,0.6685741430161125,-2.180859289562205,3.6344958667311626,-9.601413414991168,-3.033126774956762,-12.89755383136569,-6.567107857903545,-1.6327632239278214,-7.284440365983538,-4.1943455067450826,-6.213466115776226,-3.82665189325946,-9.314011910838719,-3.0279363026203523,0.09114459057031662,-6.323175660410099,3.375410966221188,-10.848215509505687,-3.5443471426536632,-10.150745028773686,-8.181972874101236,-5.523186326816515,-12.013966329388472,-4.337027846989443,-5.2895858099369555,-1.62624246978049,-8.67774020187555,-2.733995338450858,-2.456865000956831,-13.454690121001605,-7.215600015678943,-18.794624720886805,-13.278587587123576,-16.227770489392142,-14.245091276042432,-13.063186691835963,-22.032397929810298,-16.89247383733322,-14.013033559965507,-13.132599060974947,-16.404355519434624,-10.236508250348155,-9.820733582386453
1669984273.90021,1669984274.895804,22.98846197128296,23.98405599594116,4.0,72.41876425793812,0,-8.273909307703333,1.4426054896687668,-9.605165486848072,0.09842218894733182,-0.7883587334178083,-1.752822482708719,-0.09376550867447908,-6.940099427632624,-6.333249459636195,-4.554335041552752,-3.0764860777259813,-6.934104076598134,0.26805725732248686,0.05157973059717418,0.6905694354691995,7.569994586414648,-5.65118369645285,2.7814637146236194,-7.894833897783961,-5.094828182399849,-2.0841237212362764,-4.356989096763754,-5.113588798969309,-1.195534190828943,-2.946938957968414,-6.065246223284669,1.0396715572853124,4.0515994152927455,-2.2820988693409676,2.815021877556277,-9.072610836918827,0.2585281279207926,-6.088600944865048,-6.314129261200997,-5.532505899153256,-10.541674121209123,-6.360025568156017,-7.403204397781415,-3.082991905981104,-6.711469565367272,1.3799813864756503,2.3608931789441407,-10.298263895888962,-5.6628023254293955,-17.015239525652593,-13.12021288333132,-13.934186500412375,-13.036603482197165,-12.676024993437089,-19.80013148114313,-15.03697406747447,-15.019889240489315,-12.697513496672045,-14.246666881103199,-11.293939875200845,-6.8169828144479965
1669984274.150085,1669984275.145679,23.23833703994751,24.233931064605716,4.0,82.26130272624046,0,-5.4117484369556585,-0.0977434952769014,-9.03779229278326,-1.7981458263631893,-4.200122449677905,-3.735777951114976,-0.2660129307347536,-4.0125624608400585,-2.5126441134672235,-4.4166479779780765,-0.4658563212653445,-8.467762261485962,1.6174054948790633,0.13280974107186974,-1.8848159413041754,8.336986204054382,-6.248756333351166,2.810820948514316,-3.2005842393433004,-2.7574935494463255,-2.289116907935465,-4.027018429159547,-5.065726182991743,-1.814351096836041,-1.8019828691299675,-4.940367657163957,2.6865420285430854,3.8423864130385947,-2.497399339013592,6.675866580097384,-7.518484020111378,1.462462411392222,-4.557650616652763,-7.936445316836966,-6.28969910421128,-6.157040570670363,-4.2224518534311635,-4.932172759478222,-2.197182422153832,-6.609247241380051,0.4138986218658164,4.016242621182042,-9.739537586778674,-1.720461237540079,-16.53382225542358,-10.656020631232684,-12.486487257146571,-14.220528446631278,-12.94139069566758,-16.86348470900722,-11.408418330952424,-10.983009700535236,-13.02692558474173,-14.619087476675094,-8.903453738033921,-5.146989303630104
1669984274.399959,1669984275.395553,23.488211154937744,24.483805179595947,4.0,71.27427053620661,0,-3.108842331079058,1.1396267159585662,-7.513142815491034,-3.884006460177789,-3.0243228691233166,-2.3421777584724146,-0.3469324383391619,-3.9133660177874607,-3.299988430103123,-4.352460851067907,-0.3184899664846555,-4.747712525416218,1.072672050479087,-1.8210814510114766,-3.5113825450588223,4.787301182682957,-6.322326854922591,-0.6551937533783926,-2.9235447788894033,-4.08172455579275,-2.339886597547325,-4.293557625538075,-5.729919665315225,-3.05400739811593,-3.192941900231914,-8.665452843552,-0.8934185724634989,3.082055711200793,-2.2368423991383315,6.996356627840338,-10.362489723964234,0.48403953927011717,-5.92384639817595,-10.223354479279813,-6.244887592455059,-3.607233524270751,-2.3171227218241763,-2.711413101780243,-1.1201896947652847,-8.90852012852395,-4.128240593719155,4.948542138643956,-11.335045309770573,-3.0000986426754745,-18.533171373073543,-14.328391813735868,-14.94071761305711,-17.29206602488407,-15.26145542391441,-16.724253200168995,-12.334509661702333,-10.59567572410084,-13.156997300330895,-17.612576038431907,-7.426587900434009,-4.130616977236284
1669984274.649834,1669984275.645428,23.73808598518372,24.73368000984192,4.0,35.552494077223365,0,-2.55665626601101,4.183163448084734,-4.555325624093063,-1.3284239782562564,-2.373570109781727,-1.1438753507128179,-2.848656330905351,-1.8357372329867483,-3.099830423625848,-4.18433689733328,-2.46668692826007,-4.154536694002952,1.1979577908244772,-1.1091166424399326,-4.8288562497704035,2.0938450456738016,-8.19591780502773,0.31204204139078534,-1.509719840807509,-7.955240906684168,-4.283093223429374,-8.557766234241443,-5.941337305784467,-3.1065533280596958,-4.627233596522867,-12.870894178790738,0.3914015964822601,5.982792762546929,-1.4017456354187328,-0.6530835480621334,-9.343756364410144,-2.4598555076399773,-1.7978983616314326,-7.5078737695606454,-5.556041904625143,-5.65063698807652,-6.836435241570734,-3.5051353851754823,-3.5714308512416326,-7.133876952425378,-0.07671111096089946,2.0827919239364894,-11.750193316690336,-7.192083156558967,-19.521246011950247,-10.961781954311427,-12.398806698671665,-16.742496185519695,-15.75152285080341,-18.03918526014996,-20.844063759156356,-15.11909997832114,-16.33821821161724,-15.430294107152942,-8.276469030680435,-5.503987044936235
1669984274.899708,1669984275.895302,23.98796010017395,24.983554124832157,4.0,33.31582100202307,0,-2.7724739488684866,7.037639248569505,-5.669207333822834,-0.1527425276699727,-3.734426726404342,-2.8250590492955228,-5.571097777489435,-2.40025380665954,-3.8054086162763676,-3.2842830843844872,-3.6373476969430962,-4.438223557474679,3.548259539228535,1.637058459972258,-7.256019261263102,4.127521543850899,-7.908777069428474,-0.49930860590074366,-1.4820241359586497,-7.71850172592448,-2.4583182091910327,-8.474021731310819,-5.069475011647193,-6.340666559344681,-2.7589071470484177,-12.635570555793183,0.6793192825253258,4.183911009081565,-3.427511956605686,4.257909640814962,-9.817103198543244,-2.7441283201699256,-2.567830479686367,-6.76907071263492,-4.5469945461718275,-5.68472662047347,-5.905765778696024,-4.352134975510474,-4.5912258576705325,-8.286653914711888,0.45220267386936547,1.9647477624618912,-13.094361353468287,-3.595868360740373,-19.12203070184696,-8.080152051273235,-11.94882777676494,-13.82368256727564,-12.625082441956344,-16.247916426141316,-16.212125916346306,-12.836854866944332,-12.557147194590794,-16.4119857530035,-7.134211081804364,-5.80114333468412
1669984275.149583,1669984276.145177,24.2378351688385,25.233428955078125,4.0,16.619384127639098,0,-2.207348554052277,8.454691699210517,-6.6338548143513805,-0.25260632738210365,-3.9398211465192974,-2.3750837003300416,-4.2308513828921654,-2.5049806115468645,-5.007529249198481,-4.730873764841098,-6.785042341424802,-5.528557728640329,1.1809850555247106,2.898799869893428,-5.194806839719327,6.962693266042443,-10.567526853406282,-1.0589689366843726,-4.942602832459107,-7.073276166521375,-2.5088845931960178,-8.44585189846642,-9.268913133946578,-7.5109954728356785,0.19762181966881753,-11.633171487583553,-2.10104790149661,1.8115916172946822,-3.8799349991221344,6.978554366732743,-11.233318984802052,-1.709356729948871,-5.138508871721138,-7.757353156056749,-5.469545119510215,-5.479912457886877,-2.0710283032104955,-4.204169501533216,-0.4293709797680817,-9.155760243918957,1.3681680637043052,2.891781196798473,-13.730062654156407,-2.485833309932293,-17.992607907044743,-8.48320246735234,-12.236694132764796,-12.999063947305324,-12.92291906463346,-13.121600111795178,-11.498994160918809,-12.377439251001473,-11.367009279630476,-19.190785628379185,-7.365491775780737,-6.698446197742101
1669984275.399458,1669984276.395052,24.487709999084476,25.48330402374268,4.0,22.44843291530776,0,-3.401197767717567,6.843865411771198,-7.622967297740129,-0.4684594038751732,-1.6637778035274118,-1.599595979141764,-3.4753500963433996,-2.223048233808454,-4.406751058729198,-4.173375180599309,-2.498751656381539,-7.022371057427712,-4.650956824235701,0.27142166004522994,-3.664691644816618,5.6761575858105,-10.807124894790501,-0.967075113509213,-4.487545039950814,-5.034143777573451,-1.9780234037849147,-7.540168008642045,-8.052244666619487,-2.357879078653168,0.4018528763891874,-7.1110304343846495,1.0100095265085716,3.725209555708182,-2.1792653159417097,9.866248545931821,-6.1475205791357475,2.841689703912724,-1.9396533307675476,-5.661587474286826,-7.5963330780241485,-5.81399086969979,-1.403590436143842,-2.0112749744841727,3.497399360644472,-8.194638064615114,3.4987081565448133,3.6881972281323927,-11.681087820494078,-2.3305704484471805,-15.475445381091848,-8.826837577333631,-10.926186206226923,-13.550896920612738,-14.695465736658921,-13.196495802329437,-9.930643139374668,-11.143567491125141,-9.996917058804724,-16.18107819519898,-5.378730294182953,-4.833145320844741
1669984275.649332,1669984276.644926,24.737584114074707,25.73317813873291,4.0,27.325231130802518,0,-4.609414397395454,6.272118158061285,-9.467118438228674,0.011181227250300033,-1.3252487598501004,-3.4371967347729795,-5.642588940614681,-3.082943601069493,-0.7157367130404503,-2.0824101260726984,-3.2145951452271024,-7.071240756084092,-2.5933002382309223,-1.0244138733795247,-5.6993197915042675,6.675334258466967,-11.081999887125196,-1.5544639345465678,-5.969632321755533,-7.593801587075271,-4.8417209707883355,-5.755555989742776,-7.634644196675062,-1.5584241720755887,1.4159685185691302,-5.763859855761206,2.4823424815469486,2.0911989436768157,-1.38683124988733,10.603819382866146,-5.625192822842502,4.190522014582511,-1.8873323233255876,-2.876057158986343,-6.421922658231056,-8.497317402472714,-2.537549797172507,-1.4862699159591513,3.473321775540508,-7.899818142227359,5.120794665626263,5.664577571040004,-10.938533857425181,-0.9542969301596769,-14.901940466771011,-7.9391488129065735,-11.567038675570762,-13.187615848461682,-15.4960903206255,-15.291821162405956,-14.413377636823327,-10.413317708872171,-8.776342974848339,-16.131060173288322,-4.4282347415334975,-3.7268243611049936
1669984275.899207,1669984276.894801,24.987459182739254,25.98305296897888,4.0,27.834652323047628,0,-4.314655204790123,8.253995738494552,-8.33756055983914,-1.5001039842273878,-4.809402200329764,-3.29322028246429,-3.1351669437173175,-5.084905629490827,-0.666417704097731,-3.863945650640881,-4.812212666762697,-6.219964282293876,-1.630887673644955,2.4110865430820354,-7.771418234230878,5.005092001411403,-9.36787181771074,-1.6274862426099612,-5.126156975765664,-9.362995811790665,-9.966224013716184,-3.1372980059682343,-4.615751376055867,-6.1135835479496965,-2.1421850043336494,-10.696651615231872,-0.0022050578030948444,-1.3814799613938908,1.4330288795083668,6.519584682639046,-7.630171754765847,0.34300008909351565,0.8041798051777937,-2.7624597037173264,-3.2322714411993236,-3.8847465367399114,-1.0139518318077476,-0.3336023398408422,-1.77327050175886,-5.830823171775612,1.2309200600932273,5.983344112921898,-13.09654059481197,-2.0639796505830206,-17.035577893192396,-8.751321931881732,-8.558328986788423,-13.839154594493131,-14.879784129337974,-14.250703219042652,-17.371420201820506,-12.078887249923906,-12.977228588113745,-17.422231521978922,-7.268656477998817,-7.06760506083678
