timecode,event,eeg.af3,eeg.f7,eeg.f3,eeg.fc5,eeg.t7,eeg.p7,eeg.o1,eeg.o2,eeg.p8,eeg.t8,eeg.fc6,eeg.f4,eeg.f8,eeg.af4
0,,-4.28553046071488,-4.006433696098847,2.012424237940487,3.098739120163882,1.3297529901614773,-6.623063670043329,-1.4397968289549037,1.8138369014548323,-5.427506447358217,1.5421717165623847,-3.0753902329071483,-6.004125887806557,-5.833899249592667,0.819075019021988
250,,-4.499437214922977,-3.022980196253535,-4.675086545328791,-1.4045351527449328,0.3181510247085607,-5.237383765466218,0.5374850923098288,6.524953331963839,-4.357941841959937,-0.3231632155841686,2.203826162169929,-5.2446491869458844,-10.216641050271306,2.639723680105313
500,,-6.337485513834848,-1.5774511444886032,-6.834535395277115,-0.4701725610562663,-0.9746574974495342,-3.2885422894497696,2.1751617515415926,0.4825677455567428,-4.097994004604228,-0.4414036072255038,3.4275098316418227,-5.634748858260297,-7.832270979889202,3.674485421006329
750,,-6.40810875656817,0.9917843580197024,-6.9513219442403,-0.2083987540289822,2.4149699450547133,-4.392750729138673,4.665633439946422,-4.549446129710116,-3.21929016833588,1.6410088783285417,-0.4012770126559027,-6.598746439942542,-4.718949737610095,2.964080466985952
1000,,-2.3817944524227013,1.4865005913370142,-5.036325080380195,-1.6672622323296462,3.17246730206414,-7.848240793619279,9.451524415649148,-3.530785418003179,-2.674932488730217,2.752264889552385,-2.427860869524419,-5.441552249427987,-6.631241852789144,5.337374491802217
1249,,0.2624454011860599,2.8781313684646017,-7.423151421785922,-0.0553148046639166,0.605825469512375,-5.944962397622854,3.4433264346036445,-3.553407584693205,-2.896197764480928,-0.1250075252917309,-3.5238421282618315,-5.115474845837817,-4.549778548648877,5.512366451136252
1499,,-4.862011127941038,1.266009070597308,-5.666051440980637,1.432557391248321,-1.4223610991637747,-3.886460440426544,-4.313453170698941,-4.616856626051651,-3.072618835496362,4.099817928146797,-1.9880891351316812,-6.444293629860996,-1.8256613157388,1.53004323827323
1749,,-9.345920380228534,0.9628053423080092,-5.700833032770774,-0.3825080906156708,0.1079834272105519,-3.7415550272396607,-6.6821497323396,-7.404524529278574,-4.50105370768102,5.320046036391952,-0.9092247696053672,-4.466045744845845,-0.1206259847595384,1.6681585158711405
1999,,-10.00915245788038,3.503684382957664,-7.746854170210114,-0.2547821198978461,3.768203655372424,-5.013922205614364,-3.6364151123184736,-7.684418460122892,-6.198802501495303,2.784213618881933,-1.5381606955280458,-2.925069022053837,0.158318147671801,3.091617802522318
2249,,-4.096171597842712,1.3131616880748245,-7.258054991522441,-3.9789629089577887,4.437912963709917,-3.5423908916572526,-0.0381118728919683,-7.091675534112297,-11.244174242472678,1.496763502779349,-1.0866419186655851,-4.445550049525576,1.4832806501013465,2.42581828347778
2499,,-2.621955819397521,-3.3744556615727337,-7.659220109213283,-2.736248562748001,1.2420165346027296,-4.141491510307022,3.668136119256891,-7.200089196668787,-10.012419840249123,-1.4097406804445591,0.282643136899078,-7.649099018220662,0.7336853055022947,-0.216918420833706
2749,,-4.250503060972633,-5.819513267828294,-8.707453504044603,-1.630585614214334,3.142196069442596,-6.458630382942978,-0.0451252663920444,-8.581091020083658,-4.14450212374743,-1.4140245277213304,0.2483853316700252,-6.944449426037052,-2.825418623353024,0.3352196122541514
2999,,-5.236144403318834,-5.77868940339439,-6.145195526544018,-0.6388250382487268,3.2430666699715167,-5.904898005353354,-5.020302133010972,-6.010586014187429,-4.167141384306482,-1.0633888689857114,1.3878338021556431,-5.220236316943872,-2.360336196312413,1.5442856654718915
3248,,-8.583436671306044,-8.21096592071931,-7.799317514063325,-1.730258780861624,0.5868976030386616,-4.429990253015324,-5.154494496909625,-8.466098098463155,-7.527524742596444,2.3491609017575263,-1.7811491218421305,-6.744975272792484,-6.8003116313227485,2.5242270176047588
3498,,-4.609855685407208,-0.8957595839943064,-5.9241051013176085,-1.236904543669778,1.0453344178464374,-3.362555600740696,-3.468554077416781,-9.51213603522157,-3.408815575422948,2.564447678949024,0.5442811601844975,-2.9693936205063243,-3.051791202135157,3.156080972536351
3748,,-2.8314502114558184,0.266028069608242,-5.615994909227135,1.5952548393508623,2.037116704599243,-4.216363589267184,-2.796580761897202,-5.366000824586808,-2.6773365876158017,3.4372621242322454,-0.2548090104567851,-3.623236345673812,-1.8661410664054483,2.2222209960467043
3998,,-3.997424336813383,-4.409233432063127,-3.005448963109523,2.7486541249483185,0.2420962315171123,-5.91352767796856,-1.7591952082772035,-3.888710347146245,-1.6812396414048638,3.4366490671608263,0.8630850463155413,-6.498892383261778,-0.9819987417479156,1.57322320372018
4248,,-2.090753694275162,-0.3740440265044579,-1.5732900466198556,4.131096131096052,-0.2182499069796513,-5.495788874560321,-3.523002921132898,-6.38407894405738,-2.010679217461949,3.88370447115566,-1.2545712570451464,-5.249138094187793,-1.334409701630692,2.1200811309716965
4498,,-3.5969436781976505,-0.9625311002955456,-2.520672334761157,5.212256950420354,1.3327094744483117,-3.883343830225895,-6.765697206945357,-4.584076217693511,-1.6952308041575246,4.254875485274477,-0.1308489669112233,0.2167715053400346,-2.7716449845957825,1.75017857746122
4748,,-6.947233840544942,-2.136769292522019,-5.548552260251842,1.7572511423840889,2.953034727904828,-5.305485121756146,-8.39362286478885,-8.883935899039054,-3.754779579293988,3.390947905116704,-2.431134823618641,-2.717625551508329,-3.282219940439444,0.4680385489984806
4998,,-2.933919446574836,-2.498066467788695,-4.26834855639552,6.014142140513124,1.5465206636928874,-7.951274462918936,-11.017508251362198,-7.457547649158867,-3.5858367688674586,1.9922542881505765,-3.934953033061099,-7.233950199274756,-4.704601155438357,0.8064400410197721
5247,,-2.591393721503453,-1.164179343256143,-1.6941285931389618,4.12906788495579,1.3099857456909214,-8.061604178314681,-6.273140455661778,-5.180617815015128,-3.2106858228561013,3.039201392751933,-4.193301209973182,-4.716682190368991,-3.27240498650223,1.4394167584175463
5497,,-2.504245565790158,0.3905413865716706,-1.4774190274635957,-0.3258162456800491,2.0691567701410616,-8.036018020464672,-1.776636576228966,-3.419092602708584,-3.897761541403908,5.718438781306351,-2.295647968332485,-5.4850881330176975,1.3654253803547216,4.202730874244929
5747,,-1.4977074196995634,-1.51556071666888,-4.940661852711327,1.569975109797456,4.037932326410011,-7.312179807045778,0.8149928483324825,-3.672706404455891,-1.6198563783892652,3.2884886072608976,-4.681471740716766,-8.194122616334882,1.1085391915018197,3.2393732927750643
5997,,-1.1240085315648731,0.0849594619042415,-7.856519795770546,2.612464221188427,4.448958473081969,-5.427977758699418,6.434642328296266,-2.0594104944768525,-0.085443105408885,-1.2546555182515502,-7.597922960179852,-8.259432648543637,-0.5710537373338833,2.351791328992787
6247,,-5.001911000673163,3.970418029651559,-9.312837804685133,0.5876361400808296,-0.1117031696433855,-4.820008841245864,2.8063040167628133,-4.041102437259106,-3.7308565975386943,-2.570287398887072,-2.1722263492483846,-4.195264241933638,-3.221227722585999,2.362658951307273
6497,,-6.119327807325404,1.87911297749664,-6.2210918162698015,2.3672318072680687,1.095596398397986,-4.08701228054815,-1.25510500393931,-5.160440210946984,-4.19675343767361,-0.5919461573760114,1.7186498921785152,-4.043874272153586,-3.1046947654760397,1.201367378384353
6747,,-6.8939109510994285,-1.7951908946677886,-6.668822547339374,5.021715769420306,2.800601846217793,-5.560073546743958,8.242741211331523,-4.915150687928542,-3.9625070449237616,1.7115029319247808,3.424363621314712,-3.752763864768673,-0.8808505245926096,4.575437200607203
6997,,-2.946090073124473,-0.949852825442469,-1.906180828420576,2.8545433706125483,4.583991375553273,-5.790789463521419,8.025135489810463,-7.14186075378035,-6.01629615044038,-1.5495532067361586,0.7250267933365596,-4.830536068702185,-0.760417516116163,4.179654079216538
7246,,-1.7876106202738171,-0.0380831791053892,-1.0423769918531192,-1.4368634192345415,2.9911926388451877,-5.038305140468249,-0.8021950259656316,-3.7667869553754096,-1.071756326803922,0.7190381755244715,-1.9323750538135973,-6.127047043762294,-0.8403859744844211,0.9102111973424116
7496,,-5.015684162165826,-2.439512106843085,-1.426613883056562,-2.0552172588195767,-0.1820445440921625,-4.667891892471636,-6.184501076401999,-1.4519766481870795,2.4453440826837576,3.007000354681356,-1.601625762001284,-4.857499317078543,-3.1186262632306567,1.5659003848959083
7746,,-4.394223469988242,-2.306466465391145,-2.7116985426592883,-5.050188046763062,0.5894678687106552,-4.884873442679609,0.7399860847969715,-3.072034383637549,1.3662536538211234,2.035810072749391,2.3820961266790137,-6.181588083287024,-2.89676837102985,0.9019436531362204
7996,,-3.593017761910647,-0.7534221606301024,-5.354582111056551,-4.22956545852497,1.4081959854300012,-4.766744240973255,5.994284342287467,-3.8811624471102246,-4.490720397118685,-0.956143450306755,3.6214070815062014,-6.157233171275863,-3.0546823070749056,2.2187294321096847
8246,,-1.2070374631623044,-1.577675079261952,-5.610654695394887,0.4391226015831934,3.4995150531472765,-3.1913062702028308,2.4829189276893318,-5.074550076147287,-5.49862718492018,-0.9463517015495558,-0.411192192068565,-4.783876645193622,0.1379837832489297,0.9139078138226906
8496,,0.2656573506417502,-1.7037558620650546,-5.408997671290393,0.8771222910623656,3.981734710500111,-2.3751885279872647,2.1790720007701254,-0.5991230749519447,-2.170695634154574,2.156254306107953,-1.875371258424744,-4.547928466795854,0.0616654276813299,2.959642686990172
8746,,4.139069955872861,-1.2891398556210665,-8.501034972662113,3.844754715469827,2.379579690799955,-2.208420234648504,1.7670666976654554,-1.619826759548151,-1.8125237724558465,1.9287680817569024,-1.0446760273028803,-5.109963017075897,-0.5737055753580471,3.836565541355315
8996,,5.734818822925663,0.3470573861256572,-7.9327847934397795,3.663294078768982,0.5461178267944828,-1.9014189766502976,-0.0988152268096171,-1.2088976861106902,0.8394591807934393,0.5918799615997492,-0.5250954816273388,-3.721191314419088,-1.8978338630065947,5.143434600628
9245,,1.4762264710304915,-4.049253260559695,-3.8440964210638287,-0.929982867170404,-0.6519180344743735,0.4988327819461109,0.6903283408087634,-3.6140444118284383,-0.3427401136824827,4.086064503210565,-1.3495928991155086,-5.267367963286933,-0.774863007391875,5.997663443919402
9495,,-3.66746590916344,-3.9425933962319286,-4.3945275524850365,1.739768961476902,-1.0945837823334872,-1.0296187584917005,-0.7205919959268193,-6.514009672701244,-1.0281675679581244,2.3537319437913733,4.330243186262461,-4.690356773965624,-1.2658991837434797,4.878018260830768
9745,,-4.814344206924746,-0.2601531283497766,-5.659913641743396,1.0606905555155026,-0.5494919898515793,-4.541769733755516,0.1553084921641023,-4.648024977878697,-1.802800828410886,2.956167736865737,4.399690019824957,-6.3152871295079605,-2.86027308730771,3.049122843571289
9995,,-3.340590724976015,-2.7213145734159494,-3.593708262634609,-5.227262035004098,-3.852992411268979,-3.2721618851501555,3.15478720732578,-5.250378252517142,-2.8307715036157037,-0.2204824531912078,-0.2771986781650079,-7.200148980281509,-2.8317166890774894,3.087963260756545
10245,,-1.5670378265215248,-7.133391503906776,-2.636007827474593,-3.7697308049425216,0.6391728700056597,-2.639386636536797,4.497820626178043,-5.911657862939885,-5.584335317984339,-5.114204798420592,-1.7349021456897038,-5.832538940010736,-1.0082411122645705,4.966493896445923
10495,,-3.495472145905137,-2.3363112643645865,-5.418587299445189,-2.372767519501558,1.4608157968902604,-5.751269715673012,2.193134383127618,-7.9319399405334945,-2.529597156782664,-1.9512833746735037,2.105923546792065,-7.018587301788653,0.8911971458781119,3.160961826990328
10745,,-1.229415042616194,0.6530777388469677,-0.9266959362448456,0.6656144810655997,1.3317243679599873,-3.553287797216147,1.960800231423327,-4.653423638131779,-1.4049122799824607,0.5920594918787047,3.476339281831068,-6.230835653068239,-0.8013100751802077,2.81820416595704
10995,,-2.3401668089083345,-1.2878175228976314,-1.2452750011933955,-0.8561417521708765,-0.5197781824076424,-5.648308965521397,-4.526912405404224,-5.6364466600730765,-4.91585531244494,0.1514086149938643,2.9033772107664597,-3.320932184923977,-1.0021854569414426,1.9151575341576252
11244,,-3.828151477247229,-0.7544557941177772,-6.108948954229204,0.6110599162359367,-3.3810184262788767,-8.022934507037311,-6.326730870315043,-7.8243520153059745,-9.361912712064647,0.1847567934360701,0.8430141931908236,-3.693109117731463,-0.9200234804957612,2.85624710075946
11494,,0.4810369988643983,2.501873360729408,0.0591221472809406,2.848661029731666,-4.371345239954529,-4.105906423852904,-1.2770508442710289,-5.038017209790645,-4.9812712417668505,-4.693691874346667,-0.4574318876803089,-8.493355819200247,-2.2899296766010373,1.70743229530011
11744,,1.2931232451329011,6.2779337784180775,1.4873752064817105,4.674452733690465,-0.0486492233468502,-3.5594957928737103,-1.6532907118909597,-4.091190328598506,-4.582343739962692,-2.941723048548384,-2.463396693469414,-8.809549575033225,2.551475392900469,-1.4902350346005675
11994,,-0.6408569015508023,4.325276558187717,-4.2181054778538005,3.773848668537671,-3.2421067409154665,-5.423672835620735,-3.795704512918885,-6.508970416540603,-7.615805872574799,0.8892803791269653,-3.315552222175403,-7.784255564798011,3.499734042633638,-3.1283979780050823
12244,,-0.5407351636751966,4.2493866168611385,-3.812995118507336,3.140430262466115,-1.8367519225331512,-3.272155165050028,-1.8200797090476784,-6.211704909121993,-3.964670796488016,2.458357857733896,-0.5211067036377953,-5.023211117354995,0.5386403525588344,-2.7213528070997066
12494,,-1.730956191944336,3.045475501492895,-2.345365775032822,1.486701766528257,1.0844954778158629,-4.905664120903865,0.2167392382751978,-4.929587965068475,-3.4316228784192884,-2.4882316118439087,0.0284310569817811,-7.330430953277318,-0.2168663019482346,-0.8585555721773436
12744,,-4.627578909705967,2.3967797566516964,-3.1062517914803083,3.1735965915900244,-2.0729981791817744,-3.7883534979896,-2.1484275358739224,-3.39402342910751,-5.50174499608667,-3.453842979472445,1.377387144955418,-6.254170514695774,-1.7417365942779728,1.6269235250424572
12994,,-3.8043109727255526,-4.127844738325354,-3.159892699147198,3.3616363206547546,-3.779828829795674,-9.207959832067043,-2.308196848122077,-6.753568790767965,-5.484731658928947,-0.0795743683802097,2.1919110513543627,-4.411143539396393,-3.673697173302149,0.3935086233470161
13243,,0.9564496986109235,-3.979596710733127,-4.965749474863211,5.045100364391411,-1.888288105429332,-2.943179790970198,-1.7936603224894494,-8.141713756638044,-5.27872692727716,1.227756596791382,-1.6643306130702042,-7.179004409948236,-2.510908131971928,-2.7787400015763697
13493,,0.2460144167052067,0.5892924976314204,-4.843857630383416,5.33272433907142,1.328587814288973,-1.5279506430225929,-5.470898123149367,-5.264275257480265,-2.6643445433438884,2.2340238520122173,-3.989642765555246,-6.817657367690451,-1.9964627355358755,-1.398710975984026
13743,,-4.83070543043388,1.182208504372113,-5.924810217373099,3.0861942597068186,0.7670312408221492,-5.421678606595647,-6.023851587768794,-6.977006797412352,-1.01816635492338,0.5031450894918189,0.4287637193069095,-5.256390366896243,-3.280238852718494,0.5877883626750183
13993,,-2.901306574381107,-0.5257355368453916,-5.374005101937708,0.5993651341365065,2.5156205954279494,-5.988832134127388,-1.2572201262419047,-7.144984732518177,-2.592508828789461,-2.958061347296048,0.2243709760477012,-5.755942431707059,-2.0787188125461387,-1.9437116633427447
14243,,2.20552035426723,-1.936320491592166,-5.472483624638337,-1.1333077839404884,2.662856865082399,-4.739665040551583,3.755118002624749,-4.662262954089197,-2.7744884121230773,-4.043780146117332,0.32538888267743,-5.465519402152087,-1.95751844184372,0.9209528844250936
14493,,5.971867503889819,-0.1987405056446978,-5.204998058961938,4.77833910569215,0.0444101234618373,-2.842504811671402,4.937048164216444,-3.678428478209951,-3.2537423967794266,-0.4297662979623935,1.7481328634251103,-3.1015526506956377,-1.4833287659563623,-0.3334424013642346
14743,,4.188705384229547,2.190176126017898,-5.203005721140592,9.673545020204603,-3.09431253822099,-3.8661061200419793,-0.7913763896172132,-1.4766656506503535,-2.6222528219475274,3.844385757221474,-2.90260217399564,-5.154527174875536,-2.279804048277035,-2.139103951631186
14993,,-3.1215174430399784,0.0700618988977622,-2.6369998945914883,5.758760331605966,1.1866335235350434,-5.271193710850037,-3.0636845296787687,-3.549813841173669,-1.42905557874565,4.986182964154273,-1.8832512049917176,-3.51330414405384,-1.2172852986911231,-4.782785477295891
15242,,-2.1395190689484123,-3.9591319714228894,-4.597602599967266,2.321982133240033,3.081614007461917,-4.320272126859138,-2.60621284114994,-4.997278358674505,-0.7778224663664328,5.981014202062232,0.0738978573937322,-5.6951553142522044,0.2717048121259949,-4.835657795329986
15492,,0.9281645858472298,1.2566700172772718,-10.446218621777724,4.355016151821935,1.5701430711373172,-1.293007568891487,-3.0574723366804863,-6.76113003980432,-3.057052174481312,2.733750071245131,1.8382092623427693,-1.7151665453561702,0.3580031521705736,-4.385453417393265
15742,,-0.094537435098965,2.590095572016292,-5.8421145518431095,1.7272297586108962,2.816660686298527,-0.6495025669408991,-2.994090705253611,-5.058802545147664,-3.103216059644594,-0.2581435242729891,3.983079462012032,1.8700418930470464,-1.584976133382884,-2.160095584172471
15992,,-1.6020129553956783,1.9148742925039464,-7.224762979567579,0.7153160488311351,2.54199714928386,-3.4301738912019037,1.5078447221238254,-0.0838582857528989,-2.019124140104388,-2.250378951364045,1.405868482569843,0.0895195754747038,-1.3677705026245617,-0.3012260966554275
16242,,-4.955608244026871,2.070867281083358,-11.484783628417674,4.363065365716801,0.3918404435745425,-4.003818400708643,1.211157309068899,1.0284700845466463,1.9581484221065089,-1.0135202117046254,-0.6093624888495167,-2.0509959381387577,0.4213840132576751,-4.516828449661407
16492,,-5.494790891125874,-1.6414208299822064,-11.387252367434131,2.39278566403137,1.082251995224933,-5.892150152278692,-3.201045069406087,-2.523231712723017,-0.8474000469129478,-1.729135156510352,-0.1088317903643916,-4.554438457078657,-1.0161305137248369,-6.134500938969328
16742,,-3.557916349007828,1.2781898270677483,-4.783524776751744,2.1869224560363945,2.691956024779767,-3.830621157206672,-2.3684542977656524,-3.5808772649584286,-1.8339648246561049,1.125790678134899,1.5765387385393528,-2.6964595963477493,-1.0038901914759633,-0.5506238678011317
16992,,-3.464221254254052,3.9280767906797514,-3.224685786976905,2.917547265568821,2.4898512396023955,-6.728035837350301,1.9329276895659315,-4.3923449614916565,-2.458842018302358,1.7446287206049849,-0.7758181172379865,-2.794267884170152,-3.580863793311384,0.3737946012175304
17241,,-4.872459826025567,4.521342079526207,-5.781357225317015,2.1640610351359904,-0.1356854153185132,-3.441578983870908,0.2165230850767878,-3.61955842947319,-1.557513726492978,1.4067510209304346,2.443860627840872,-3.833795765777815,-4.780712006413326,-1.468717590375658
17491,,-0.9121888767029696,1.7426455935136886,-5.438485565463575,2.785090867275056,-1.3425433846423964,-3.128790274858822,-5.389322431825557,-4.518167896001836,-1.572596379496124,2.5712099717236354,2.485829206070772,-6.056047710695227,-4.034066859017918,-1.533314573425892
17741,,-1.126081160824015,-0.2500731775812937,-6.541084075455208,-0.6051200633045732,-1.8927921775028211,-5.784983948866658,4.195862928209506,-5.488966687579567,-2.9204551142835915,3.442761196977008,-0.4429656281871436,-5.850260880502564,-1.7407302435213434,-1.5957807909070385
17991,,-2.0249573448007667,-0.0469345134957479,-9.163283870765516,-0.4558592838195202,1.0007578616253894,-5.0285237234717854,4.554948153989796,-7.320111453720224,-3.055459934071974,-0.3277267581908086,-0.6888000862538903,-4.936209668847199,-2.216350723748221,0.073038637702362
18241,,-1.8610383505365315,-1.855795881014889,-6.196338545963168,-1.0179023454361895,0.7285952213050102,-6.873209502793966,-5.427553598081941,-2.680785115522605,-1.3218879321516752,0.3627763684125979,-2.4497512702489104,-3.674176529063175,-3.6652048125029815,2.457482230090989
18491,,-3.4823734046156094,-4.832584411847834,-1.225879275180806,-3.825943713828429,0.3986099152875325,-9.114831831442809,-12.486244119220515,-2.1412823092422597,-3.358154213531755,1.1623036352495535,-2.344546779703374,-4.438761613829278,-1.7451519539849505,1.571401772394509
18741,,-4.37233682248705,-4.9468998046259856,0.7266723838282345,-2.050140643550418,1.6606737260139015,-9.761871438251305,-13.276707479095307,-4.402156449408633,1.449088406150307,-0.5514948160801008,5.404068527826009,-4.038170822210548,-2.484876115637359,-2.2201585599629547
18991,,-3.13017059534692,-4.649286455211594,-4.064199800398461,-4.657894504704892,1.3194135002193306,-7.289417990989144,-9.946068040198856,-6.810722581597938,1.5925361387730954,-2.490901519001392,3.386499543759463,-5.140398266626242,-5.7434043737888,-3.3504663804213424
19240,,-1.8392384394864547,-4.779981247472388,-5.263144767235088,-4.775919473583679,1.2672224484085612,-5.327794951465302,-5.780826926981659,-4.672482225095632,-3.71820532254148,2.773459200244102,-1.471017825816259,-6.383266706482715,-5.12538634851121,-2.6573519054376167
19490,,-4.464430197074599,-5.024757698615778,-4.276046423223865,-0.7376736007414632,-0.398295039804557,-5.8100353017250095,-4.974164382671985,-3.044900102128886,-3.595384790872331,2.2732628090371927,-1.353168118697072,-5.607423624650917,-2.094507928602049,-3.58715667248358
19740,,-1.6236278258431174,-1.159656269108826,-1.8738696108183093,0.6098823279860788,-0.3417616429040956,-4.338279623859865,-0.2016105456392357,-2.2210877030346694,-4.601551824298267,-1.7216821616195686,1.399600570950648,-4.837079963269531,-1.6230606744779963,-1.7818833157436575
19990,,0.7277079377662999,-1.5602283491524795,-4.733024627923969,0.7646168909053441,1.3703691321097244,-5.370647906287104,1.8588664273596331,-5.381018759449445,-7.229518771574696,-0.0848770931926809,-0.3372174596796065,-7.249475196711323,-4.105480117494302,-3.221040759540028
20240,,-0.9523387795816328,-3.798335656955889,-6.437347515030265,0.1231935497586369,-1.102221557749882,-6.549952840661,-2.2359810119366648,-5.967501184503754,-4.883589831912157,-0.620717381875222,-1.3788061546528894,-12.890891018703131,-5.217720413058552,-6.182172334015861
20490,,-2.859280378205644,0.2716370812806501,-4.638161381522622,-3.555159906127228,-3.881601436595611,-4.625203017660547,-2.928517263115893,-1.1802940078813264,-2.2620826223426334,-2.135827729915008,0.8985237741091828,-5.352204872409598,-2.778416819226779,-2.2891847921286224
20740,,-3.010136471350975,0.6371577143152733,-4.724185074756791,-0.7921786692757355,-2.6130469528028035,-5.12442026700632,-8.141002875298293,-2.654168382025683,-1.618346409726458,-2.039465893769285,-2.2285119115918155,-3.014776686346634,-3.517521930184361,-0.7604307039577062
20990,,-2.517534672284494,-0.9141034729073528,-0.122674027229911,0.1766716711190873,-1.7002524755198491,-6.617003181324873,-8.511930975312248,-2.7411772800159997,-1.275766442842596,-2.306352276528668,-2.250653916473258,-2.414495775407418,-3.0511414574127853,-3.3795608349810653
21239,,-0.7955787208833358,-0.0757269278334425,-0.8339846627282212,4.256598394891612,-0.730429841670297,-7.536522042070183,-6.927713112983746,-1.4258686287961866,-1.6570957481890431,0.7077991485266153,-2.649858963790916,-5.7581271211213805,0.0970125000037874,-4.652039304224339
21489,,1.398782982910591,0.6686135171144801,-4.757627641547967,5.464404737460137,-0.2810846171850968,-6.800638792080397,-3.9019775706783335,-3.531336195506094,-2.7213194744044467,0.5303011857726796,-4.734524080786061,-9.305854617316374,2.203472716399734,-4.78996654224335
21739,,-0.561547726234593,-0.2933241084219937,-9.668813429891408,2.9150856511717658,-2.248981524702077,-7.03677710942495,-0.0865302906378877,-8.877763872884099,-5.392717120290019,-0.6453789767789909,-2.146112058623642,-8.744091421286807,-2.303921911343731,-5.471528708825881
21989,,-5.953240175564297,-1.1092258942502151,-8.07822640809385,-2.6608557870569767,-2.795853370998568,-3.981125250068176,-2.64029513251654,-8.327358148799656,-5.61980533989272,-0.5657171025182637,-2.0584677880603497,-6.7828072135646025,-5.799494189620439,-5.688114705641103
22239,,-7.850583630581724,-1.0465976959521328,-7.30489985013164,-6.692019671269359,-3.050550972805045,-5.296001179922473,1.921632842874197,-4.643706384949736,-4.8082159154897886,-1.6771431728685997,-2.729716685316839,-6.4630476751118895,-3.929309732243247,-4.5720368848007045
22489,,-4.9438626489687945,-0.8018544074957411,-6.742741362175173,-3.5039874270338327,-0.0203976033061004,-4.122657461963771,0.8268473327914321,-5.586729507352219,-3.12811534194542,-1.5480142048183256,-0.2780647338439743,-5.096880323952592,-1.6275800622347876,-3.1729379313865564
22739,,-5.089628254790815,-2.308174081421639,-4.062955493695023,-2.294484904811441,-1.0308313460163605,-4.076244672790567,-6.709822186076996,-6.400136882438789,-2.6103487114704524,-2.5568186836951368,-1.8487666930304147,-3.6518159669056662,-2.486226415644309,-2.0431045113781336
22989,,-3.908141452722989,-3.5817711162892363,-2.246081557277787,-2.628821686797317,2.378397513639468,-2.3027458703885366,-6.793482863641619,-0.1394321620228374,-3.3667977414858474,1.924858507490591,-2.3599491470786,-2.642150982967166,-0.7953573704341703,-1.5209052773828091
23238,,-2.3024467030715314,-0.164036963005232,-2.030915998160192,-0.6675132538369131,0.9002022600274939,-4.942272836815022,-6.598915060257539,-2.690346408514484,-2.1050225875896778,2.541399740166093,-1.2145143241035323,-4.915210623262142,-2.749979663283292,2.5715663945697287
23488,,-3.360702718593054,-0.8701595565839298,-1.5279325826133825,5.290577114781694,0.9287836084844192,-8.661088658371506,1.2647968914612904,-5.189082261227852,-2.7085726124780867,2.0873122451543686,-2.690496846115072,-9.759399293110242,-5.522904359558427,4.9907464644211865
23738,,-2.3848935417918917,-4.533391234335797,-6.458360573187641,2.843913511819838,1.8045923299985696,-9.841775634609997,5.086099257896619,-3.169408315245412,-1.3806836212867089,1.1842837942427111,-5.782011818445369,-6.693957280330346,-1.1946403560462784,4.889193827217966
23988,,-1.2050781272200697,-3.478286170102345,-3.3362583064041926,-2.3488221849140074,-1.1426954263303235,-6.828601471807367,-0.2513553968782625,-5.458485482994401,-2.142638840567345,1.412702977073971,-0.9069920225932117,-3.279688018714123,1.9101701627327825,3.8250807953069454
24238,,-1.749923198549869,-0.6672664749643854,-4.846861285026568,-2.305987801531696,0.0621728849730857,-6.734698644209347,-5.215648189015201,-6.893565150294345,-1.4714408139303972,-0.4335440566101286,1.3701339605047915,-2.531160521285918,-2.3757872756680376,3.5727814544320124
24488,,-0.6643413844230212,1.2106804085269067,-6.819201061584403,2.7561232330244128,-1.7571893988181897,-4.179429772188217,-3.152956576516501,-3.43794005241513,-1.4047557140855744,-3.0324369271579994,-2.9708658377648733,-6.838940015865623,-0.1332184722001632,3.106677225634973
24738,,-1.2545308347254027,0.7945493720211179,-8.118459260439527,3.419128307072107,-1.311643781409212,-6.20174841959443,-4.66522203184487,-5.632227591573878,-6.116324640110733,-0.7250581143581167,0.1911801875780648,-4.504593428328768,-0.6236045263199776,-0.1089171932562262
24988,,-3.873537196815512,1.1874518347854928,-6.045319894742006,2.999632553468061,-1.6911449774746703,-7.775124248041193,-9.360857653097147,-6.187672573646803,-4.452126694322698,0.6462140062639536,0.4101393792267646,-5.359411290341447,-1.1569155501898485,1.7204649565402224
25238,,-4.830762133079943,0.18516090522939,-6.502272308787608,0.898345681311421,-0.6754500822210153,-7.239979044282983,-8.578311863313898,1.5448366163653195,-1.751241510800643,4.231756572081524,0.238735374126155,-4.911593885265423,-0.1028651026113033,5.704808626890701
25487,,-0.2109516567993606,-1.7065905747726264,-4.438325771958453,-0.3211545396108562,-1.7371291844178312,-7.459471273874508,1.2092009568456377,9.534181428421292,-0.980022702471995,4.186257534783242,2.8209391382547944,0.6441353739447484,-0.3166905342908229,2.7771637758330643
25737,,-0.3641183660336355,-0.8015597744692315,-6.377017431107857,-2.027240184484336,1.3283202741322513,-4.902181230738493,0.8315011605361979,6.162749233680161,-1.328052687849825,1.4205546226140908,1.759362813477,-1.5975473636469857,-2.9732146307096627,-0.5881893337933354
25987,,-3.653430068446582,0.595832186290142,-4.390754660258751,0.6427021327162838,1.264957736067437,-2.617357860561857,-2.7160098422820367,-1.8311794232178864,-5.050488230853381,-0.2010605296239392,-0.3740675267311454,-4.560337397356309,-3.216720629979229,-1.85272827425201
26237,,-6.835332338286482,2.2701090089265654,-3.2425036508681715,3.3536376299781385,1.5684504437008546,-4.866550838366016,-3.3410838898839086,-3.8239591366097296,-3.943874720769798,2.1917781188556384,-2.7906552325612566,-4.045008111185057,-4.997672477253218,-0.1251132053734865
26487,,-7.363757455350875,-2.967696096070638,-4.901308180535532,-0.0724655865377345,1.066815796802698,-6.860532363961747,-5.286947054080296,-4.535695692192242,-4.447702441302527,-1.8796281216385025,-4.395042548184181,-3.0042004446996544,-1.8017357216735144,-1.1346586604513649
26737,,-4.234196692818231,-1.962663322357911,3.816626681267812,-0.1046454055493375,-2.8743161265079964,-5.481750424108204,-3.616176403493532,-5.38703357625319,-2.3340613441791893,-0.968394911701228,-1.2250967273026114,-4.1639522645929,-3.0790252038412373,-2.9989860039511296
26987,,-3.128791399856273,1.4008516317805362,6.283334178204788,-0.9429809984364356,-4.347053811471283,-1.4438229325001697,-0.7166142400857165,6.448569393237348,0.1839329419951266,-0.499093317854976,1.2262925015130883,-1.601116507553345,-1.7883642094281544,0.2399845457103025
27237,,0.6243378805913602,1.2070209301936488,-1.2114718352791096,-1.940945919483501,-3.980888016221794,-0.5784366799836078,1.789481200524703,10.101313120163889,-0.36106105236351,1.6068616247779812,4.193978236966011,1.83435146992784,0.3503698332024985,2.38896652565591
27486,,-0.3336889498872081,-3.994209451486703,-5.640494266263,-0.6019901845208832,-0.9550593290623816,-3.5683806612873523,-1.968080588014637,2.852830748877913,-2.183220388132185,1.4615675644965265,2.9244963023891417,-2.493519652136221,-1.8160390053775757,1.8612124903154663
27736,,-4.549035995880218,-3.3484996492034,-2.129929125918823,1.84683677157316,-1.1816660232463905,-4.765655253668479,-5.498940451894861,0.4990268453920712,-0.4758071804856488,-2.932152779571815,-1.053516330490477,-3.9216587775560057,-1.258809792307208,-1.82110489896341
27986,,-3.4303913013374903,-0.1841339695560452,-1.0445870556920165,0.4783790348501349,1.2800818776666452,-7.623017340690307,-4.418886073170263,2.2278110266644595,-0.3932110634931138,0.3963645140755383,-1.48402221419931,-1.7994008315151215,0.3292189446519801,-2.182696615275652
28236,,-2.667404686467512,0.2195032175542721,-1.3168145390956476,2.320009072558993,0.2319066662511929,-9.335883815607218,0.7173610078611339,-3.807505990052351,-2.356111459831042,2.233353150337092,-4.805627242695131,-2.401851974746236,-1.4624120246944017,-0.0829602176911619
28486,,-4.861754497586319,0.5163045687247105,-4.78524240325056,-0.3903926104556577,-3.455237336200695,-9.07951926625377,1.6596731319951117,-5.51009079806785,-3.989848239475936,-0.2136238112549676,-2.165891265855297,-5.728873761593575,-3.755912019207517,0.1257142465499462
28736,,-9.490117391853031,1.1168907614425363,-6.78659277875823,-0.2525086842391955,-5.029906330654477,-5.833346121381981,-3.685620551018465,-6.246271007946342,-3.184036776946224,-2.548234259996056,-1.5718742910400976,-6.649694948749035,-7.155746305608334,-3.172471634433366
28986,,-6.085562154041564,-4.336371518666798,-6.111774123191559,2.32944050034497,-3.193489528073824,-4.725936329773669,-2.351945162138413,-4.669805722720199,-4.661849994336425,-2.6039959686174874,-3.314924319047565,-4.777198663503981,-2.9500960131295018,-1.3908902851627092
29236,,-5.181632155603078,-3.0468188007171126,-3.5538777269125066,2.971265072552101,-0.7935616354302859,-6.323339731200469,3.9129643322243535,-3.351496759276693,-5.158680107295717,-0.0764332767791036,-2.313739003819923,-6.317826778190985,0.6204935770512991,0.5785367623101518
29485,,-3.328138710792415,-0.257337081578556,-4.148091936289916,1.689163549448859,-0.9300858873219964,-4.905465833956326,10.85824153182486,-5.645434033470891,0.1978564771500988,-0.927130087191104,0.9757612227973228,-9.23079499261387,1.3406483363919184,0.3099102338527633
29735,,-2.9057379538697363,0.1887205727638867,-1.2785721877370946,1.5184120547293518,-5.982828035062648,-4.095074708409574,7.62450231517684,-6.153274792984419,-0.9100304998993768,0.6979508514443787,0.750680725074996,-3.943897828888357,0.5385274870137872,-3.045154414466233
29985,,-1.3437655174208114,-1.695028641320552,-0.548691889490208,3.586102179082647,-3.2825794650096887,-4.157543414975699,-5.023868810812716,-2.4957248434809904,-3.752020385753967,-1.4587486235055032,1.576091820836171,-2.7191605725667927,0.5492194532026197,-6.231999415337035
30235,,-0.9374353856735748,-0.6804348317309139,-2.856836044893065,2.861929339402143,-0.1591003166821105,-1.591416678270374,-3.0144591837062324,6.867937905113712,-5.3671828876607,-2.3766796765988647,-1.151440979116361,-2.22092169184191,1.1571783976443462,-5.346273612609412
30485,,-1.94683583753606,-0.1334907192313125,-5.40988324047036,-0.0365259492070904,3.962450691842203,-0.5957471133616612,0.2597368040989422,5.117080163436757,-4.006432524669176,-2.13565192148588,-3.5540023430029954,-4.407385273398771,-2.3851527825478285,-4.013597548113547
30735,,1.5312968621995404,3.32459364560184,-3.7659900050951256,4.930780135530549,4.385054812063184,1.3875519033462842,2.655862756709866,-3.0609764321863637,-1.4626954718584373,0.2562236624448352,0.6808494661904467,-5.01509045721352,0.4357047389509876,-1.1949243247585448
30985,,2.012494526568743,4.469124459815244,-2.2047182921735025,5.853874754856225,0.9365336438602638,0.8090391779846351,1.7625933047573876,-5.242292249808863,-3.130719472153732,2.161201953579503,-0.4395590527732805,-4.593058928126993,0.3078202006832641,-1.5389258263148755
31235,,1.9556890967818763,2.4984618094941102,0.088474303184343,5.684624794542418,-1.3872332159937475,-4.123574646563609,-1.189059969581416,-4.741895059444078,-1.5942913697413696,1.7978271169726536,2.671152933825469,-0.901377000430934,-3.8149246808679966,-1.7198736632839218
31484,,0.4298833397573181,0.5432776364123207,-0.1682015307289281,3.366044162415806,0.3907520248716273,-2.8912611765555543,-3.0906555649594,-3.2968562591143318,2.7863936823427182,0.3838353109761553,5.93796522284425,-0.5072880484181369,-1.1914043696133898,3.452362315168606
31734,,-0.324790073594875,-1.0977206549268943,-2.0848179944428478,0.26500267460436,1.3288776048298323,0.91394634297173,0.5699935724547474,-1.8898150814194512,10.102217297714216,2.004134594422262,7.717996674555792,-1.576052421173658,-3.136229261173398,6.375668003297657
31984,,1.5644258357150185,-0.7049712746126562,-2.7791894434979723,-0.559364196093832,-1.1036828703440136,-3.3234522140446088,-1.314990906334349,-5.264384598504151,8.084095481132007,0.6974847356242736,11.862787560576422,-1.8698602160981648,-5.801941128203643,5.384357732649578
32234,,1.0665027482071003,-3.956296763452625,-4.190338048737039,1.4366616065471731,0.3318078478853412,-2.750140906186425,-1.1040191464895752,-9.908458409703416,3.813586185270869,2.415009788693427,8.644516329817769,-2.4191474782393825,0.2575902211087413,5.100248351161909
32484,,2.12732008181581,-2.0208196036364074,-7.614573568009959,3.7556659659825047,-1.1583157292534476,-3.4616439967514108,-3.213867862181333,-6.88569088298239,-0.2012369189081932,2.261746798160952,-0.4117816546404022,-4.161483415757044,-0.0333652117838727,7.128267561698629
32734,,-0.0445033727368826,0.6200463330412802,-5.112203674264768,2.335699658660777,-0.8447198400751371,-2.878606955170336,-3.2754775679871164,-5.111163752801813,-0.6270215610303276,-0.5097150879727425,-3.810565374937744,-4.924416196770713,0.518304613348707,5.244176737277907
32984,,0.9656691062256324,-2.241161984697538,-6.167304837515183,-1.5012371864862697,-0.5289930342471135,-2.913809068932128,-1.392454685981619,-5.4583014868915525,-1.9234713249410085,-1.3128133204918937,0.7065193144759916,-5.76020743249321,-1.2805485482639134,0.4579338244862496
33234,,1.355960933909614,-0.3802190157102015,-6.827916430441384,-1.1494346044741697,1.1098811843203675,-2.1281447886286338,1.236939223680567,-4.784847546707009,-8.988902774808835,-1.2050657775098697,2.8616008544565346,-2.981672294689799,-1.0495258639213592,2.8391592116893385
33483,,0.000151300745174,-2.330724022503829,-4.456976314935547,-0.5123191652747625,4.02254922571324,-2.7715845721908727,-3.704480888968119,-9.083205732237564,-6.127584106458496,1.59328435702059,-1.2199595885908605,-5.812463831198914,-0.326612601619396,3.410917191806129
33733,,-0.8634494380463809,-9.105102454798493,-4.739907401647057,-0.363701596975042,2.779192795397024,-4.888284626690943,-5.484663462076325,-8.410843104778321,-3.155358593297835,0.9080899608823572,4.907524858405465,-5.587060792800931,0.4360251923926604,4.6472434704216825
33983,,-2.45262124693743,-7.195851219769127,-6.805784128340528,-0.8898397336544023,-3.5652403697560247,-10.952249975061385,-10.918104342268206,-8.546894048534618,-6.165480444449488,-0.8420663140089725,7.031613526591017,-7.266881812586612,-2.691450786950872,6.3280217726428045
34233,,-4.99269414880473,-3.213434462903954,-2.706264284974797,2.684876633343565,-1.535505974550555,-9.075895607767578,-7.752073799827288,-7.66598643696158,-5.229492709904452,-1.2073173190388131,2.2311672319368467,-10.37453777041081,-0.6933981491818615,5.036236532012887
34483,,-3.0371277352488946,-0.9281829851735028,-2.566340899418438,2.530500932926183,-3.928654549289977,-7.24575001417957,-6.377948499015207,-3.0206811946531653,-1.134888529684422,-1.5287825589972155,-0.2068517878432188,-6.401632216614331,1.5679315819484083,0.2746086237951698
34733,,-3.094390933967452,-0.5906259634610044,-4.978414397157748,0.5243407048399704,-0.784722913211444,-6.146029522491846,-3.257402539521719,-5.3368969218111975,-2.051522585582659,-0.3346076904563909,-0.8421800295870302,-6.365094941023041,0.4108454305128467,1.0476187530547711
34983,,-4.812729118972984,1.2893843177236162,-6.112884625279986,0.0021154106695026,-1.849244751206268,-2.1844929074559123,-1.6944736866257184,-6.466332317711082,-3.583897507015805,0.0640124871065366,1.648711408251844,-6.013183905542015,-3.0673812148167405,4.127421615714328
35233,,-1.1088370134374046,0.1762850455117837,-6.468297013873324,5.379683592306508,1.299515564956728,-3.501751788836537,-0.5664405484394939,-8.32641130327832,-1.875217049481691,-1.3455828618857757,3.810208239210011,-5.512721599244071,-0.5078820857325993,5.574722884161888
35482,,-1.6938284246189208,1.345354097671429,-4.855699453525376,3.6082914283434486,3.970957730622746,-2.515818865716098,-0.6387617843274412,-3.7137531734004554,-0.0549688232392957,0.9361847741478424,0.2874444972580292,-2.4276791769338306,-3.524868719101842,5.781369057307975
35732,,-3.160167842795005,1.169139847390218,-2.325269319548498,1.6446079102207176,1.3941287185646454,-6.115956147905317,-3.8440195595032622,-3.393456276102373,-2.4421702495562982,0.5895009101789226,0.4232716371590586,-3.6275042148959806,-1.296276735688873,3.202942385827078
35982,,-5.679463898121778,-2.455784364610778,-5.889820453486514,2.42282613415464,-3.361354557891812,-8.601469514290013,-3.170162985585656,0.1178444483348508,-8.29003449178171,-1.330486709520418,-0.8323582898091975,-6.114757397588402,-3.3808030985134803,1.9550616291252123
36232,,-6.4666798646183405,0.6644656617164661,-5.413220769425204,1.9410342128878555,-3.3806997744727862,-6.693437702949147,-2.075425641364119,5.376117534506443,-4.314387090631808,-1.933048125904784,-6.502534973310857,-6.4479418812995455,-2.5858564719054247,2.9729333502837694
36482,,-7.339445180014983,-1.6160739783926,-3.214079822849608,1.8057388741111648,0.2095866503053796,-5.771636261231499,-4.722462592211122,2.681826902832159,-2.7881352137695226,2.98097253016109,-1.3192546446439883,-5.201452911368705,-0.1590577560402902,2.2797238631254007
36732,,-1.4444239310134088,-6.287578398923919,-4.523646472086821,-0.8728160159017345,5.139148266823479,-4.139654391414681,-5.233628463756126,-2.9600235866958977,-2.258667318126326,4.634176044829062,0.7277614072666004,-4.086202312825097,0.7131499226550436,3.1344215521722747
36982,,0.1317322840759392,-3.1194994680441965,-4.889180224495146,0.5793444728878517,2.3281658577730195,-8.120972550493091,-6.380407594208723,2.009302786085659,1.5177543684087555,3.51218452839524,-4.721200960971935,-3.843474256905665,2.046792287720706,1.6186722530955389
37232,,-2.461647620427585,-2.9079532004641835,-6.521957799750782,-0.1424851729889997,-0.1870652870331293,-5.426816590166835,-4.944277771464446,-2.268409018401976,-2.2810892871468877,0.4116738340785751,0.2392591607279958,-2.8449604682871588,2.234150836886805,3.277648749606336
37481,,-2.44894957672134,-0.7323598844909045,-6.144813333540924,0.6472903964629145,-1.9243489804395757,-5.480805126939192,-4.016295723820522,-5.9369683333863845,-4.711880062427625,-1.2904751905936975,2.0922902389499187,-4.982213626848857,0.3009616284540333,3.064110973193276
37731,,-1.6716770622849468,1.1392745089847434,-5.336988394961004,4.908762473669887,2.9099884512706624,-6.498077421390213,-2.5504472910779508,-4.550813996721605,-2.700776213457329,-1.6597529926122951,1.246128362357263,-9.668124475036532,-4.23013549343022,1.4548880059772675
37981,R,-3.602968445985425,-2.9220301949125798,-4.552097664695792,2.5268552035988394,4.104750713302419,-2.187093498492932,-0.9608548239179828,-5.162207273885379,-3.184980738058909,-0.9517006288672684,-0.7659626719783375,-7.008624785101114,-8.020304321817367,0.8779328932305293
38231,,-2.4413802394471555,-7.696094528662131,-6.916756445529629,-2.8567612616963896,0.2677616693444519,-3.611849812274585,0.8896776866712046,-5.885123302033387,-6.352906713675858,0.6739185418837718,-1.54955541628619,-5.6525684802140175,-8.949646156636998,0.4856864080762553
38481,,0.7955965230125837,-2.1498320065635186,-3.5643353825480286,2.212269718824917,-1.398327015957558,-4.647515186434548,4.885224579182801,2.1973987005481046,-0.5411222248577913,2.4216057437773704,-1.1255683222677124,-3.2437554207315804,-8.132008272818684,-0.8691582243681897
38731,,0.9501800188022528,1.3838556267422772,-4.348783099252735,2.616054786795736,-0.2248262008243169,-2.798454094212979,1.1937307922218012,2.304611248928357,0.8053137282582512,0.4017571843677351,-3.231026375201889,-4.545990227340933,-4.230604235815706,-1.8283506738357544
38981,,-1.4542550715676477,1.1865427161515905,-7.50854895888,0.291894896733008,2.953988889004865,-2.0365829607916126,-3.21598413191782,-3.021007034491532,-2.196479094225963,-0.2064794133898676,-0.3327663064923274,-7.700626192814867,-1.0521501061500782,-1.7009415273808974
39231,,-0.3360699000391187,-0.577509918567752,-6.391583663411684,1.4313803553207287,1.261372307820762,-4.756842111077929,-7.275500621186477,-5.159351983314455,-7.437772701424042,-1.4783284231583724,-1.1509513315762203,-8.920844096058799,0.330612518285508,-2.669402698479151
39480,,1.6291591330482729,-1.5095829454046237,-6.114463031317414,-0.1215358303175037,-3.786581072517346,-5.416101564101986,-3.520078429876081,-6.663466938761221,-4.912893718619648,-0.5624574067356364,-4.199328868025058,-5.4532429741605615,-1.3750639845463015,-7.303180636766818
39730,,-1.4974196252757492,-0.857589733408358,-5.27228256106943,3.699455426428009,-2.712928730787812,-4.858189608199019,-2.403426399095636,-5.559107106869465,-3.367085681694549,1.4230299500997567,-1.6780087695637549,-3.3761616830946024,-0.9755476588524724,-2.89654341352069
39980,,-0.108459565779886,0.6657330006642643,-4.9724795793436165,5.6712978324993735,-0.751472000079813,-0.8174242406964726,-2.40458318262884,-4.684418975010583,-4.229492012957578,-0.4863792661134126,-3.060204324275675,0.3065500843103688,0.668724450487794,-1.184063725080888
40230,,1.016173227708779,1.041750000978232,-4.554081752344522,4.363890684641763,0.8160603005073843,-1.5552178927556348,-1.466918721953687,-4.8619962196790025,-1.5685597379878466,-0.4649659130936901,1.067090789651202,0.3343059879910027,-1.0709443321431509,-0.704524983122547
40480,,-1.966991726975251,-1.0372166692805085,-4.608936329098739,-0.2831012943239401,-2.7829367850127618,-4.790865341474739,-2.776974951729107,-8.3548870258876,3.186295190995579,2.481400121931018,-1.9310847809838216,-2.662373992503426,-3.752318306898212,1.9028053576961568
40730,,-2.709148723745254,-2.363613110656746,-1.3264916729578,-2.8414895194730843,-1.0661302668366823,-4.398981941295,-1.6161991742264747,-3.435208546446553,9.61056587961676,2.7914221729055813,-1.6910768904274032,-4.482096860789002,-3.981933241609099,5.456090148668922
40980,,-4.1056155388352575,-5.985227227550983,-0.7902101128606593,1.027380369676113,2.2862388744581463,-5.597194914715876,-3.3375274025865718,-2.756737194137436,5.8544632440461095,0.6335951243899389,3.6401740267916094,-3.8940155553705313,-3.2375543927602077,4.956697746366899
41230,,-1.244075043836902,-2.9969202461291293,-2.0370735587348454,1.1242376475753888,1.1264571398795404,-7.281858681630901,-2.562716489976846,-5.3285963134175525,-4.7817593203707816,1.3670286056976848,4.083888458885617,-6.52307772573991,-3.800708774928603,3.7230790659512527
41479,,-2.5699597640184955,-4.409248351262402,-7.010470875688783,-1.2490833547089313,-2.5991253178476423,-4.195882892944436,-2.15184958924588,-7.106260961742732,-2.568216484455637,1.1156848457578843,1.5232534026685618,-3.82969723844087,-2.3939268421801203,4.749627413529909
41729,,-5.353478899900175,-5.892288388620877,-6.460207699909015,-5.64348795450749,-7.1348692858856495,-3.5343703584622954,6.219729556599276,-6.772525386245024,-1.6916317969961985,-1.4179526836055312,0.855376434952209,-3.34425186657705,-0.7924195877405744,4.704864888015451
41979,,-0.973099744462412,-0.6310046064943396,-3.268814703761196,-0.4376100966861809,-10.356413344528226,-5.434819220782998,6.903779375997713,-1.6115847169757238,0.028905182081458,-1.2709464828922004,3.825129320382818,-4.6499203748764,-2.2235537022212,1.126630912939118
42229,,1.03446298150977,0.0330695882031868,-2.091276267162581,3.9492555379530674,-0.0919876844749992,-3.6592574426867177,1.7421933856023264,1.1522377406468027,1.3594108099282811,-3.619024836222202,-0.1368523803766741,-3.979986270177394,-0.2571500724091847,2.1223089846346928
42479,,2.588790162074797,-0.8983444791235631,-3.365982773099229,5.035377583781663,2.2957621960477166,-3.844434669560201,0.1266604409168847,-3.036585809845571,-1.3510419792710129,-5.512939897946909,-1.4018958373926338,-3.690433034671028,0.6727481674818269,4.701740431896128
42729,,1.263179141851961,-3.363868232277811,-4.665311746802306,3.497388383192693,1.6106544494626651,-2.458330798828776,-0.5564929787576688,-5.306006289283259,-3.360753178858693,-0.3278922377943647,-1.445475798584147,-9.503365648418956,0.3408946078565821,3.6396948538137535
42979,,-1.1360304509570038,-6.319093729877652,-7.050113785835487,4.819065536512083,1.702935676801044,-3.079011294720692,-3.1016761238092085,-7.400982366997919,-5.72782271765366,2.2954278709421154,0.7364134011064396,-3.444476423707934,1.48308493283732,-0.4615455675115025
43229,,-4.951417175741826,-3.511149573324151,-4.679719542353347,5.682450345143146,1.4086281264247569,-4.129178217697627,-5.274753722820639,-5.325267004973323,-5.070120263262073,-0.793691944366999,-0.0105706137764225,-1.2110964975489504,-0.6601791469620115,-6.58413692883822
43478,,-3.133568217849904,-0.7884619156442442,-2.1656417972748465,2.6941862126661773,1.895534205967112,-9.197199230723578,-7.410946424880041,-0.2095145201556239,-0.6002611536935949,1.7309119123783423,-1.1946670400874695,-4.137614078546467,-2.5888455686922924,-9.316910710195904
43728,,-1.5538999556697306,0.4426458292066074,-1.706629792778886,6.629367277711022,-0.1534302268316244,-7.487233280577572,-7.611425496622617,-1.291778328973846,-1.0308442604499437,5.125943602765036,-0.6000264003344054,-5.961215330885575,-5.567532254039792,-6.605023184922676
43978,,-3.432828209972442,1.901686964650231,-1.840383230316457,7.719481667667781,-1.7795938422297028,-3.22390795331072,-4.893979628391952,-5.00051987477314,-3.969434179348864,3.2033075259687003,0.5101426749198567,-3.5176159996621994,-2.6139265597792,-0.2489835140614335
44228,,-1.167618080980102,2.3633964872231683,-1.9083808130794195,5.665992545310441,-2.503378510425982,-2.5706003374474524,-3.392069957834587,1.8324867717772413,-2.356961787752379,0.2351509421734848,0.1125657842327007,-4.406880965236874,-1.574604978234882,2.4135866235610184
44478,,0.1164922526827524,2.1565118010921385,-1.6822061064365503,5.358568888760019,0.859222810236892,-3.6284122589346817,-4.893875160064104,1.8361120473795003,-3.922072437347635,-1.3452187101422133,3.040729658494019,-1.7218731355151915,-2.161131610280254,1.2318872982919742
44728,,-0.1203712925437127,0.4982549038014967,-3.515901336065351,2.8580667658441614,2.426333953727128,-3.6261149132647295,-2.3450849794274364,-1.6818390277866544,-3.495858066417725,-3.13007698991152,3.199446690591813,-3.40347290790292,-2.8399272905849235,0.7206817626643269
44978,,-2.0988197207332804,-0.2817276459937763,-4.32345218078512,4.126104418187096,0.5282849734398939,-2.642902052860122,-2.9211235728769944,-2.701008325825121,-2.9328238014053643,1.1151942702613111,-1.4490288659395545,-4.317354183599135,-3.261394128066508,-4.602084930143375
45228,,-0.6344982013842405,-2.7408403924856173,-5.596858018186008,3.642307302252272,-1.5857721695235143,-1.1333473000677234,-1.171488704083781,-2.6850424329503024,-6.264363061037318,4.398550133257047,-4.164285581187736,-4.880354387655246,-0.1514429694703452,-1.841953382718696
45477,,-1.481820076767212,-2.534095569784713,-5.5971194526153525,4.402181573157088,-0.6193782355482872,-3.467838709103571,-1.5169434343074195,-2.052662897236199,-3.51163759536812,5.795841223083902,-7.788507490606583,-3.5594949341628728,-1.071187845864156,3.013912198338633
45727,,-4.643608506514191,-0.1326475951311627,-3.909698677607647,8.610831773656079,-0.9778239849911629,-9.609420678215514,-6.287481733974848,-0.9462153203163648,0.1192421198624972,3.8293223157796863,-1.8968219161729003,-3.871836010632535,-2.833314647325041,2.609945042050084
45977,,-2.356976724899508,-3.7688689732154224,-4.167713939053934,8.231753566798886,-2.469749734544476,-7.277573135191931,-8.218208281584348,-3.4950771672204284,-1.100704806790432,2.177869721415263,3.248629775879899,-3.924475830103023,-1.110677044162455,-0.0177485596304771
46227,,-0.929341657521788,-5.81015648563562,-3.026792701841688,8.339573189648625,1.860922751552649,-2.83261783924129,-2.849009661525149,-4.349613956250432,-1.5097884312672325,1.4081160738143597,4.336376178463043,-4.562006259652934,2.750043689314833,3.55477101431297
46477,,0.0074657856784337,-3.409672330118352,-5.720432149113894,5.9193364953903735,2.078335860644573,-1.4557077085356815,-1.8642215791358352,-4.127619883699587,-1.5049570983809646,1.4899088388534076,3.3392927133910795,-2.5923968936853607,3.3595738256865637,6.556695975794292
46727,,-0.7174557451536405,-2.966539587540351,-7.323229818212559,4.782513827883699,5.797511285263127,-2.133962350806167,-3.359326638876757,-5.192483169651134,-3.8050109964453154,-0.2046748502289924,2.5545912257955337,-3.3776877651473303,1.6891808420642875,3.48382147659972
46977,,-2.6511927423351143,-5.872522350026049,-6.7358421777728665,0.467771142413405,6.905613971317987,0.4562185883887171,-1.4968987305409776,-3.864961885541969,-5.000164345517771,-0.7851327858285638,2.239172375654728,-4.552171944985784,-0.1984541440677079,-1.3512283256408144
47227,,-2.780128772792626,-4.011445118960389,-5.247789111612385,4.008945841737789,2.560812030729984,-1.8347159665981403,0.7285222264956915,-1.234815980304424,-3.508403786122798,-1.1743221271289253,1.162257587355169,-6.752244359152968,-5.415028703094819,-0.0604769789918908
47476,,-4.606810717861327,-1.934191205065359,0.5761678767374326,4.054154595558344,1.3932518134434593,-2.548703698752577,0.6040419169041777,-0.4096603728335214,-0.3375883439653188,-0.2291675300055623,-0.5415292588038888,-6.383277593060374,-0.3681024868041609,1.9753996735021973
47726,,-3.79415696122787,0.8669416542143336,1.1920235637173622,0.8631857185943542,5.251065691533151,-2.859841943158,-3.423943979095445,-3.4991239619311143,-3.2073603722817974,1.182437636281783,-0.4335603065253489,-6.89972364111108,-1.8163348535400845,4.751410247430211
47976,,-3.303625202647376,-1.9112534439988655,-5.312128386729428,-1.383220230591737,5.070326344150434,-6.232110484708732,-4.963505516428931,-7.605576217687996,-4.097976222469337,3.543283878471819,2.09063658035648,-7.64534809248972,-5.7629630894124775,8.1279123862306
48226,,-3.088248795569792,-4.188961686655499,-6.76535175114436,2.3054760883203214,5.997607672490207,-6.238872271830395,-1.8550405242939896,-5.747793027255939,-4.2476702567094495,-0.0881058645262913,1.191676458691778,-7.517069520021053,-3.7159068430825934,6.546209018660284
48476,,-2.3601415162179817,2.924052133215847,-6.950169522873436,4.473796566928438,4.290302084224301,-6.688839467597612,-1.3038882166001282,-4.579195307194786,-3.650961375568066,1.8217566251026085,6.133439999252067,-10.712406470989611,3.758433356117828,3.7152866178924993
48726,,-3.58918594935938,2.8118843226284955,-3.863082051545679,5.689569875487228,-0.68001977398145,-8.069195921926054,-4.693477009401084,-6.605839077569224,-3.3093016920813505,2.5047308466934286,5.665111342608356,-10.688692756248772,3.901726207222642,-3.4480205232152854
48976,,-3.6691439113435935,5.808217403720216,-2.236841539673516,5.057512207107368,-0.5342313026265547,-3.2705312515969824,-8.824259264964125,-10.444665233010166,-4.494113083908245,-0.6729331237431989,-1.917832538102469,-8.585512510394237,0.6084297085843209,-4.600528999355468
49226,,-4.640562363180187,5.596157583683273,2.539717079089752,3.581144937199998,0.2550641503896127,-1.149845840785782,-6.370603725276947,-8.57340634556877,-4.8248364299259965,3.074548081685754,-0.3737767486034746,-9.382859377303449,1.5289632435609588,-1.1046123092219289
49475,,-4.920092708859768,-2.186539474361962,1.5014100636796357,2.475841649586385,-1.1841261950052748,-7.179430860354179,-7.814852427657691,-6.13817992409352,-2.9763807740418358,4.377524169143874,3.1421937911382827,-5.295790072764117,0.5213414448923439,-2.019413701627601
49725,,-3.772517099035309,-5.414777095877766,0.7136557771937934,0.9312924014972924,0.1811098102796881,-10.08922222930873,-7.935202185938074,-8.721309222149639,-1.666244539483751,2.145504794050145,1.6971770698688635,-5.3663603440436685,-0.5732683706377544,-4.430706679973786
49975,,-2.9511635341929687,-1.7042983051970513,-1.2910160889659767,-0.9381669979016208,2.72484304527148,-7.793115893941938,-8.547995516403104,-7.291004266273178,-2.801170566565911,-1.4889496198869534,0.2006942880588945,-8.74293589280194,-1.3529919179389052,0.1421570102898084
50225,,-2.974616781347043,-2.3437247085942303,-3.5178263735357787,-0.4479893479200358,3.503705149952561,-8.750999270967727,-6.39845585950813,-5.934478045979445,-2.473422241861549,1.266190264480508,2.639136565605034,-8.134894114437332,-3.106671139614205,2.665537994839916
50475,,-5.11903207585979,-3.569380881530628,-4.835937048038108,-3.643612295015328,0.6521831453573489,-7.365939311599254,-8.110269675161424,-2.7503609544632805,-3.025018018717802,0.6092415429616485,1.971193595483277,-4.50195217557898,-1.626433428164984,6.034907000413877
50725,,-1.1111630479422006,-3.950310100023508,-8.577011677527205,-4.281797847064243,-0.3684508422646814,-8.51789110019209,-4.173791066907841,-3.273159335941933,-3.9263912974330015,1.0178812075567922,4.808350584721024,-4.393916481759462,-2.0720150357519,4.763599105531594
50975,,-0.5252732910484472,-4.839154627144919,-6.9656404307968245,-0.8134773949629214,1.0286412501035032,-9.567856362759247,-0.6215427602858663,-4.007993967427141,-2.53611933713902,1.122149709411563,7.793332867588734,-4.091787806217411,-2.33770216675628,5.801993320273623
51225,,-0.4010169233177251,0.6942765151517789,-5.147900836025535,1.7991169993131626,1.6808826408642847,-5.650152557158949,-2.770215145390262,-4.958416924518457,0.831706845822253,-0.6560885982286053,0.7014722646939552,-5.715498173007678,-3.389981816651252,6.3049138624413175
51475,,-0.5096612894391697,1.715352170347516,-3.8580302220591456,-0.3521808549998216,2.606934150664135,-5.266492782491284,-5.988201136476851,-7.073851686685964,-1.98195081200107,-0.4795772341425732,-2.692462332612995,-4.928040816333063,-2.426718355055073,3.4354182149074
51724,,-1.4412562239431397,-0.9273674791869412,-4.55995188191731,1.8575085212331,3.19787394234797,-7.356808654432899,-8.544429401946935,-9.48289596826804,-4.500667540657796,1.518201690024141,-0.8917069630614994,-4.327936131415128,0.0661632852912373,3.762459232167534
51974,,0.1864924175686627,-0.9381848052647284,-8.48490167441745,4.260139261583941,2.944053284716275,-8.196549291888646,-10.719259325267329,-7.028753352516968,-6.270112692248588,0.1579585049804878,-1.1651585837483485,-4.281680899563566,-0.2020996942887344,5.847375197065872
52224,,-1.4219192554157725,1.0120709749724297,-7.458243056900176,5.972314102973617,0.6987993172924054,-6.973360703042379,-6.326492034520742,-6.885414001085984,-8.01829164436009,1.7974926071386506,-0.281706106679615,-3.410957038866808,0.3318148806602418,5.636598627362198
52474,,-4.301847291515334,1.6198564423332669,-6.947530386027524,5.899868101629906,-2.062390059737085,-12.520145137534268,-2.221062771147196,-5.308474242411597,-0.9918350423744116,1.8839818840866185,-1.890014315900828,-2.37287081276198,-0.7850037413652795,5.467904058129063
52724,,-2.545479496102492,2.154036741580784,-8.02527418816915,3.0440439563010453,2.7471038477237544,-9.935641970263871,7.3595455035710415,-5.054600777848367,-0.8759294252545287,0.1420112302205813,-1.199635647100295,-3.630153132217851,-1.794332470300959,6.801078550118156
52974,,-1.6159990036024283,-0.9555291025706812,-7.348164166298432,6.184519301892091,2.710368869015493,-5.298620156859765,7.075189269856271,-5.590522180251176,-6.6815800814003214,0.2772478505349501,0.6955458738139696,-6.486331307359368,-4.160986974644636,4.640934732914644
53224,,-2.649384684490577,-2.0934924845568075,-1.878739167277029,9.985921532879546,0.6099117937976151,-4.207952112848361,-0.2905313662119862,-4.148740367849097,-5.585191100780335,-0.6760301213133544,2.26960098899276,-5.3753434912452125,-3.25428813723647,-1.9613920279074737
53474,,1.04685871270503,-0.553307483069575,-0.4363195649054051,9.695883701106805,0.6874524863346533,-7.183906447149023,-1.1627411284547866,-2.5350522681085854,-3.0886467512272557,1.5324012778049254,0.6041881642264528,-7.962418212292693,-2.95658090323653,-0.6906686666212635
53723,,-0.8696110446741511,0.9253339393117644,-5.242365139139016,3.0138466252701384,0.8422909940798089,-10.087048281020737,-5.53581102211314,-4.961414288506656,-3.0253432348397475,0.3868959941584788,-1.4165911374245344,-7.019282093352084,-5.259955758913995,0.1074555535264727
53973,,0.3655284364433963,-1.3706291728221545,-5.164909700101141,-2.313643209050151,0.8196346749777914,-8.155911614728067,-7.321377101565432,-3.859625819440233,-3.500241296922286,2.6502594797178074,0.5311915151733352,-2.8302591270180533,-1.4284965843770498,3.2624465967753635
54223,,1.2771581358331785,-0.9934482226404594,-5.611794414268573,0.6116188620263661,0.5233541771709003,-5.301241896170726,-5.538469568653824,-1.943067004649689,-1.7916860513322437,3.918118142012706,3.207406581140715,-4.008622142514396,0.6612954563933705,5.034342808480609
54473,,2.613101674246128,-0.2703012513151088,-5.19220912311401,1.3725405738453855,-0.4944695638468486,-4.282250585514728,-2.961723051922758,-2.0491557404487004,-3.0827243979046752,5.741636070532907,2.2892589734649342,-4.921904112957962,1.0673735374111788,7.487387766022548
54723,,0.4053250756714977,-0.2713787131520928,-4.778868841073409,2.86794104064278,2.023572322614272,-5.019221277133656,0.0770965389010565,-5.309712712309482,-3.633627980831562,3.894760601155717,-0.2349387755048576,-6.118165217835568,-0.7658653561193765,7.10561765166846
54973,,1.57475209025821,-3.6151858444187615,1.5295156056442512,2.8783936196804047,2.9646255897253795,-3.732299276403481,-2.0917877009949626,-4.556354009857603,-2.7698279015496685,1.772736052977103,1.647993085850335,-8.218950116015813,0.7312217457384529,5.480808826499846
55223,,0.2923184783862325,-3.074211294722633,-0.7320795782845723,0.6987072234988788,2.1902621190529588,-4.764715078149452,-5.198955231374064,-3.39218406365492,-3.490931203760772,2.8399860230537124,1.80339608717971,-7.845290131359803,-3.493996843367808,5.6029321346885
55473,,0.0437619846835685,-1.4789284808270795,-4.681334585914923,2.037996915773423,2.3859046081559145,-2.675346484817572,0.6138918687608547,-5.0168953894104105,-0.3645996707439382,1.676603217111157,6.1630004628447335,-3.3146514631365265,-4.210424286277164,4.063779834046159
55722,,-0.0512463550842527,-0.6656266457207348,-5.96347629294499,3.177911402989574,-0.2510195110133131,-3.465513767044194,0.2398535497040301,-5.653915896073047,0.2609765333528354,2.19851497701022,8.191986723611013,-1.0703941385663036,-6.182210834954577,3.5687486694050325
55972,,1.3953217674785638,2.4704914769187507,-4.729267810576051,3.4802104198190387,2.3872272650757216,-4.669260087337818,-0.012684217604945,-7.125667470373898,-2.826993404500164,0.1015599130449656,3.487023047547562,-4.183882801325481,-4.71819674543652,6.630564042905668
56222,,0.764385194475044,-0.1619254347578967,-4.150470199543896,4.7253753888685335,3.2627909946154987,-0.2475027378304699,2.6685481676527245,-9.752000503725284,-3.622239232912508,1.4395042165914045,-0.3405279679787251,-2.977370323882451,-0.5348389918428276,6.5140355329329225
56472,,1.361425047733452,-5.699532075730636,-6.363440529181915,2.9637835704954822,1.4296848670709228,-3.6564869723606823,2.9748915313523177,-9.076270542729244,-1.933081319434384,0.2589496281505238,2.442201593832627,-4.025505991693635,-0.3083129952442625,5.535071482840279
56722,,-3.1534219082354307,-3.638976854368252,-5.5936721254949004,1.264664179272511,0.5308954999127855,-5.898441417781639,0.1894729567420625,-7.836967849037246,-2.94889733824586,3.75221370054613,1.2492208869467707,-5.499617813659112,-0.8874520618172922,3.150579942161842
56972,,-8.31720775390382,-2.92888144487312,-5.997952856928485,5.510170843267287,2.392273373923368,-5.216751968263916,-2.5007202964552957,-4.7944536044767325,-1.8620294227778436,5.779365644554243,1.0426669834982902,-5.574199297095715,-1.6659409161644712,-1.7173942394423822
57222,,-5.279274413642707,-0.4610560571008449,-4.170301078927858,6.560319230441253,3.1453562039033747,-3.633202662349528,-1.4325319828592713,-5.3575945942588366,-2.6144128560688733,2.867594958977693,5.197553061451144,-4.605116242138221,-0.6267849372963161,2.9177031519594587
57472,,-2.3432741379875943,-0.8386014171169616,-5.530698536191348,6.41411717692889,6.286543908541271,3.258676149879788,5.080931685149111,-2.0227203042906345,-2.0679455157550914,3.623411545297628,6.974103005081166,-1.522065868973158,-0.6710410458716194,7.963334469025071
57721,,-1.4693706982485484,-2.2839649701457203,-4.537729570000957,5.192129224175874,5.210877519740247,1.8421477275750489,4.342297850049684,-3.0717031155614416,-1.230830794715455,4.247622341402007,6.674801675015418,-0.6534398158639515,-1.6754118736314323,7.75557641307505
57971,,-2.283807476832855,0.1519956773254547,-3.847840944146732,0.3981474736294538,3.2862409224379867,-3.9553999488810767,5.955535699718872,-5.275399603696753,-2.5201192084195383,0.2916870235833556,4.776676379969355,-3.1173813407859416,-2.4771771888248404,3.6740191962644806
58221,,-4.514727524104908,-1.1798630436583162,-3.018493889851573,4.382427655391621,2.918420784966939,-3.435110176867888,2.8204526974666595,-3.4984294660274555,-1.9337044923628453,2.596178017482562,2.109526512220461,-3.3460403386223945,-1.713614582003419,0.2669182831081899
58471,,-2.055731192290848,-2.465965122414592,1.0172868558812644,5.40200961959667,2.685971495515433,-2.77239029854367,-1.7499687024730743,-3.861985966436375,-1.2226101431794096,4.543490726953666,2.088371547778588,-2.789594775965038,-1.4482412054235658,4.902209705218527
58721,,-1.4818009099497025,-0.9268120382426076,-1.2409714400937617,1.8474978636219228,2.139782868513926,-3.698760237462724,-4.543772553070361,-4.4965157870983,-0.7751890043820884,2.849063091528569,1.6555858778724124,-4.44865438847276,-4.432945475536424,3.5293711572284767
58971,,-0.1656176171359601,-1.0326001374336502,-2.6115434567260696,2.8360875575768114,1.868581863808304,-8.062887018702504,-4.138515715889919,-2.595614633505602,-1.3718347081692963,1.9970038896940177,-1.3672163725385151,-4.118913613872387,-4.713904649842217,0.5632718812602776
59221,,1.1645648040339656,-4.702130863362068,-3.817997911141693,0.5539615370545876,0.8227185475476226,-2.3983154223394045,-3.381513713938855,-2.32596011561627,-5.166332303883151,1.8516686957359387,1.6765954837758223,-4.422513785354155,-0.7153460057576093,5.411835217030134
59471,,0.3894353466452211,-6.995713866977896,-3.2798735595792965,-0.4503748821276307,2.116208449490213,-2.570064823605181,-1.6100740027865943,-4.725200308439314,-7.068164264140937,-3.3243619771613138,1.9295081131750955,-8.28206293077302,-3.4744924050168517,4.67408146154787
59720,,0.5893560450568716,-7.346176746533706,-5.470786241135555,-1.6476865597969306,-0.0339053654997066,-3.1267433540405043,-2.8080974722019696,-4.864704104504286,-3.281595505049897,-0.3377931842008729,-4.912034204220493,-9.17124373939144,-3.525041319843104,-0.6707733494332728
59970,,-0.7984509988233093,-4.812427790067446,-7.523829949375309,0.0886006008859275,-0.8916837768155106,-5.41474217766228,-5.093261893540736,-3.190723567932021,0.912572246841704,1.3356160623449451,-6.367765991371455,-10.335558514811208,-3.3208336498925823,0.3330679684093552
60220,,-0.1172714389807318,-1.4819204551026246,-4.713672303125984,-2.1589063618185977,-3.963910031297464,-4.50737990989388,-3.3412034434731868,-1.0768098277640232,-0.4986069082818583,3.404646696816336,1.0377845326760535,-6.081921752223048,-3.3802166620780443,0.1516659507333437
60470,,-1.845797454230756,-2.017787759840484,-1.66468918817727,-3.092915504194404,-4.715305582139534,-2.753805920780938,-3.89058767363121,-2.161000943970804,-1.107253316112008,-0.4049681088914091,2.0108531079886345,-3.974755435617544,-0.503510324496806,-4.695573115872845
60720,,-3.5707549366120994,-4.384176437019168,-4.380024674120592,1.3520185758030645,-0.5081617260341388,-5.465040886903041,-1.8510018041388812,-3.495938341331008,-3.774540784249366,-7.845173401713835,-0.8422700701263607,-6.244856047246982,-2.232949826762278,-3.2870419560728763
60970,,-1.7438747179748249,0.1347400512292859,-7.538317818975546,7.002688051323139,0.0833926504105875,-8.994143160418544,-5.016863128478358,-1.883650109446675,-3.7663768893244094,-1.979460600921208,-3.7291645075572144,-6.453822351831311,-0.6886438382124332,1.4727417097854132
61220,,2.19150037809039,0.7764937072951477,-4.777183952645119,4.38635698584886,-0.5690394786899812,-7.372388631990569,-5.241628304274666,-1.027842592231306,-2.1473010427797083,-0.6824063312819705,1.866783034249624,-6.571296778900493,0.8635505982300977,6.119311889278927
61470,,-0.109140671036576,-1.07899037492,-3.13353380508945,1.2849581757206558,-2.008084364815526,-5.700902846843042,-1.8224858595036009,-2.0098509898851025,-2.324286523807866,-2.116967360294954,3.2622055435123887,-5.3779013600600525,-0.5065935987166689,4.535818164138092
61719,,-7.000920507257335,-3.428842999980042,-4.221592613313206,1.6249020137417869,-3.5445652668040344,-4.356711664130522,-1.7323177600412365,-3.050533525500509,-0.7132151176596808,-3.148303814905322,0.9722437406445196,-4.665343850603408,-3.601384775980657,-1.6210601956719348
61969,,-4.152286445237549,-3.76979507121309,-5.286246176161457,1.345496776640139,1.827831309593978,-3.386857649963488,-0.3481998054330376,-3.2811543148126128,1.0692014759986297,-2.0236785736542595,-0.8091854537047166,-2.2832912451881557,-3.044071619500196,-3.321341312106964
62219,,-1.8227636474318087,-1.7295896124493355,-4.864203779958228,3.029573304031665,2.42981088191938,0.4730740164212599,3.947611668010115,-4.072224775362715,1.3979525189256377,0.4959204305227144,2.8892936425392786,-2.566821924348131,-3.576426669933417,-4.015193764584337
62469,,0.4800867373459805,-2.427508766565777,-4.27833817626344,1.95261162527814,1.0017562091547636,-0.0143637424599243,5.547463032912988,-5.453341809746473,-0.2768574759047856,2.6377251842409954,-0.2351673519173651,-4.85524739059472,-2.8356833689513112,-3.433666512595728
62719,,2.0136878391288784,2.3547937271196355,-5.3001137386342165,-0.6632627997207564,4.789389210138909,-0.7234466094186491,9.25235317404662,-10.915521657311988,-4.867066835045329,3.5796049495571487,-3.4966960338485635,-6.853266379987768,-1.2732925846282062,-3.2262102790780456
62969,,-1.9203041785151196,3.8400228110968095,-5.988744369487086,-0.3245329935401521,3.159935790324409,-3.0931788091801677,6.233116611354569,-6.269727522882497,-0.486904971569701,4.786064586190989,-4.777383135414299,-4.90189915132751,-3.274000033891837,0.3988310960345965
63219,,0.9302238115595018,0.149395165485435,-8.407378227464566,1.3572989145362553,2.4096898033956986,-1.971774039260044,-3.6694331013849713,-3.351966056567,0.3387943394522787,1.9486233821770989,9.889471629249991,-2.97352369591686,-3.677622176481199,6.510399794344454
63469,,2.379895300430509,-1.168500408096944,-5.597955352484121,1.4017898663934794,-1.931876936939272,-3.7976398618231166,-5.865343587154035,-4.866260401151209,-0.5256369244770661,-0.1994613600812412,16.862045443748773,-4.411662932895143,-3.391640752129108,5.328858564782778
63718,,0.4991117966732553,-2.8322640505521197,-4.670566437129061,-3.065569270065108,-1.915029868592104,-4.989682215144565,-4.836602756840791,-3.699477988975671,-1.5081052986422316,1.2041304820004932,13.927436720196305,-4.344603164554867,-3.390984521447797,-1.0296569713551371
63968,,-4.486871812477809,-0.7683771622941553,-3.5794608884993955,-2.3002788781095944,1.646118464983153,-7.752580319051299,0.4569720062112282,-1.4349676479118203,-2.498535873484283,2.434427054960844,0.5989097323344281,-6.28056188036785,0.0246285071634325,-0.4253834226959349
64218,,-4.026408497608579,0.2046471922180081,-3.691578752718038,0.4152656754655923,1.960525696494224,-7.726395586897623,-2.2543303115050533,1.6728887105340005,-0.6848672896935333,2.4128896609584665,-2.4061978401542947,-7.058932943434492,0.2152957875815598,4.584040445662114
64468,,-3.580585169816737,-1.7058809045866496,-6.463405599052829,0.8763443819026464,1.7240964040333004,-8.994751808614076,-6.169469193350298,-2.4785916805554025,-2.958834314029476,1.320271744919551,-0.7338986013892685,-7.652075168879765,-0.4175336476677433,5.149118290153107
64718,,-1.230825696206703,-3.174096993366844,-7.347728258856505,-1.485774821383513,-0.542782048864102,-8.72444787021399,-7.559783474161619,-9.84731763860289,-2.474391048594552,0.3128716745663746,1.215836005362619,-8.823151556112824,-0.7103261097003334,5.32437329722795
64968,,0.7936350233305862,-1.0330442262107682,-3.8849825731944057,0.1991595450271599,-2.294785165679072,-3.525404958437888,-3.0843800052464494,-5.167955243574761,-0.8050446636024216,3.2417405333051024,1.8524385382677524,-5.55589365550431,-0.8935089668405525,4.8037657101103495
65218,,1.7851383767114313,2.511526207065657,-2.188210290999378,5.156853662482694,2.3203354834863794,-2.2243042476804846,-0.6061718772811334,-0.6052447142199218,1.633054597369269,3.3932639597551906,2.445958622776367,-3.3019991060968468,-1.184282775028981,4.175712198897525
65468,,2.1819289155788133,-0.0561327515547842,-5.549753543573512,5.553737541897586,4.322133353508623,-7.315972446218208,-5.311283546030971,-3.3544070294879487,-2.046914164137211,1.096496888114056,6.795436361858782,-4.61421153638848,-2.3320664863985625,2.4774226703331275
65717,,-3.2630979243652707,-0.8111006970830512,-10.9613999068661,4.232956976106412,4.111552904373784,-6.923720961583955,-3.5796420361072108,-4.764212370541583,-4.382458381101441,-1.866459814923944,1.2125687832937406,-10.744521554629182,-4.2749320115936005,0.1284246866721904
65967,,-4.097289757011434,-2.149289900135654,-7.726635561684253,0.7007986417437455,2.5860139987348547,-2.681299047147341,-1.9334426018176627,-7.471575698079269,-3.703820475389787,-0.2326432968481024,-3.8570548022441575,-11.37171485214726,-2.541345913845885,-0.1682835877596196
66217,,-2.685794735928751,-3.943234160758196,-5.197793946397811,1.586343250246299,1.2952988947149513,-2.339174786731215,-1.829120906618119,-8.315842819121162,-3.5111893940658194,1.2993548789981264,1.321178816171189,-10.107987006481965,-1.2526456031256417,2.764743334770908
66467,,-2.934871920648985,-0.3924358125609971,-5.160451784539962,4.901673883092743,2.6916713087862765,-4.1184673601403725,-4.305539706065471,-3.287268935984553,-3.216123473257909,2.924295966549657,2.908170095122879,-9.445191565471534,-3.666469329819044,2.2249913478794934
66717,,-0.7284027031955921,2.678594474554408,-7.210293649004007,0.5084988422403245,-0.0969568904849741,-0.8190824018430777,0.2093026381357052,-1.2553539569241008,-3.821612749113081,1.005936130424298,4.666484080640155,-9.545342354823324,-2.392648878890703,1.2939648894162126
66967,,0.7021487481223012,0.8111796839053982,-6.643656994857265,-3.580124530959272,-1.62693653930287,-1.034634263541001,0.5703844968492308,-3.0643175855511213,-1.5426791700454536,-0.0823300686719356,3.1574226999669697,-7.259110182625589,0.6647628370606228,1.4950862244913643
67217,,-0.2134886261916577,-0.6315448124310308,-1.1853031250574193,0.9610613805929824,-2.2690518461342686,-5.787315531668456,-1.7491739019445454,-5.243301023568958,-1.004676526218093,2.630150514546207,4.318224664603431,-5.8601181919989145,-0.6497327627987327,3.978507905389102
67467,,-2.2124038665431742,-0.4867647791749593,-0.645077579897503,3.9069550638102553,-1.8742224824861455,-8.87865690219688,-5.697507364358863,-6.382548822273392,-3.48138016099359,-0.5723187991575777,7.694067512902061,-7.69992153430231,-2.082687097943868,3.5374421858919747
67716,,-2.242527638751461,0.3822400923477141,-7.438795909744787,3.601976747514275,-0.8690949508459935,-6.868663266933124,-8.008626797556724,-3.4836948631257214,-4.024264904014049,0.6156993345723099,3.3717241915158884,-5.36373295027916,-2.178450885945153,3.5512579194840206
67966,,-4.880293912285215,2.7959783640121394,-5.908584379136789,3.7918534071965566,-4.555249765745462,-8.180189160072084,-7.739237913522372,-5.082482851893593,-2.525439330390022,3.361576566575668,-0.9140715369835136,-4.992575657453127,-2.51852272600823,2.171569529209712
68216,,-4.995164341739216,4.565114394903409,-7.073684353499945,5.79283940295142,-0.1629850385200701,-5.77235043145302,-6.481295235254811,-4.225852731379924,0.1750607701553212,2.966658700213065,1.3707114224754833,-5.3727454525349945,-1.56265296003393,4.377274392353113
68466,,0.3127204240203438,1.1245986183697552,-6.671966988680744,2.6713405054779464,-1.2206515525230357,-2.8355349489883808,-7.110324613721001,-6.702786806759731,-2.68678525801764,-1.4254550087231004,3.125713960011105,-5.454987951741234,-0.7928886503212216,6.88255342516659
68716,,2.540342147805348,0.4402538136379588,-5.513366336203884,1.326148092578465,1.8936969361551783,-2.80612867688765,-3.700985853688469,-4.578232143160841,-0.937864049092152,-4.52371093280164,-1.382100514500856,-3.7739677417953943,-1.4565349466314794,4.662426903684812
68966,,2.4366504890453062,-2.308161164730516,0.0625279432601471,0.3765843848538036,0.4361905638357098,-3.9799000551552943,-3.161687781089602,-6.367332054050207,-2.174542005459375,1.920933178044752,-3.020935644741774,-3.773861568475543,-0.8423645675416142,4.123335320332689
69216,,1.1749526175233909,-2.1930323806241527,-0.2017141154594863,0.8931268275836222,-1.4300192897748358,-3.707370275128147,-5.00256914957032,-2.3194409489471277,0.9391037789212696,4.6366426870449216,1.6722569999343062,-3.3270960158866645,0.7485351702546121,4.234750598639855
69466,,-3.392023418463767,-4.068493690160372,-5.3158316290690095,1.2854059235796096,1.9189403903870512,-3.754375379046356,-6.097619705058117,-2.0319894247472567,2.021724621845636,3.5156912720109568,2.983373919080844,-9.037450242144653,0.6978380667180819,4.664644724999382
69715,,-1.059465174015869,-6.86186432487927,-10.266770830624196,0.9834427329208496,2.493697841439036,-3.1290126018129536,-1.8163758737630704,-1.5484692357640537,-0.5526294412087404,1.6972836945476355,-0.6783366741139872,-12.6728538299024,-2.070624675014123,4.012286977397126
69965,,-0.501377355734318,-4.397573820461939,-8.640429152205176,3.587668934881209,0.3041772394722499,-3.914963825566335,0.1921059063516576,-0.4739473925392835,0.5464911268950405,-0.8525931575398058,-1.6383554080825986,-6.412143698815677,-5.191889228619775,1.3723388343122045
70215,,-3.048383536983692,-1.454247602706022,-9.737630939382916,2.261797045378268,-1.5004116747714442,-8.194396238584721,-2.8890382538490726,0.0558032334942411,0.2485957950988202,0.5098641733554399,-2.1506506581232228,-6.101881155821144,-5.980976677543008,1.007370903778316
70465,,0.6228295234613965,-2.468474564631391,-9.476534080185305,1.8553038423031765,0.4696015144594109,-10.790897835547558,-7.334455729860397,-1.6077444621679635,-0.6756449161456177,1.818701935785722,0.4285425381199106,-8.696298534275059,-1.6249801123911536,0.9606323507261364
70715,,-0.7409969979457265,-1.4661743757501893,-5.651155627398538,1.893139198786018,1.0861151698949747,-6.930935154006552,-8.15707381855791,1.6582703604869662,-2.064417546253876,1.338923505537862,0.8305971533167822,-6.0729885308782805,-0.6401401272129514,-2.652490483226945
70965,,-3.768040179882078,-4.393342115469378,-3.999416166849804,-0.8551674037082142,0.3792226175568393,-6.687224787006379,2.719063591652122,-1.6204336999869282,-3.828624169555455,-0.0439558288633408,-3.4888583889785223,-7.220660983538133,-1.6810422817049742,-6.3268042284902
71215,,-3.5912293412949543,-1.803163670834075,-1.53551976200009,0.7376345754431921,-1.0680256007508844,-1.7469110620075017,5.80578552359598,-3.117642873389016,-3.3335042177030805,1.0221069092074,-3.439213993238787,-2.9831893295141283,-1.764516621704664,-7.060409333663495
71465,,-6.996202800017,-0.5696003721129429,-0.0606210923238617,-0.3974570718915423,-0.9832279872915796,-1.9247116026903384,3.0785026963976247,-1.6132788736859611,-0.8834106558940041,4.240632578266298,-1.7184124101965603,-2.6260362655761336,-0.6475407716313707,-5.637413426861599
71714,,-3.5609007045807606,-3.9627207944558416,-3.4849840310591325,2.003898393223413,-3.153796455927911,-3.468597895361627,0.4666983443145001,-2.422080909202075,-3.6719327449978194,0.3494853285261432,-2.78672415735459,-7.875108648943402,-1.9610377821286709,-3.521116009517841
71964,,-1.9069605492552453,-5.126213639685293,-4.534147800038074,2.184751352627086,-2.2371986219735884,-8.611389721253333,-5.303761617266761,-6.338648312781572,-2.006653445050703,-8.92090945969338,-3.8601895038865752,-9.95715150369518,-2.69956147324889,-2.825712901192627
72214,,0.7090411888011579,-7.90940607291894,-7.533319939059742,0.899692623338077,1.383068675424643,-11.064788043602594,-7.468490421239911,-7.8419439227019,0.3665364871612672,-1.8592540007837608,-5.296613167525642,-9.141992537280665,-4.001347647840151,-1.3541045536892369
72464,,2.82525147758608,-0.4855771522033691,-6.897709535614633,1.1924665303156323,5.814617512140275,-7.638484011059312,-10.690365417992371,-4.233871351244096,1.0551747836551175,-1.2048260041499428,0.5044470402349616,-8.28949739590454,-4.28599092519209,1.6505772596128343
72714,,0.704450823467495,2.429729355898695,-5.6548187578659705,-1.2202910749864506,2.982258676826799,-4.582147069282939,-9.813651935203652,-8.117637084516378,-2.578368205076475,-0.5641578639899929,1.3183963489551176,-9.00274926443165,-3.092690087735177,-0.9377541160237426
72964,,-3.4192618799379297,-0.2217565563197532,-6.710737362892301,0.600682946068377,1.6069329578682787,-3.634470681374218,-2.429948187029988,-6.285921037672093,-2.882448582082944,0.3708903586412856,-2.564656408059036,-7.473882305144698,-4.451900876476545,-1.2141289798591592
73214,,-2.3116931075016787,0.7134279206948124,-7.139697820993627,-0.4602568474959982,2.764844232919304,-6.014273767909072,0.4009616044049662,-3.1054442174628303,0.2310690938446425,0.9834250804342974,2.274630821389722,-10.084812145083577,-1.3634196200819355,3.743030694021924
73464,,-0.6449781378563963,2.198916785754435,-5.587892537678743,2.1757668482439034,1.7007345036611916,-8.775514804436733,-2.7649026789908087,-5.749639365454896,-3.471989450590891,2.2314988833264344,1.8674475623934492,-9.255033200175871,-2.316062413526517,1.2065441816729985
73713,,-1.1773694175008949,-1.0092008711202611,-5.6970674966214325,3.01091964819459,-1.070890483949741,-4.83080843892186,-8.712263680649926,-6.982950223943787,-9.934161782491527,-0.1259968246323907,-2.5343888471475218,-10.519346135742987,-4.01843790784045,0.0413220694413153
73963,,-0.1739450247930701,-3.571474059254301,-6.0516220548256525,4.797670780831743,2.458776128754978,-4.888647888301637,-1.497159520602276,-8.603362943802033,-5.350734711873017,-4.580928395736013,-3.0049877285870967,-5.034725619476057,-5.511454322837287,2.4366660382184966
74213,,2.322915152895146,-1.8644876202892573,-6.805173523939237,10.056589153924303,3.0466535890523216,-3.70567701908074,1.4358489760585114,-8.43125705068519,-1.4534982864279298,1.6046085794479183,-0.1461592403685103,-3.280254012019872,-0.3758950190303022,3.9505842126622897
74463,,-1.097203639336927,0.9051461853815688,-8.261335701711921,13.411073604607177,-0.2882082682027021,-1.4709808533058446,1.3733302674071848,-7.624357755668349,-3.4896771388878767,4.8255097707409975,3.4538266630157155,-2.2551697449826555,0.6195471348675907,4.352810022712878
74713,,0.3451991300089164,-1.6388423681000674,-5.59657103385394,9.794878397037364,-1.7240739268584893,-2.4942539078124937,0.8874330466867033,-5.847942765582738,-5.050688342788128,1.6031539379950923,2.979910352401393,-2.9283294779402813,-0.3880066977861307,4.331328630688331
74963,,0.0097494078822267,-4.237681489729151,-3.2978697837484017,7.734703374102651,2.1614790894453377,-3.996396851260599,-3.772155062222064,-7.581190215964268,-4.472588567904305,-3.584524318393663,-0.6301690696761177,-6.577489140904568,0.357817081354736,3.340679793627721
75213,,-1.1975090454614916,-6.185386749131077,-3.482023863891184,8.302442808051042,1.5790504920620785,-4.844540350110249,2.8821838186256747,-1.7714974996492503,0.6172481772270866,-1.3878389961646176,0.3212648597146936,-4.525945998341196,-2.890445657811423,4.575914230898769
75463,,-0.9328895256051822,-8.489698403722462,-5.223111900475596,2.7599176239499688,2.23128548407647,0.2182394133649301,4.142385197886532,-0.6246649421887669,0.1991965946864274,1.075582853129287,2.70415357397444,-0.3403270788221822,-2.923114997971743,4.4547566072600455
75713,,1.73589131817345,-0.9093263112629824,-5.339882119417227,1.9548777621390092,1.91466235291896,-0.6822184518781204,0.5229440106414811,-3.9645040004064023,-1.6437449548675267,-2.3547920287371094,4.616840295386261,-1.3638533272284543,-2.051852564445906,3.988152420063752
75962,,-0.616647906821328,0.0446724713070204,-7.885482091987987,3.521204517676013,-0.4822225594879573,-5.645503224867246,-2.5553835926242874,-4.387387227133074,-2.236143198165398,1.8454882080116783,4.743754031080859,-2.8311158398871488,-1.7081598391373616,3.888235051157212
76212,,1.2162564134949458,-3.402845172641742,-6.069828229428522,5.957470547641332,3.5369267565962774,-10.799790568943894,-5.106517395478435,-4.6919390758255295,-1.4858030071863906,0.1026448004277871,0.8545945054904733,-4.296079641582283,-1.901838276082917,3.0380624379716767
76462,,3.2108809826781077,-1.1912384169696535,-4.970624842150357,6.618734431315697,1.7081575351921352,-5.348215522250045,-2.1480908970831942,-7.255123629367959,-1.3126708404823204,-6.348721997528857,-2.025598620695876,-8.448061539810983,-5.200850809182121,1.867894189303416
76712,,-1.4459431455028928,-1.5749333807556698,-6.142609535310952,5.332046548652764,-1.7339434594194123,-4.354519899239176,-6.647076459373925,-6.331830702071849,-4.166677261355719,-3.8631205560605792,-2.2467390249014647,-13.422719208678854,-2.943376671215154,5.02237723505217
76962,,-0.5968764060008798,1.2837103620801722,-4.578959084262168,2.48275590080872,1.2255320138702244,-4.585228486059662,-6.178483038657613,-3.041051017791538,-6.212531839843961,-2.0705488616732257,1.0459650912516365,-6.484536237455356,-2.7053783019097755,3.2713380536151355
77212,,-0.5665091788720551,0.0894073203603069,-5.370332074334167,2.167291878162221,1.0053279837624616,-5.672156325312168,-4.679913673754078,-4.735140275386835,-5.205639433177983,0.6706058017672365,-2.1722976077352243,-5.639613022385235,-2.765454916642764,0.4442131971027164
77462,,1.2718050385587616,-2.194597165329149,-4.0554046918874604,2.54737646268667,3.2643490381841103,-4.062152351850291,-6.833671706935722,-5.996463960317126,-2.979434530299472,1.8926208343783912,-1.7460039812025354,-6.64472603391426,-0.0212288045846619,-0.1124081817920118
77712,,1.791340518302043,-2.123971102978792,-7.399989477260838,3.4330238030631586,3.5992240147066856,-4.003127840328898,-5.131020086123559,-2.703159095449084,-3.3075695890444337,2.461328051918887,0.2201048293263399,-4.156285898151442,0.0639511125201825,-0.920013285506266
77961,,1.3482456160543927,-1.0043016692145372,-3.74005205050151,5.606844320273932,1.491718814367582,-1.261297777795626,-0.2304115946793677,-3.143619354607225,-0.774315404708797,3.8292022420276415,7.491986195094484,-4.198743657135615,-0.6599191180113411,0.9941359398128414
78211,,0.3907819519496697,-4.588916494137616,-1.9379409456727936,3.524411270709304,-0.0760035963577362,-4.766392965731697,0.6723946774359657,-3.83205256264866,1.4390679500838184,2.623342348901491,6.280519792043434,-7.252168197520056,-0.3553854731333741,-0.7377726383690679
78461,,-2.0521285300746173,-1.2372665580893083,-3.7169433145884456,2.143529227019323,-6.121776592819259,-6.764589886893742,0.0744089679356328,-7.585960544857421,2.1538908093006115,2.1326564211247594,2.059041932406461,-5.595087464624688,0.3999892424189101,1.094694119490467
78711,,0.6220630607007285,-0.0258916763238665,-3.421397783941824,0.2048888087101777,-1.203596458528844,-5.2923123593837325,-3.77763907408309,-2.825035965457885,1.408059493070738,2.4889680284743214,4.764865386588441,-2.910258933758698,-2.4213480534739995,5.1704695321174965
78961,,-0.23407785621839,0.7948466474200504,-3.6674929622871706,1.9305343219451507,1.811153770331283,-5.247992312757565,-0.8665843814147228,-0.3690999492627964,1.275240656177672,2.018118642837412,4.939875040622193,-3.96133188511579,-2.629635851562202,6.267927424099341
79211,,-3.001729175134833,-0.1928396968259545,-1.9268397349698287,4.668166729228912,1.8748341334737064,-4.758568444493252,-5.429549176852985,-0.942803672817596,-0.1324774284370684,2.9536203223670694,2.3167842567197745,-4.3712702467431805,-3.78833470330603,6.909648062236824
79461,,-0.1789471811475494,-1.7834302260784676,-5.781418273704127,3.33264874639521,1.623631254583731,-1.488067995289193,-8.645697513861332,-6.273590864911816,-3.010636752445361,3.808384481120133,1.2968776939641244,-1.90034207063116,-5.173295979705212,7.390288283308659
79711,,0.6370194167468783,-2.035661698854641,-6.861136834110568,0.7336996347397924,1.727449898518727,-2.594281193435464,-8.76697215401675,-7.618680407565729,-4.926637436234041,0.1123937276389098,4.023657112481463,-0.6862200648469808,-3.154205309795623,4.454501585190376
79960,,-0.0889151082724473,-4.069251984052244,-5.877796573696888,0.6113670969386958,-0.3440343721416448,-4.821586055102353,-1.547720195007412,-2.882520572326017,-1.3670072801790103,-0.1452988537778321,4.235272687360681,-0.8168840319439621,-0.6167996238560454,-3.6854518653948354
80210,,1.0733951692568184,-3.5867659855978777,-1.4635625678996522,-0.9467421402542966,1.3717336189630658,-6.962605275895956,2.994639972061379,-3.530726628890874,-0.8457819605229029,3.245470422354755,1.3850038595990322,-3.1689615137780924,-0.2218453721775375,-2.832262257657419
80460,,-0.6422617542446679,3.0511058323199656,-3.4912770924664764,4.524078182214744,3.417392841487218,-5.291491588000596,-1.7123805800771188,-3.026996630602592,-1.6807565074317152,4.030580552217618,8.005921889769478,-3.1924073980013965,2.587308948469526,2.329800835209542
80710,,1.1237815043043664,2.613059382739107,-4.6924439104567295,4.1440985169327496,1.5917583255515195,-0.452961556112088,-3.654189987611188,-1.2188055389685055,-4.298563322951972,4.441745584937321,7.277489475875679,-5.3882546287775686,0.6267237121531017,5.417799164360493
80960,,2.7603516781824315,2.535935552688997,-6.1231503417990405,1.97171792021158,0.3354916293192417,-1.5586591617477614,-3.912236157734978,-2.4413869936242385,-0.3448207467743581,5.093150858388544,3.96833623068524,-3.138206383217042,-2.6874342541463605,2.6649802254132204
81210,,2.7324783694227257,1.542626117070488,-7.703490715038759,4.123950223115098,-1.6765412467351934,-1.5926835955082437,5.2280649313520655,-2.000416537081968,1.2248882315569147,4.73083290747517,1.6972952386869111,-5.309992777826505,-3.611175480834174,2.950294367083668
81460,,1.221391585523956,-4.366959371893062,-5.634132580179564,4.231072250891195,-1.2144558897734323,-1.9412379815295844,6.008332628825015,-0.49045270960071,2.590166727600542,2.141285612966048,0.2386476200180211,-6.002080526404654,0.1983720758353089,5.426338393951661
81710,,-1.508035185916249,-8.644496138806177,-5.098851509421751,-0.7200373054529843,-1.3239870646006913,-4.544805186060687,-4.935104551771378,-4.098369043034787,-1.5997022402014658,1.940208610398488,-2.8017273169309327,-11.361906480569472,1.24362958445743,0.830582664218007
81959,,-2.306268164842324,-1.8531500999726984,-5.222482214068604,0.8560796993428763,0.1824847773749857,-5.7308234286623385,-4.471348405311303,-5.756966259260508,-3.852113436047409,3.328150374316807,0.0475467239783001,-6.883075267999686,-1.50042888064554,1.7877061576860904
82209,,0.4946474410872679,-0.4566326088014949,-3.927887106744291,-0.1961292697528701,0.8362598492872433,-5.58345118413509,-1.862824596005156,-9.1056111534201,-5.2462889881787325,0.8624211534042789,0.6648197155132346,-5.3424275314963925,0.3148162560300513,2.2676476614863503
82459,,0.678233144763999,-2.6207692606782085,-4.654207265858404,-0.0837992808530787,0.7815402806052916,-3.4624444650161386,-5.558279641760072,-8.302814125168334,-4.249856393313671,-2.8230000469758725,-0.0792627678415174,-5.603814996260912,1.4639012195606744,3.968869278013929
82709,,1.5653382247588468,-3.0253343522956344,-4.134503870585921,-0.475979747904149,-0.2992238735736501,-3.4786555582468037,-6.2238794993800255,-4.301815776143625,1.4926462442083928,-3.214265723777144,0.0888248627194777,-4.239515188625605,-1.1292043248196384,2.372566630019596
82959,,-0.9922991664758072,-5.503925693044149,0.6889947828512689,-0.7669583212146729,2.088916030628577,-4.093057048028403,-4.852298995531441,-2.5088922953876835,1.294932995523943,-2.2192551427245064,1.274461995134052,-4.781355771838561,-1.785953642568617,3.0284814918872645
83209,,-0.0563593383917771,-0.8609969554551451,1.8953528563056627,-1.057663524974965,3.3427187016669646,-5.506412757049816,-7.469721920490965,-3.1170289592617277,0.509498129510443,-0.4672251496685862,1.901236470808485,-7.517891885303247,-4.032368062426267,7.032652871268384
83459,,2.779432236194221,0.6342475312327066,-1.6106199899209372,-0.8077405759382692,1.5212644796032055,-3.8931425811385534,-8.53118170967977,-6.113706776135178,-4.736953334171368,4.170976360434525,3.842619629157269,-10.191881830031653,-4.429126316339617,5.140269999725962
83709,,2.975332493233661,-3.1091734721193727,-3.0514456778783967,0.3964693699788088,1.653723715919262,-3.508279607638717,-6.918075811096555,-6.736621755654056,-5.869941348136635,4.3545480300582735,2.8603962064205724,-8.029850884822258,-3.9503753151086807,1.9673621576474123
83958,,2.911431776743923,-4.083610959592058,-7.723417964935518,2.1460333320509983,1.2303740530670784,-2.3528102079981656,-4.857401044611579,-6.433305046703057,-5.569510373314763,1.4140066137387306,1.3570012201331536,-6.006684957310399,-4.384012018098472,3.2650419237846724
84208,,-0.6471673884457267,-0.6419054135763719,-6.425387574896985,3.3631161598484742,2.712681134778372,-6.048552098783135,-5.508630731292941,-6.2281133364105,-6.090001379159945,3.595293392358226,1.3913156715962849,-4.204592958291185,-3.4962007781021565,5.198908549694947
84458,,0.0046791698280281,3.2287424756554546,-5.97716799232399,1.5028635670795378,4.634974358621604,-7.045436408410627,-7.611125219647005,-4.276206556576844,-3.3288822297277387,3.3754786670372647,-0.3774248777233394,-6.264802280584332,-1.645967387605648,7.278905704367009
84708,,-4.013497802338936,-0.9328333178982708,-6.115092394076336,-1.2969777632707893,5.052484308620376,-5.685446402259597,-9.50656294782149,-6.9721147005250845,-2.9804170834734016,-2.587727959737821,2.582358135494068,-2.503687570466038,-2.4831134668082213,3.474512829527106
84958,,-4.795073571544657,-3.911379164458761,-2.952111783904284,-1.5262973432319635,3.772745944226312,-6.054115644863235,-6.596662638266969,-9.973864640401962,-0.5037953127473267,-3.937175212677305,4.199813869054834,-2.3245530366940925,-3.041673552690338,4.2401993958653295
85208,,-4.617776544256753,-6.009455502141563,-3.4946101402933687,0.8374989524287025,0.1177996456559197,-6.581756711030492,-8.325672270527365,-10.083998223161643,1.889528318393251,-0.2202280829189642,-1.0983387530527875,-4.784662119535983,-4.5401872245547885,4.046171515685006
85458,,-3.308350999694868,-5.763986912974927,-5.225980221574185,4.93865525843739,1.5528312856914337,-6.196606941097951,-7.757660067564457,-8.483346130200076,-3.4135892900102585,-0.2313849894301185,-2.0591239339478777,-5.149640142826205,-4.683071259247406,3.43919638456581
85708,D,-5.777454585522282,-3.529772385103512,-6.746271605062677,2.9282249151121187,-0.5100319088834707,-8.205430072897752,-8.49601956472372,-5.43006070345689,-1.4519648009222306,1.1216077355352665,1.1751036898588372,-3.6561976889632897,0.3074473621169309,0.4655185954362742
85957,,-6.28103627525861,-2.613925460822903,-6.888003651267415,-2.1824131494087915,-1.4174920178154695,-6.422772203323337,-5.714087628309697,-6.265177099005186,2.4006824374850395,-1.7017133898123262,4.012071265084986,-2.0581916666430526,0.6204512390849226,-0.9960438964594988
86207,,-3.4569195900682126,-1.768126847293814,-4.846385401460967,1.0438291882910329,-0.9709556557741108,-3.625662415537559,-3.594896604632664,-4.220267244966989,6.463654381709363,-2.7387744834462286,3.14170088243456,-1.7460501931236594,-0.3719993782145288,-1.479768127531396
86457,,-6.817981669037543,-4.149128659219471,-4.522871668158402,-0.7411212755687351,-1.473643053158853,-5.345276757686023,-3.957471100193732,-5.127537421727704,2.4537798123764394,-1.356001760852563,0.0050973641920698,-5.2736509826992615,-3.1749853112274264,-4.177491339754848
86707,,-6.581551964313163,-3.5537964697578355,-3.8778980376516343,-3.1011944885185363,-3.3799211603017207,-3.866445912563524,-4.172290837986,-4.750744705534777,-0.3327014162084362,-2.2828150124727484,-2.225968593434025,-6.661356649032292,-2.331236152892904,-2.368169102361991
86957,,-0.7120925050211169,0.9790819604368504,-5.034864314888701,-0.3943767092624448,-2.732349800421561,-2.1993608232284645,-2.472693363987337,-0.2833995518697264,1.9926935655733289,-2.6418446344843654,-1.47802600314341,-5.094348851735813,-1.5939184111316878,3.219335219033544
87207,,0.6862975010867651,1.557856026269612,-7.702248791210215,-1.3477361190219816,0.0934577173241752,-2.471677808183788,1.4382954777359382,-2.7476712769948457,-1.692695373956305,-2.620313311602532,-0.1431111353436273,-5.947678868162879,-3.730761377672722,6.157015399506288
87457,,-2.582378145308186,0.1164892434162738,-10.435358576078702,-4.3346227500514285,0.6395828042734673,-5.626884043787939,0.4741439793454267,-9.848607279704112,-4.349322854078618,-7.697286491198973,0.0249549959313583,-8.28526618373478,-7.01912913279142,6.696774276373036
87707,,-1.7308333245237273,-0.0366377371193971,-7.353228357427557,-4.286282495109183,-0.2120080652561887,-5.617199130348773,-4.550496377420114,-6.294158547027808,-5.357164502831524,-1.2710414402463543,5.640495057483188,-6.101715004719564,-2.009024321533356,5.199593038289346
87956,,-0.6625604564677416,-1.7792529896970328,-4.445749256292699,-2.180955830054492,1.7024024953275254,-4.198021824301311,-4.606962809867205,-5.178837827590604,-3.303532744884168,1.3535336170918033,8.436754052018102,-2.43478219401358,1.9439515440793853,7.605950412931966
88206,,-1.4833345644450626,-0.3086191979093713,-3.5352219684565576,-0.2465568603829617,-0.4673450190170852,-5.0226601206772,-5.378936934102024,-4.098570810830694,-0.9412816360770068,2.316964832603896,2.2512516559790603,-2.833951190035326,-0.245516244449468,6.770211944915891
88456,,-3.063020923025093,0.6694257676322458,-3.8423476957104334,1.6465808501209498,-2.9162709482274574,-5.661103129481543,-3.204668707253095,-5.512381502902015,-2.680431009858788,1.2473324193955864,-0.3055512015880618,-3.8994018985006247,-1.7365870227274984,-1.518499027721742
88706,,0.0885093172699664,0.154648729080577,-3.5436594793735035,-0.4920031908163638,-2.2243319945835256,-7.626909626938627,-3.756071753719353,-4.66790466307324,-2.420099021411734,-1.282362236752946,-0.1199297624519157,-5.41652385578845,-2.157654988821572,0.3000997599045888
88956,,-0.3343023564872406,-3.0304989472646167,-2.0998681317163626,1.4013315066364402,-2.323232215717752,-7.426792149075352,-2.8948788683928948,-6.522473203214196,-2.0320297687876208,0.3993465307469345,-0.1281619020606552,-2.994839015956116,-1.4297112239759646,-1.0075190895786554
89206,,-5.120618518504656,-1.9659681285564297,-6.095364302626656,1.68520178797307,-0.2120867751156134,-3.5599015195386685,1.199686746487345,-4.681782374466948,-1.4155675492203303,-0.2501601693373355,1.5460006272858484,-0.7482063868106875,-2.331822238781006,-0.2883228773633443
89456,,-4.529356536798266,2.1114904437456627,-5.752959973783267,0.7876534937889719,2.134016102580325,-4.5149522713494905,-1.7297075060843048,-2.36546878649322,0.7747573368162084,1.653487990181062,2.843995312350804,-1.6521454481409297,-0.3870296147095278,2.977552643464197
89706,,-0.6826382101410304,0.7464937852645988,-3.396932400448758,0.978570400440022,3.2374005501941627,-5.10571344159998,-2.964598101118267,-1.3323193772797413,0.9695011855969216,2.386861022185544,1.245354364558761,-0.878752783844641,-1.009249349104984,4.883596452205922
89955,,2.171329136453715,-0.3847058328386405,-6.609692886981177,0.4803385113025739,-0.2939832763499651,-3.372878778717148,-1.0680428338073038,-1.85512088742782,0.0719199204806205,-1.7913646213875776,-4.105665950432389,-2.8910220048189643,-5.071884684053643,1.2467848356485776
90205,,0.6093510008223084,-1.3324094867170198,-9.532101547099913,2.444987524909441,1.7552169541142582,-2.865345130433794,0.055660934399184,-5.212563091128837,-1.6688091639558744,-0.458969903584157,-3.107463725752297,-6.999388875542737,-5.230516378567936,-1.865794459273324
90455,,-1.9242586487573357,-3.1978740070549607,-6.8453435736459545,3.5482031882192437,-0.2874093295928654,-1.06329455946743,-1.981876653024595,-5.895598675923061,-3.936240966780436,-0.5039270899684979,0.5624083402944458,-8.978670175880307,-5.210041430789467,-3.4857448260997304
90705,,-0.2255230879972699,-1.005876959085059,-5.241895917642731,2.944979166975324,1.6999229744924202,-3.0007320366374084,-4.968475356999367,-4.862535883616356,-6.327307100627913,1.0752904711966809,1.868203028182411,-11.636409938749075,-5.384621133668892,-4.308714390959091
90955,,3.540824312183708,-2.391949103570976,-4.676145429804893,-2.388212194481383,1.5252435720682076,-5.449107744017656,-3.4905924188740416,-6.814292226325362,-9.495494873316709,0.214603452356033,1.091627792054665,-7.474453185825141,-6.582247578696948,-1.841073491418575
91205,,-0.0261275095055939,-3.561150619211653,-8.431605227708939,-3.438290267139997,-3.622284504931965,-6.633723424128021,-5.083497269162704,-8.082915077485374,-6.243772269594529,-1.585750457958278,5.007595053843388,-7.5102907722823,-2.823374494067381,-1.0157655534979335
91455,,-4.365038359352884,-3.7931720497311607,-10.053517079891453,-0.1003473260223783,-1.8713120648607016,-5.461310011696726,-5.165948416273895,-6.637193170208768,-1.8009731912786346,1.9708133247199973,6.380972493378647,-7.218630628445264,-0.6322928876387892,-3.172304731519799
91705,,-5.540335627950908,-3.4174476445194717,-4.399863821901041,1.7816588928456878,-1.8925565108116944,-5.983914310389663,-3.0215479755300483,-4.333942344153575,-3.730156720541494,3.767674528044856,-0.1451426812401011,-6.820305585915741,-0.1133277487425995,-4.111311971666626
91954,,-3.616035132180104,-4.402072241779705,-2.3522244922363544,3.8541318049258506,-2.98456306955876,-5.292010036970616,-2.122471082180189,-4.998889099890694,-7.774226137350714,2.372217771991428,-2.4828495864684563,-4.987130560937257,-0.6367849446798421,-1.0414699204277396
92204,,-0.0187261623529538,-1.2383053309464491,-7.379847504255988,5.939169639330494,-3.124366327656267,-5.482297729368545,-0.8963410899564122,-3.913085185013183,-6.99676952813422,1.984074238102392,0.8924953833085574,-7.099666311751932,2.3067688888307405,1.3306877706256617
92454,,2.2990006955931013,-0.1522606008856875,-12.489458357289491,2.350974419575465,-1.4002675055914138,-1.4045576543832048,-0.6916060307299272,-2.192479505217102,-3.601838604508923,0.228979630047387,3.5576566356516324,-5.573018587790868,4.206698521571695,4.660599871418268
92704,,2.3864379699898657,0.5224031896244486,-6.624242871655255,0.6262429692914172,1.8455501135555343,-0.4950258985605926,-0.8986174041136585,-2.8534085801361857,-4.099334782632564,2.493309092017173,1.5420717014266931,-1.6129885121170613,4.085270706133393,7.363780194440492
92954,,-0.6798430894886031,1.87927603483626,-4.667471154729499,1.5614875218594138,3.597283209193036,-4.350187283824125,-3.708687627919108,-3.01733568171564,-1.1041541204902503,-0.5762033529844445,2.99344856286299,-1.0023974910783482,1.033428658992117,5.514277285262436
93204,,-3.6105337053168753,2.312500976998542,-7.696429471021569,4.000333175363132,-0.6405425408115922,-2.4404542438299663,-1.9589941061856435,-3.226074902381792,-1.0425531483272827,0.2810587254134127,1.1810650778478209,-4.245634525578848,-5.171254190779542,3.768882798762842
93454,,-2.8202296318129023,1.9063666240627632,-5.731122967189929,2.5724726028710734,0.2505384881347416,-2.930611234168507,-2.7008298565192943,-3.687387429284819,-3.049892217131367,3.0656548377339106,3.8613255066831114,-3.914665199088963,-3.795693457612386,5.688769636123375
93704,,-2.9122762340817325,1.41129015568089,-7.047257391378029,-0.0583387557175154,4.997609282741699,-6.233450504654556,-4.948376388372077,-3.754945472156877,-3.022340442328822,0.0639441521271737,7.192155336743584,-6.346521994990038,1.346493096639776,4.488079737989114
93953,,-0.5155926273199455,2.686617058000442,-13.050100755987003,-1.4655048977466638,2.917813172148434,-5.709922275016367,-5.870433817144757,-6.087890827489797,-3.027608876830556,1.3283172318909229,7.01658750895779,-5.020856246768069,2.350056088020776,-2.994579775110613
94203,,-0.7538882589667699,-1.0606299343070027,-9.838746625979702,-2.6923552519992286,-1.5205358937284366,-9.535464195592404,-11.117886644125075,-7.203797110627201,-4.991052596422117,0.2227051346884858,8.073869487326725,-6.346142262491181,0.5730071468208814,-11.03531113992326
94453,,-0.2373158324664036,-1.921842759677265,-10.563208802063834,0.2086903763570662,-0.5723966013618749,-6.044302315999204,-7.150844453761235,-3.270505533205495,-5.549444662192819,-0.8623339132620861,6.847337437819855,-4.87729350348925,-0.5909756512420085,-6.063724599649919
94703,,0.4879326683058257,-1.1551739130203382,-9.979703647912553,1.778780044143481,-0.1453428937075588,-7.568742166970877,-6.835757685927519,-2.682416330327666,-11.254412542493435,0.157474571966351,4.8003212838934095,-3.374527178322817,-1.2603211236720502,-3.2296443192174
94953,,0.7946095452620969,-0.5093744082327842,-11.251258538386434,2.568191952359013,2.2986886244889115,-8.49975506067449,-9.76611739354276,-5.439072117146586,-10.58013984193212,-0.1063076029292046,0.5427762424913591,-4.105109356942583,-1.3497889338941422,-3.198830076580197
95203,,-0.4931021825962072,0.5972095022739337,-6.489438042366724,2.7736679153742827,2.905246571161938,-5.901195337633275,-6.18534210448248,-4.668480387306859,-12.002245649022376,-1.3734078328664892,2.2682488735353,-0.8863383938435518,-0.5867462186912746,-1.1160469666111688
95453,,-0.4664008666144792,1.9622537680926808,-3.5671341394349736,0.5183429886921511,-1.4343225656712355,-7.3653522201675266,2.4868723628643634,-4.633967183703238,-7.938101817790671,-0.1395745566945064,0.2977873137631207,-2.6719775523722946,-2.483398010836026,-2.3667079398900586
95703,,1.312522897153006,-1.3949478467980296,-4.6074464078376085,-0.2953987968201295,-8.29020915757293,-6.654124754685831,5.178771504486042,-4.942200370993075,-5.798912666721981,-0.3607080078200215,-0.164105688948822,-5.018493462579901,-4.174221635660934,-1.874847027532808
95952,,-0.3490008969835606,-3.526721437528729,-4.426649765033856,1.3749592981667518,-4.749394976847546,-3.106460544586555,2.904022111618011,-5.940971572827128,-6.436137368051763,0.5121342383169313,3.0382965686855954,-2.739414507336252,-2.804938671404248,0.5431186131514703
96202,,-3.0736814429625348,1.9039825516243007,-6.036118080356622,6.528506550136576,-3.2973789182678117,-3.698689458425463,1.9156428594327608,-2.3665278555540143,-3.3058492268533435,-1.3988104482130823,2.6921425509089603,-1.809069117295872,-3.7195615293938697,-1.3430813286520438
96452,,-0.7934340411452002,2.411197301236166,-8.285244759889295,4.8693383699592445,-4.639604727057163,-4.034599263926692,-4.718218703085642,-1.6296711167139812,-0.5831471510955366,1.450326093734922,-0.4409580780599517,-1.8922009015084864,-2.826188150257,-3.7399166858812913
96702,,2.1435504059180728,0.454202433496552,-10.68309008254827,1.2115406531205182,-0.8135291616154416,-2.616114254673493,-2.3610102401055437,-2.9715105844078,-0.4511099059210801,2.827689878954456,-1.5360054017781986,-4.381807920837597,2.0234502269485466,-4.0264143278725815
96952,,3.3044796653415034,-0.0264373542287487,-5.753179602765105,0.6036633454856939,-0.3366148967641559,-3.241851679899105,-0.6698436396311335,-2.690741198486136,-1.7136850905431176,0.8642765005165193,0.162910366992997,-8.592868420563528,0.6210172271176518,-7.592793040486809
97202,,-0.7850479505546741,-0.0813787964669667,-4.710492392187831,2.1699483340507246,-2.5262272343177328,-2.075358585466759,9.238364410607204,-1.9928367934896447,-3.6786217040214138,-0.9352612115973,2.452370258443077,-6.656167406995728,-3.101390321846252,-5.567242883710842
97452,,-1.8439534557137671,-0.3246979229653092,-5.1668821702077325,1.6818351470906856,1.371570376492649,-3.407469975616555,7.532973805529879,-1.3803182879521625,-4.700463793879875,-3.3472798022059647,2.686929471688181,-4.959684613565044,-3.815371180817231,-1.7367758840336456
97702,,-4.125652526620771,-1.5771278479062325,-4.156197735711264,-0.6976649925844092,-0.2324838241973251,-5.504123073639692,-1.4659406818654883,-5.947281291450251,-5.351552822070875,-4.6734925496446165,0.564287340860065,-3.512704457012506,-1.5252470659828172,0.7205732667739091
97951,,-3.3116992289647387,-0.7319353383509946,-6.671261925828091,-0.3714295462828837,-1.7620150630882558,-5.714513743805823,-2.55682890952428,-6.800721475709734,-4.857585764904725,-2.3466118206587847,-0.705293463527056,-0.4425214906339714,1.5577429656053663,2.2227720455274875
98201,,-1.8808975059776256,-2.238348938510545,-3.811190551601511,-0.4769305596895343,3.5119713178970824,-5.232769572697904,-3.0100879043037536,-3.752541522516327,-5.413503242559946,0.2625774728129568,1.989970236888855,-2.504456623196565,0.6383769221281449,-1.184843617585452
98451,,-2.594752337563416,-0.618673286718327,-0.2012979073206886,-0.2227008175016523,4.336230174289061,-2.589340647256927,-6.252930747654892,-6.129733111782578,-8.479262323656698,3.942740733921029,5.317039017731796,-6.148638180605916,1.091693331684498,-4.297989177759729
98701,,-3.0389521311682746,-2.773792015972693,-5.005953277757027,0.8014189741754861,3.940425917665483,-3.3865739345483004,-9.53043416661911,-7.609744118464805,-5.265320258757354,3.6802043438144256,3.7130089854309993,-6.570802587878335,-2.6379730786198734,-4.733293201795272
98951,,-2.681504936204359,-2.4120368625927706,-8.42175408617308,0.7742577707377046,0.3694742101898104,-3.879684691276748,-6.833665090912753,-7.725704139222468,-4.3522540529428415,2.639128482199685,-1.685529546435346,-7.965534575922238,-4.431185062643234,-1.884366959348511
99201,,-1.279970824096518,-3.203043399725663,-6.385275393967255,0.9136857972632032,-1.4192611208640515,-2.594346547775876,-3.423555779187613,-6.830658957273636,-5.188952309176079,1.2542081855093168,-2.536485240082636,-9.26267852518193,-1.451564190241599,-1.4835775153410566
99451,,-0.39718342196419,-2.9641868899196973,-4.457797051181549,0.1605425409126061,-0.2922814667461553,-2.45249005812703,-1.9259640580467137,-2.751013947698513,-2.2082953178914697,-0.6051346912317491,-0.8671280350934689,-4.216339350937383,0.3697246857703122,-2.0617503837521944
99701,,-0.2687465322077129,-2.231298711363716,-7.112441858048143,-0.6181495264035529,-0.6492822692738641,-4.2300541123858055,-1.126092387468839,6.538390784727131,0.5199021707478767,-1.0874551987697876,2.421634881615149,0.5105521046991189,-0.0785457558614305,3.582871487619113
99951,,-2.2907339888357745,1.1507180031809097,-5.552071092074762,-0.1562850560984602,-0.8983279139051374,-3.8871216031311584,3.017440074163012,8.910344154385204,-2.484862375949337,3.3981941566161598,3.0851533740521715,2.324249498701106,-2.037405694377598,5.206594565669787
100200,,-5.083316342577733,0.6577233579659623,-3.46129332113248,1.955810478472382,1.309902461306165,-5.883954078562212,0.8035854765421262,0.5583925721280281,-4.210334435704554,1.4892134634399508,2.4109579352453387,-3.1424040915556555,-2.356949493267526,-0.5012544389035102
100450,,-1.8185050155470937,-1.9780412879907576,-6.380185813482284,-0.7045265386128454,4.299452630208807,-6.10730885513513,-6.129921878208918,-4.863778198955268,-4.227373108253421,3.073739752200881,2.478527271676538,-5.941921349199295,-2.197425662218916,-0.1530431934360661
100700,,-1.7048101986800577,1.4130653712278176,-6.397380015264472,-2.8618947785867337,3.1286690290984587,-7.696116902551516,-7.814415619236341,-3.138432045863873,-2.204280299030636,3.418965870086756,4.690505033911288,-10.664982393128092,1.2231325583475263,2.703160633590695
100950,,-0.9161334914377118,4.0155224747727605,-1.806508498999531,1.7620939762192274,-0.5805724249925258,-7.386013285627666,-5.707134066922885,-1.3852521763718906,-3.699387871177005,4.557850559755271,5.051063293148193,-7.549129229953548,-0.8813482417836656,6.947721968866285
101200,,-0.0104179615828751,2.797914159117767,-2.310512996643415,4.409716146156563,1.6911245510671449,-0.3414465334112893,-1.7772769542774296,-0.683056214512905,-2.176118916921528,3.5430434177147974,5.649267589652971,-1.5373197710988171,2.049602529431154,8.302439091609196
101450,,-2.6489373870150064,0.2502983543551159,3.505057189423688,4.329492388179536,1.2437274213196698,-2.6300109927134323,-2.145381850922104,-4.34695957458492,-1.51898877058938,-0.1542050402191991,4.957202301114386,-1.8482758436016644,0.5852965928705273,3.6389102385497374
101700,,-5.028952308623474,0.3178067639953131,4.998712756780915,3.2341643608534785,-1.63085489250367,-5.971228686966965,0.7416118059526697,-6.178019504797171,-5.731240269215162,2.1414962031219127,2.984253633582132,-4.436686099968413,-2.5707063619815163,3.3958950818823066
101950,,-4.508071507267969,1.5994338741491163,2.8455391529454115,4.581480887528767,-1.5819509273855423,-5.074403947963686,-0.4706664686928135,-9.480613767321074,-9.409370359141242,1.475499220976809,2.325321326258329,-2.664107128195568,-0.1703659034692453,4.5296912615104095
102199,,0.5453650518633244,5.67763491281963,-3.231452320573556,1.9048155142944936,2.645629220557372,-7.463634974508548,-3.3132367074174973,-8.206263016524039,-5.7392845014552085,1.6683663074015294,-1.3566346515466845,-2.5864645793058028,-0.017880826237461,0.0470775429034255
102449,,-0.4494548357554682,4.025184514918372,-8.541369032044178,0.5790718386268501,3.348875881008355,-4.835670907264561,-4.255301831781708,-8.101469574584454,-7.166522616407769,0.0338261476834306,-2.6429293591613208,-4.383840074697394,-0.1332507834751322,-0.825463404939496
102699,,-0.5272122737711735,3.2991767541522106,-10.536020294068646,-1.3744528677509715,-1.344489141811103,-4.159293373536647,-3.3701332161115327,-1.2435021638310966,-0.1990042927972907,-5.990029463825584,0.998392344187917,-6.141580245311515,-0.1614269931786921,2.039361861433052
102949,,0.5262561421261458,1.931153941759992,-6.341666819545728,1.302654021919111,1.5511107027206663,-4.190167157214402,-3.202302161860665,-1.9305507199681349,-0.1583492326339357,-1.1119748470963633,2.725075174163411,-6.36336677066631,2.495314845246189,1.2269019971412438
103199,,-0.9842043402236582,-0.5324748454399341,-5.74390724368766,0.7757446581011154,2.306774217050714,-4.871812885238929,-5.039061726579249,-7.905133948968524,-5.361230247837715,0.3910651776332744,0.2300538714294611,-8.693001813614504,0.2984908484227414,-1.6527736148140038
103449,,-4.151264866573039,-3.738022728960322,-4.546887082383908,0.3008299660407997,2.2511272432120992,-5.182493623233655,-0.4432994435621579,-9.21322058541993,-6.643005548370561,1.2236459803715147,3.7640816267064574,-2.7253435707584392,-5.697699270665365,-0.3857739623694539
103699,,-0.3365009639047695,-3.604474785222196,-2.9073604114883507,-0.4507498524370256,-2.517973370772121,-4.455043902819381,7.188412881912688,-10.916991507654645,-4.431500464932662,3.33819743698226,1.55570810212778,-2.553275857464241,-11.918887554604709,0.5177320704179663
103949,,-1.885186251229668,-5.12259356505624,5.330132512219619,1.0754147964733276,-1.0093995983898565,-6.069523199195796,7.609553252750741,-7.711914680538379,-4.362512026274722,1.557186733845464,-4.044408624777286,-6.984776875654001,-6.786147074245632,6.963753389354874
104198,,-4.4521490321229855,-1.3850617045280371,5.529354038248511,2.6288567119212667,2.7163519135868053,-2.789293850478547,0.5928047215101712,-7.654793599720817,-5.55043304466349,2.668305929029553,-0.8841305784825668,-4.457866342653541,-2.068479465247332,8.829037049302519
104448,,0.3777269692895449,1.670748351809927,-3.151718226437797,1.6280794114164376,2.253864489888933,-3.3912835243500927,-3.9130248674647863,-7.8096376227016915,-3.6537157045569306,3.393154088504321,3.162556534531869,-2.09427903681913,0.5321943312874772,4.683874752271835
104698,,1.6544928297035368,1.2350860472807117,2.5148717130819325,-0.8930450550864767,1.1104720896202012,-3.952869237213089,-6.219154247918085,-8.341822775705861,-5.71469135425443,2.1347813617200613,4.291359671019115,0.2668881271439881,-0.4802353116549603,2.524055252548554
104948,,0.3066176151201994,-0.4611250536655685,7.455868777181837,-1.2829277153129564,0.3464953731802521,-8.717422123158338,-6.552616914662197,-7.702696043972253,-9.136523371007671,-1.2490914088978309,4.028012260824868,-5.958409432447656,-5.010642318020723,2.179188469703322
105198,,-1.4448471200933974,-2.07964772007228,5.766442624084586,-0.5232754142731371,-2.626842098604354,-7.858065581755849,-7.110313514672458,-6.857020496042532,-4.1361659562179485,-1.3658366719464643,2.437080899368322,-4.806083452293974,-4.910668239879064,-1.5625705928488558
105448,,-5.308690606971501,0.0498403513062357,-2.7284647161839795,-2.767417714484722,-2.610520656848732,-4.921861093288206,3.7725673469150847,-5.411691461972716,-5.247953188155839,-3.816956120667815,-0.7079842105434214,-3.9797732181223218,-0.9894726890368978,-5.741455744975923
105698,,-2.077304470124837,-0.8382763440415846,-7.193007895802737,1.099969949071079,-2.8434117527510865,-1.3374927926548437,6.54186402794223,-5.588508439529905,-9.091893777706048,-6.364950025061324,-1.5293407912403445,-6.251998478203302,-1.9286835523056316,-0.8828358670045867
105948,,-2.5210933578645345,-1.4185093106360385,-4.347480064112303,2.3246023646951457,-0.242175757752616,-3.851979461865545,-0.9135135620597148,-2.2452760551681323,-2.8434145022637987,2.0789632462347223,-2.612757425024786,-5.131753239566361,-0.6610776391402766,1.19416096258523
106197,,-1.6562313773929964,1.756304395902103,-2.4947577263442824,1.8099929684994451,1.5257694103917825,-2.612135420008215,-2.33865617010711,-3.9518083395978953,-2.444095565964809,6.5143849742065,-2.7254855422262114,-2.5728914580230566,1.8300141792915947,4.366136629218556
106447,,-1.9858284705391367,1.5223567840409478,-6.35044916334466,3.583474125494637,1.0184530574801405,-0.6643505365334459,1.610568335599159,-5.510076040178794,-0.9939143977155516,2.5916109706970616,2.680147339549545,-3.349742314789981,-1.0514864331053997,7.086864522278054
106697,,-4.435061307828999,1.9263485250389256,-9.608900512847306,3.94482905935118,-2.94694982551936,-3.5690206113533582,3.3049324749889064,-3.985462658030953,-1.2748266136477109,-5.570826163953062,3.5494588849202318,-3.3595805785686577,0.397768789563637,5.446268593920659
106947,,-4.049879787154818,-1.333266046994008,-9.904162800210038,0.8426250229652105,-3.877120742550344,-6.593426681761125,-2.201929773667577,-5.875386786312971,-3.34197652109578,-3.782336718762669,2.294725737749289,-6.18028546766166,0.8792205867684986,2.416042979040611
107197,,1.5281911071202712,-0.8625966830640548,-3.6663618596827368,0.1058788438432373,1.5837449902902514,-6.364946105520556,0.7856449774683733,-3.725448557699532,-2.228643670831871,1.94594453921034,1.841690555406195,-7.171050007406272,2.2499153540086185,7.483635704314862
107447,,-0.5484080230704631,1.9645146559247115,0.6373350178071628,-1.8286367846520972,0.7291134378162181,-2.928331509302451,3.601314359581101,-2.867157226192043,-2.9897228885041454,4.005221404118132,3.500064016857081,-6.210716546942194,0.2266814217840917,4.2181084061058165
107697,,-6.234644836003587,4.073812365992049,0.0322518783920688,-0.3986334376038319,-0.1240197399674073,-0.9188881309785848,0.8608034030961522,-2.234308275024456,-0.4398236089841564,3.679130426425448,6.727935493740713,-4.505735128149509,-0.0062607562738731,1.264154783992974
107947,,-5.23686437632427,1.4958291488760684,-3.8432395045943695,1.2969886626666964,-3.316262845056036,-4.0017499810847,-5.447318847037473,-3.129424077833793,-1.3147501679329698,0.7675566408488776,9.087701002646542,-3.782200375168647,0.4453103697623844,6.295958867975226
108196,,-2.632032678414798,-2.729187248303098,-3.255024945904995,4.129455255498932,0.1523359128835084,-6.119697311907915,-7.75612595765616,-3.966236373898494,-2.460818441295251,2.948262855540952,7.928674088757076,-3.657595184321536,2.9173191356366104,5.757700664637719
108446,,0.9371584474632144,-3.123553383523888,-1.7354899514576143,-0.9467635974623332,3.319431330777236,-3.7061513124138328,-9.099485967892326,-5.536651173839219,-3.59749862294999,3.213308814026119,0.0406860640642473,-4.811849576927928,0.4456620898363904,2.789108903377302
108696,,1.1639447102186935,0.0969462158516178,-3.912719050970306,-2.2439803654218995,3.5677630576730968,-3.9360870540598416,-9.777342308597431,-6.38943352484183,-3.351341280890588,0.4199370394339461,-1.520418817135016,-4.64507536341481,-2.236729747747269,3.1153926011644955
108946,,-0.8785835518677072,1.0608371424549894,0.1086916163217854,1.23246027817495,4.276578003658143,-9.279963015374229,-9.34286043103863,-9.20236609131278,-2.8549244507766964,0.5067915045574342,1.696849660747932,-5.888355377554348,1.2601110247209109,5.739473426330456
109196,,0.0866602904396823,-2.11224904385468,-0.2788699909581517,1.7748334097244207,2.100712606636665,-5.737393746179529,-2.876996512165221,-5.56736090003554,-2.0713336675808947,5.289483545453511,0.0661943808180766,-1.1233509950501324,-0.5607528449777082,5.833726770624433
