timecode,event,eeg.af3,eeg.f7,eeg.f3,eeg.fc5,eeg.t7,eeg.p7,eeg.o1,eeg.o2,eeg.p8,eeg.t8,eeg.fc6,eeg.f4,eeg.f8,eeg.af4
0,,-10.657585172888556,-13.127085779144648,-17.014665804606796,-9.71410364669931,-9.127128950373544,-11.244327503109838,-10.536395936940565,-12.241952140498755,-14.046223782846017,-12.382700677126266,-10.230932677586734,-17.00435394059805,-11.46214348865736,-10.985587907594914
250,,-10.442577436837457,-12.85450658080444,-20.83951540879122,-9.359695941074222,-12.439187375895225,-12.168834628745309,-13.63067790734858,-7.77122118944772,-14.46008714651346,-8.011630892876653,-7.145246270618583,-16.49489464433874,-13.396031708208158,-11.622693247488876
500,,-10.353520823796616,-9.850256934972968,-18.564886217403743,-10.245759064735442,-13.015779977509151,-15.476825477351948,-13.464257270751276,-12.393104414224664,-15.00929053498341,-10.004009545193778,-5.991766204694388,-16.412305233744036,-12.362202093246758,-11.460820799398745
750,,-12.652727819195118,-13.414130438579608,-16.85565569034281,-14.57424534360538,-12.345168115758272,-13.101467833081037,-8.271002536133834,-14.98366908821646,-13.129844298932532,-10.058637832556927,-10.30627914952542,-17.317214865011593,-9.486899250022718,-7.2725052655976
1000,,-12.517810730025536,-13.811639871325731,-18.02238205321497,-13.990609867168518,-10.404082156414107,-10.6216838221843,-3.702684392128156,-15.850076013418525,-13.910708999135585,-6.360176798187184,-10.326465648469622,-15.060846488889595,-7.985096298021206,-5.080311393340989
1249,,-12.539399790934311,-11.314118112237685,-16.516446126314545,-9.29129771099044,-9.374273070448352,-12.808922034518533,-7.469991148202593,-18.42643650706916,-14.302865215273345,-8.241798975300885,-11.841031799753958,-13.214676982785106,-10.84222537901996,-5.233840802730897
1499,,-12.3473692243317,-8.593763014570495,-15.044552005503034,-9.767670173052831,-9.988140984182746,-15.050470917599966,-16.173167016299733,-15.95635726902428,-14.136277828117516,-12.596300566945446,-8.169579096016333,-13.464272207927989,-6.318129411062202,-4.878282081668766
1749,,-15.657066263157088,-6.709625578743342,-14.070362753821176,-9.617031786401236,-9.608617852329314,-15.56549095056079,-16.557151142376384,-14.353390408075963,-15.745551609761073,-11.605143730392133,-8.957536622999116,-18.49481801239974,-5.595812145438419,-4.4559934680074855
1999,,-16.30429308503055,-7.733169233480435,-15.780556064884344,-8.986946558925705,-8.38222545481647,-16.775840465303915,-16.102043324918952,-16.233256416330505,-12.602349811086528,-11.456279751381617,-10.035501870671826,-16.671277525411064,-8.662513018600112,-7.696198025570261
2249,,-15.164276965253665,-6.803130860973944,-17.578209411467064,-7.987307086728546,-9.290992071775156,-15.771193122885308,-15.197417300218044,-15.915778036956295,-14.068729898788462,-9.412188627263236,-10.408581148055218,-14.030507098073125,-10.64172092856817,-8.909883555599883
2499,,-12.848850461879074,-9.240086618964853,-15.732196875146723,-7.2087691210279825,-11.985551390792269,-14.887932725572872,-16.939906820791567,-18.974578861304327,-17.994854469461437,-5.239321194945502,-12.602184656759256,-16.919528447339264,-12.635161105906308,-8.427184001828461
2749,,-13.40893863257639,-10.282001356939569,-17.448577070556695,-9.759902631464744,-9.561036970042943,-12.694854137554207,-16.142586275920426,-19.13989286015708,-16.73057823888356,-8.283767762111856,-11.481149638611113,-17.836420562542877,-10.205473270969092,-10.43547478637044
2999,,-12.230213870247086,-6.880303391082156,-15.186287987331443,-12.386471107636696,-6.330569746490594,-10.160555746868727,-13.54079446036309,-15.45490341401079,-15.890785400828744,-11.452289195083736,-8.683888604964347,-13.669069606084554,-10.266019593638426,-11.2074115736631
3248,,-13.114744408832692,-6.535160236134883,-14.803968149543971,-9.507718799563545,-8.829706305104308,-10.621255935677231,-14.003663102074285,-14.199082889723956,-14.207973225820623,-10.460022822589124,-5.635229302369145,-13.666087227532522,-11.738269872489376,-9.66039194101304
3498,,-15.99682965187613,-10.482408652332095,-17.415809649364526,-8.92235281542803,-13.30986921244268,-12.33333621654306,-14.586454017879436,-18.175033154111464,-14.962014386102805,-11.508852086114432,-7.513359286812139,-16.065658627768933,-8.926256996682548,-8.483850282296451
3748,,-13.232212583892869,-9.675975334884289,-15.316721598456358,-7.093410512481909,-11.08254696091726,-12.874990218670789,-14.442257186740433,-18.38468017236736,-14.409583167348991,-14.16517662561083,-8.230901715808113,-15.512861033985264,-7.193955696088614,-10.087544678169042
3998,,-11.512587353058542,-9.222148560825897,-15.778022280670651,-7.361388501950195,-9.201299947505603,-11.985628377930782,-16.227399682945517,-15.917674394954206,-13.73552309589745,-10.034592333886804,-8.11659871109918,-15.683476818702884,-9.740051963037654,-9.171247486185305
4248,,-12.945854060231134,-11.375149714750767,-15.58461106264501,-5.250413774459808,-10.52632823119238,-15.143089234134624,-16.082983011120568,-17.87892949109931,-13.43304092201696,-8.155174713091558,-9.131408821758903,-16.57851620268653,-10.05441580078941,-8.644205007030667
4498,,-12.763812998332618,-9.187614805344266,-16.390414035651705,-1.943889568367819,-13.249266683861634,-18.34865857625706,-15.148569338076886,-16.497702016832466,-14.93468702887797,-5.591379850785181,-9.145389985804522,-15.594511718993854,-7.105491197238631,-8.721354017265439
4748,,-15.726122454273623,-9.014190383405838,-18.56096646347861,-5.550867670791751,-8.501901488099117,-13.394027427567076,-16.150656988574823,-16.190146618141586,-13.582577667039995,-7.539775943160332,-7.566017060496174,-15.187632435942756,-10.507679386706798,-7.487426963791155
4998,,-15.428242463645578,-9.327592260436704,-15.652002108443924,-7.468240980445808,-5.879943551899043,-12.917995124422584,-16.3158961969793,-17.231566566866782,-12.528933633809505,-12.390129669875243,-7.006327646577527,-16.875502209173266,-11.346391017395396,-6.86006767036015
5247,,-13.157249677144824,-9.136849465525614,-15.27229765295827,-9.70346335626562,-9.187990314203011,-13.752143470916254,-16.01970349372395,-17.06332587069905,-12.109679920368796,-11.945457585614951,-8.557005607496345,-15.827924543697256,-11.721078901486887,-10.146485636949729
5497,,-8.825395496539096,-9.38576600984143,-17.553105995689645,-9.313915833066748,-10.283082625557755,-14.75841425852101,-13.829382381844802,-14.898176156029876,-10.055492942198008,-9.074648399654096,-9.003377467169138,-13.152020380297415,-14.516095711814334,-8.611564089911766
5747,,-11.192374062740232,-10.438596142148606,-18.119799243630368,-9.098476184569115,-8.279293953033319,-13.41454540812952,-13.476843300846364,-15.898571472736474,-11.942874044441956,-7.101910158573256,-6.191663347983382,-13.484584514503142,-13.39792950978492,-8.194172010938845
5997,,-17.93976552182974,-10.293625581007056,-15.500428377165337,-7.896929310033674,-7.904860039028949,-13.864336489095832,-10.427034414589762,-11.840591476683596,-11.778020996660224,-10.046717540872011,-9.565632078147,-15.905311421858784,-12.680261765120326,-6.08910619758436
6247,,-15.654662846722738,-7.31292262326405,-15.788571671360664,-7.964086941530332,-9.315133534376768,-16.61128043287404,-12.3336635687141,-10.38971343572765,-10.777419684640236,-12.673764205350334,-14.552921808260963,-17.83020175071228,-11.111454218290104,-5.2003809271857495
6497,,-13.33066846943838,-7.882814086507407,-14.397824472443894,-6.665972218495455,-11.79228101424852,-16.242728368657055,-10.00320449287682,-16.566640112209488,-12.555840185325389,-11.897180988994371,-11.78294998984784,-13.685387453048406,-9.211584451578968,-6.07457959638635
6747,,-12.86329518578848,-10.037413734115894,-13.81533120018654,-4.430790442087844,-7.6817366657983825,-15.31893087903743,-10.640576265512331,-13.459915022443028,-12.647041779619624,-8.54361759454867,-9.187450835630024,-13.057770104983671,-8.723345601916726,-8.056078783458828
6997,,-13.153486487144736,-14.2702313416196,-15.340310371449226,-6.631894246524758,-8.506021081254415,-12.020228061275889,-11.175713549844057,-10.34370690151594,-10.748012436208036,-8.189904148242292,-8.45535207343245,-15.465015290701428,-8.429306151291737,-10.790362493782018
7246,,-13.428682095226849,-12.969060279264031,-15.500717455000796,-8.505344430443749,-8.868655179557258,-14.83911540178804,-11.873365175911054,-14.37785179822749,-10.73985491735137,-7.573917953333851,-7.140876920102986,-14.84044176343106,-10.763696620497967,-7.021666162392124
7496,,-15.390070042614024,-11.632874109575164,-17.913950066437515,-10.650849921028536,-9.440284787249874,-16.070905097720015,-13.89727870721302,-16.079227919919177,-13.165108187816507,-6.657113758046993,-6.914142327449143,-14.907459354904011,-11.059399606633145,-5.408131514839436
7746,,-15.1592151976394,-12.577571696431528,-18.35197619822865,-10.186504394373566,-10.12975970687199,-13.520658777831311,-14.765524044541609,-16.749379296575416,-11.919701245875936,-9.377151238256996,-7.335858556615721,-14.271577778301667,-11.072553316305726,-7.800927818445795
7996,,-13.388031073363916,-13.130794393235082,-17.51886973988334,-11.977086327097291,-11.552882054134349,-13.281427836405696,-14.572576267743385,-15.735495080384595,-11.053842312420675,-11.838922605752282,-9.948721770725232,-16.60121359540075,-9.67459436410511,-8.754725072277653
8246,,-14.203038949218456,-10.547381573220552,-17.141831016836313,-11.55018654642813,-11.171496623340705,-15.203206640715816,-8.93299209388628,-15.179557222862435,-14.597554938245535,-11.274876054644952,-8.972437969942108,-18.51913504052703,-9.841079690131354,-6.932187111868577
8496,,-13.449636616526329,-12.518716286201188,-16.7366345368264,-10.399747454151465,-8.008306294770147,-13.50470822012861,-12.347939888573055,-14.847444416999531,-15.189760442934602,-10.545424729659734,-7.166806273617933,-15.992627571570615,-9.058051345075723,-4.762287584696564
8746,,-7.111791307071373,-6.722460960958546,-15.327863528500556,-8.14918876322514,-4.897775582783823,-10.071546971987896,-10.992097717831722,-11.707479936899254,-13.952247148829304,-11.828784711339663,-10.813183615049,-13.893096241929944,-7.432939431198891,-2.2139572980394515
8996,,-6.787812196643235,-5.146995152653675,-11.549202815299047,-8.491716044813518,-6.91847097962453,-11.403061854507486,-12.0484728424485,-13.084148134018385,-12.569638837929515,-11.357988118451493,-11.30431026994925,-14.357066718321471,-6.645209748778847,-2.928430971978605
9245,,-10.531254619814652,-9.442547868738709,-11.973602913996912,-6.296061989842983,-10.290032942675952,-11.364382014518124,-12.174584331448974,-13.987741841295254,-10.189932067479566,-9.471854069165678,-6.672882302764217,-15.748499660771175,-9.62020939391594,-5.664981726169357
9495,,-13.045773294410376,-10.103178306965985,-18.242639626669863,-9.053666446145032,-11.794626397712983,-14.09649141668098,-13.8948078404081,-15.407649875953148,-11.64280437683332,-11.871054634943558,-4.438317233272819,-16.69911906701078,-8.24474489639219,-6.309338754894237
9745,,-15.160005973059612,-11.869547837825936,-19.400592675703336,-7.827479359325984,-10.877711855733454,-16.665524599935054,-13.426106824253967,-15.829394377278785,-13.39137172447298,-11.831923424665003,-8.021199185936393,-14.227722323255286,-9.75369621583948,-4.993457351049734
9995,,-17.42207383520755,-12.695951825767908,-14.733883418620874,-7.202387712448176,-8.069896358194613,-16.53274855872138,-14.994784198796983,-15.480850703844736,-13.57526295610356,-9.10132643103788,-11.40411768186106,-12.81790838257624,-13.528448264163726,-4.644965730188338
10245,,-13.62584618889569,-14.95048725955618,-14.242581516853985,-8.904936144362765,-10.026178272419967,-16.506977347246945,-13.692593942192053,-18.29850098911491,-13.048518281723684,-8.23601705908622,-9.38081437013013,-12.70665756219005,-9.532636263532076,-5.090313523856002
10495,,-14.192275382631165,-16.581851521283326,-14.94191852059274,-10.003316567360176,-10.580427573881082,-13.686845991947552,-13.144052183162046,-16.43169333254303,-10.588338001061782,-8.479335787227477,-5.731513767957744,-12.509672081320002,-9.494403126541863,-5.143486224414676
10745,,-14.20865815267685,-14.634214880941943,-14.08889169378339,-8.008343454325637,-10.311974225085494,-13.493006406293327,-14.222865589904474,-13.163546231542991,-11.054722395994023,-10.74071479468855,-4.697237395176471,-11.237557596183963,-7.892801550096319,-5.425915621511295
10995,,-17.357328063974585,-9.65288329847118,-15.18515849512405,-7.1801446859107445,-11.845478875180234,-14.613521430935377,-14.262377828203796,-11.018220061353473,-14.704641627807684,-9.454295736792377,-2.9050043109817385,-12.387230873602908,-6.8963573399262845,-3.9138262518299545
11244,,-16.018007463643475,-5.558767670226237,-16.54767239010969,-1.1854641025238342,-11.876889186056976,-14.985137697518155,-13.216410502085695,-10.4640149463151,-10.822192448323609,-10.470929633316416,-6.134128686214692,-11.566882916478258,-9.562141895146713,-5.273677245806312
11494,,-12.39356279632828,-4.350953076119378,-12.955926671865065,-0.5852288818501525,-11.446333115665102,-13.565863135346978,-13.193824454067675,-14.356550160770844,-8.969821975285813,-8.874519515105181,-3.9553871561552434,-8.49376490047679,-7.42952469398475,-5.64881183277493
11744,,-10.571280424626757,-2.1992746366671505,-14.04134850492962,0.3823887695638521,-8.064209417046209,-11.816639143101138,-14.118344412516702,-15.162521317364948,-9.303834120936902,-8.959422129390038,-1.8889652826105707,-9.292912604511244,-4.455964104244126,-7.540082864205219
11994,,-10.014090372780815,-2.3504431832543893,-17.615260901491084,0.9720386523869256,-6.778551120689402,-12.344923776184654,-12.551573668180565,-12.70742377035857,-9.615108621576198,-8.949875412170812,-3.750276211528142,-12.928528350593428,-3.059392120061808,-7.560807208621194
12244,,-9.674139599309528,-4.889102617280634,-16.522051453548748,-0.0083181642759496,-5.705560857086351,-11.367611502326254,-15.452480286888576,-13.716614208723552,-9.369076996956752,-7.393447120325504,-2.5647051519480843,-9.818496104538609,-4.793728555924065,-5.944955878974828
12494,,-8.631740984437366,-4.843133473938551,-13.847911679627025,-4.349773285048899,-7.198946853102309,-11.907954391002594,-14.997833553280264,-14.937990213801845,-10.904960932272903,-9.37128245052634,-2.9731719164737225,-9.252835248002032,-9.169870069738334,-7.155131241083574
12744,,-7.747287233984796,-3.638553246137106,-11.164175971822566,-4.001898625715396,-8.419460927286154,-15.750713394932829,-16.30771926954906,-14.641942176335744,-14.455861519382822,-8.460726436400185,-3.230322568501097,-14.990920420635277,-5.546388055234841,-8.151763292392408
12994,,-8.056341077176683,-3.846205509936426,-13.311334310431992,-1.11927214834494,-9.587377950762953,-14.820121156722871,-18.56418914400852,-13.677081806015837,-16.582624982270154,-9.386260681721543,-5.4762681087889895,-16.533455958642882,-5.674777342783237,-6.668491030355563
13243,,-9.346733204310835,-5.764363177640991,-14.978450473092805,-1.2444793334275817,-9.906296987472912,-12.254155673899348,-15.181618407903294,-13.947187420607444,-15.025193676307646,-11.306289091731514,-6.114813738668957,-14.856327676404506,-11.396359661942302,-4.550615845395348
13493,,-10.14153573539436,-4.94956991424168,-14.650122025087637,-5.702372416818633,-10.911971672688765,-12.484833345808624,-14.514519808916331,-13.233072516112337,-13.583534100769803,-8.936777630723894,-9.255478739852135,-16.14207470505761,-11.574903058645123,-8.660556012401354
13743,,-8.137653774461484,-6.574173692286204,-15.802234239166436,-4.088158539820567,-10.53295803070592,-12.617142916852732,-14.110595590561053,-15.722871342111503,-15.37640922783368,-7.9982902707475585,-9.375570822995403,-17.85349888133937,-10.718934613380656,-11.391450276941343
13993,,-7.518427357815463,-8.745130236166585,-16.74922324186375,-2.0092287029282865,-10.424334923355277,-14.685162082324668,-14.44853186135384,-16.603127118573422,-14.89131693609919,-9.577989573799297,-5.898020669048744,-17.318453838128033,-6.738887359805668,-9.15943126664249
14243,,-10.137411311450856,-8.403254159256345,-17.803647091429102,-4.594089951306604,-7.844959770952932,-13.967739785700072,-14.963522731422472,-14.264168045701233,-14.657114770829548,-12.77175698529401,-4.768947026202564,-16.385960133870462,-7.54519540257026,-6.323522537664123
14493,,-14.43492034712882,-11.541444710797244,-16.151748228049655,-8.291485453264505,-6.63615702160235,-15.475798028249878,-15.99356351043695,-13.81560996429277,-15.292350580278583,-10.383292532746363,-9.630158253175797,-16.018504872590555,-12.307042538738548,-7.055492004337191
14743,,-12.320303621560369,-7.751216190530688,-16.544064626321514,-7.755952853534413,-8.595293436277485,-13.912990814685164,-16.569399924468517,-14.8627337418775,-15.39994278888762,-8.60644791528457,-7.248400202522926,-14.92759769481745,-14.811522438873231,-7.032648238094844
14993,,-10.809575035671235,-3.80000510365347,-14.65992707750794,-6.761529870800085,-8.146791538073666,-12.27342570209461,-15.881509776431416,-14.486493687289707,-14.202562688726584,-12.268712351562844,-5.165514351972071,-13.75575649011267,-11.482083704325554,-6.468118429947168
15242,,-9.41195843382703,-6.159719809332909,-12.490578482094396,-8.145868677461554,-9.847088913909795,-12.988299019689933,-12.531192613806198,-11.79579241049472,-11.654780879648786,-10.924436195191468,-7.319980724782006,-13.64754148957369,-5.8259902895448725,-8.703015428889056
15492,,-10.235009714934485,-6.733717198310489,-13.12944884850184,-5.148467307387014,-8.461451282206689,-14.794135112512256,-12.805012912088428,-13.60539777670921,-10.908259722583187,-9.389064518985013,-6.884491005915645,-16.021227004776463,-7.019535306439012,-8.542070721448113
15742,,-8.308559320202404,-6.788661690191025,-13.63795707664921,-4.162140691593002,-7.152128676946338,-15.507452944705824,-16.44587359137187,-17.864328899645013,-13.484857330456874,-10.29675520851753,-6.403165359568471,-17.252720206438692,-10.363384758843974,-10.419011075370497
15992,,-8.965868400242604,-8.89609430318118,-11.878211378660112,-7.619794150343504,-5.786449550038681,-16.958146622203365,-16.115179411016854,-17.68120923803044,-12.841456005580907,-9.52168870580556,-8.18899498544625,-15.34471445555516,-8.529224447750757,-8.170624735248039
16242,,-5.499111498951987,-6.777659931765934,-14.311180457486326,-1.6615552173728356,-6.383026518616736,-15.574112999842455,-16.088690241912737,-14.353699901730248,-11.4928664585598,-9.582866931294214,-8.297194992361547,-14.898246646039505,-6.464443823657144,-7.469832083938396
16492,,-5.523375936196777,-5.155429086308891,-15.072079978891413,0.9203218550848158,-7.299930457735178,-15.884435080038488,-16.34379925689607,-13.547539021830683,-12.840173064404496,-9.16564509564114,-4.891702426926739,-11.90799277700294,-5.9251557997934166,-8.166866145960505
16742,,-13.883088200236497,-7.583807589015139,-13.51732655008724,-2.856370798217023,-11.176518332147625,-14.281458276479558,-15.532394425724354,-14.116859673189992,-12.857486359999635,-8.208212065313338,-5.324544025362993,-12.06896350926894,-6.6453013525332985,-5.208135614529272
16992,,-11.291225790433112,-6.447626958962102,-13.602960448720475,-3.725571300695465,-11.240471388227313,-11.140038958774657,-11.702305992051002,-15.879556097032848,-13.305544601474269,-8.536653333404141,-5.475613583894544,-13.47747715346115,-7.707444573048904,-2.0214937571044804
17241,,-10.219041743694682,-10.536708203073095,-14.76742211634332,-4.535579206065069,-8.780374348992428,-10.644969553345504,-10.713249664240884,-14.506684786707416,-9.86127153643999,-6.347235447823204,-6.871520554156259,-17.85160769704432,-7.022652143789915,-7.522163246176258
17491,,-9.078268433258502,-12.22282567065805,-12.186612056745156,-7.57470572018045,-8.636591269039155,-12.612005048740278,-13.768387512465704,-14.410940524912546,-10.638979497044724,-6.6588949431125535,-5.877352597664219,-16.028198770949288,-7.960350256545903,-8.149296624747187
17741,,-10.113360419484854,-10.280740805035906,-12.307060916517395,-6.6680543126083744,-7.5101299637928784,-11.7030938510524,-9.5667727929013,-17.322454024423614,-13.48454224347542,-7.164535200493667,-5.894280766234527,-13.937412795928903,-9.323765443483715,-8.796627173715791
17991,,-12.599131137421033,-10.964410255128469,-12.115304049325903,-5.46145241527398,-9.894598885455071,-14.414366215817498,-8.10739029561398,-18.09616364256812,-13.642109451289215,-10.221881610070344,-8.426049325823723,-12.827231943290991,-7.530416487900569,-7.343666584053415
18241,,-12.564907088599073,-11.771784605896237,-14.74978373317355,-4.448846169763289,-12.09876529558629,-14.257284376517278,-9.946758694701552,-14.658255936281622,-13.178335120743707,-15.119320211095616,-9.716357835667914,-14.944642856029471,-9.584627255273414,-7.517787241744227
18491,,-10.279504995581163,-13.526066500931917,-18.211229655746536,-4.424972343538666,-8.398796353140602,-15.301936157835174,-16.271937221377893,-12.01335767233929,-12.979759535938877,-15.166185551408436,-8.387291043530794,-15.836524393870764,-8.733674870699486,-8.017236843194734
18741,,-9.49391454723312,-12.050784221819042,-12.972992207688158,-9.081909328566688,-10.483940065748614,-17.111987831619565,-20.599028558655228,-15.622521915697886,-14.114642218992463,-11.91645477914044,-10.349531831924804,-16.316888343605,-5.227292509271266,-8.016633132204564
18991,,-11.20257291868526,-9.75826472742452,-12.775143273654685,-8.341540552265252,-9.349623564311766,-13.077048319103044,-17.582724983220576,-15.730356604680644,-11.734401868962516,-8.887998643459056,-7.076595104090822,-16.681236336313553,-8.07725500046623,-9.561999655878916
19240,,-10.62159283493547,-8.339190099855072,-13.904794928451944,-6.830377296421718,-7.549268767064365,-14.782892987028507,-16.59987207109131,-14.223943929270575,-12.036618026226364,-10.248900449385545,-7.42307763947481,-13.547507892708644,-9.037584183284563,-8.830102643345406
19490,,-8.98446569155926,-8.606441397364025,-14.108772516035364,-6.374461153410919,-12.328194150208656,-14.354140202680876,-15.13453517986128,-16.344978957284283,-11.525457381175633,-11.91767643031213,-9.76604308454051,-16.548500710050455,-8.605029211376495,-9.424769933162786
19740,,-8.927764458208223,-6.530900107455251,-15.024129488927043,-5.671277500833297,-10.907424286258047,-8.927699373815482,-12.96449114905652,-15.202475415645791,-11.720861844294168,-9.803204162238623,-8.77987703029118,-17.632331332936918,-12.27575459674151,-7.001486666243788
19990,,-10.973070730805148,-7.724472946206604,-17.13438806663006,-7.482122113897732,-10.54076280080405,-10.791441252182167,-13.85917800498439,-15.69603614477311,-11.149920208969217,-9.206499114574394,-6.096121299642468,-16.318994137203813,-13.167711996709954,-6.389757224875581
20240,,-13.81244717287441,-9.321388491341848,-16.628150132750598,-4.242909144911423,-11.345824158095803,-16.616385004567704,-17.21780830692197,-16.50740629579459,-12.158802029268651,-10.661320406006285,-6.238661123593915,-12.198727368851298,-12.56067695321683,-8.057287965223061
20490,,-11.435040635325311,-4.73310246580401,-18.577502782150237,0.4498732379219257,-9.79720902760502,-14.637656429930756,-16.633760599673945,-15.426052131333227,-11.65597763222756,-10.400649804226614,-8.87014937213436,-13.224582175823832,-12.250371377049644,-5.652850333280869
20740,,-12.8036564709642,-3.7780368943586913,-18.494664090058382,-1.6568625732260245,-8.297494549312228,-13.11972810940359,-14.80001816029166,-15.716801880981295,-11.11703817906574,-10.078644535421844,-8.688789506921365,-14.21954197962022,-10.43763548417646,-6.876379153557215
20990,,-13.38766081707776,-5.917310737042705,-14.269462959523816,-6.914121360274189,-6.457503860641424,-12.84580519842594,-13.583806624515532,-16.165597930167767,-12.26729352363468,-10.242660716932791,-7.012612348710232,-12.11863990198234,-7.658781966348645,-8.589640110244924
21239,,-13.153626977344652,-7.236376826732654,-13.352792823212392,-6.589864748210351,-6.803124270824271,-11.80407833017851,-12.07922439670095,-14.41773468943232,-15.251400022419377,-10.068971947660907,-3.83263714635313,-15.27493620889066,-9.076670362118994,-9.900069042872804
21489,,-12.03100557384644,-9.019342294890915,-14.456787622769388,-5.033611003202159,-9.140562042072856,-13.007537244942297,-13.5361644805575,-16.418002127336614,-14.710114949826185,-9.834505023311868,-4.926783646776943,-18.013568341575905,-12.386829452900953,-9.474216877700986
21739,,-7.991860774434105,-11.021362290266811,-18.06993934103504,-8.922622322310135,-11.2392742084858,-11.12561967284741,-12.917584645386786,-16.536004844129724,-12.999064983229768,-9.230260682451926,-9.877391458442489,-17.9672610140933,-11.842882217051471,-7.98145499946499
21989,,-7.173034098153446,-8.950117049459303,-16.632974112164035,-8.226807107198415,-9.368353724169854,-11.565147539458334,-14.573590105422872,-18.656249076923416,-14.107612994145189,-11.549219682336282,-9.613221630299666,-17.95610599892547,-8.60935929041313,-9.115695464539144
22239,,-10.266565744477612,-9.46455745846357,-15.64653868584366,-5.513916146176552,-7.962355609425876,-15.975848293274408,-17.64134475463317,-17.255408226527297,-12.760783216059409,-9.840466139986386,-8.139126904744735,-15.993480797780332,-8.463382302354614,-10.818261755545125
22489,,-13.997115241187377,-7.016704724375938,-14.273799405353412,-5.735267321366786,-9.504640473182542,-15.692185775274234,-18.49631087567785,-16.88997345205742,-11.825078966601284,-8.05321472407207,-5.203741997831799,-15.70346602434412,-8.80869796189647,-9.355502388262735
22739,,-12.42628057521182,-4.055778636815326,-12.466955971764126,-10.537848734925117,-11.959799463885684,-12.408237646238804,-16.531595039799978,-12.531268854821915,-13.201474066831183,-8.803332820596806,-3.217364294857121,-15.616133929502327,-5.750511400527958,-6.2922322065185945
22989,,-13.169557286699163,-7.799812140135794,-9.986608752423091,-4.370630566832812,-10.233061705554285,-12.417576749822569,-12.215754425666464,-9.129691281401207,-14.184082559255511,-11.07968803698106,-3.368603810117288,-12.87168078811309,-7.944635404640495,-6.19544796957432
23238,,-11.359716627358472,-8.349034771590592,-9.833939541493509,-4.622533127350455,-7.949490839612485,-12.607534781081744,-12.853246589728336,-11.541210833921816,-15.052293579898777,-12.1498258698564,-8.470785849369534,-13.563605998553289,-9.017701040266047,-2.8412976379520964
23488,,-9.191712184093776,-9.342063758653456,-13.03964509746069,-5.5070877697265175,-11.271923695688796,-13.3660107746661,-13.027863135599135,-16.60062372494711,-15.510645647953474,-12.46589921242717,-11.925209362324471,-15.985587923573854,-12.741392531262466,-2.71200687434573
23738,,-9.29086165068469,-11.092233798036354,-14.8491616931065,-5.980630832425789,-16.675365613191254,-15.237217657904278,-9.852826201978669,-14.539550394758985,-12.918445602707225,-11.763060335967662,-11.774157814184504,-13.493173383067331,-11.21873140486041,-4.976711170759398
23988,,-9.851496993953187,-7.28249127769155,-15.5033593671538,-5.514459412280286,-11.861196518209836,-16.107639287606407,-12.002378583916371,-14.44122373391884,-13.03521542627835,-10.004319932490027,-8.930792248437907,-13.81906054095155,-11.373801051303095,-8.442084800864716
24238,,-9.829473502845763,-4.407070761029438,-15.75181233694947,-5.035761441060858,-11.25015595219203,-15.237638852528145,-15.074629385333028,-17.15610730715374,-16.25652136053952,-12.633575262760417,-5.47493296247906,-13.362474963568747,-10.34218003473151,-10.450942394208973
24488,,-11.989447795671584,-3.5651166334403284,-16.278454101502646,-4.7143069951116265,-13.432525020609154,-15.19038785163447,-12.762990196814236,-14.195077056519333,-13.861128697235165,-12.89357549179398,-5.824495184643971,-13.075482521681042,-8.098807776719681,-9.388296640404512
24738,,-10.704492848200529,-5.550693802945609,-14.88002982953168,-6.575950047233325,-10.876785085772378,-12.162766680285774,-14.957157023436698,-15.09182608249077,-14.424738163445586,-10.559715157187908,-9.244435996718236,-15.707300250684773,-9.40691631438192,-6.200075181072576
24988,,-9.328752329193412,-5.34042128564642,-15.997342036001108,-7.201341335237046,-10.252118468980663,-11.847755063675958,-16.305868713124962,-16.881447633107225,-15.673860960330405,-11.718418070074131,-11.770712327736923,-15.97415412137626,-10.68238727552992,-8.762027593251773
25238,,-8.123512123876536,-7.089050747484582,-15.914379848388831,-7.99996977642844,-10.024734881276505,-15.81756519081714,-17.70825266163521,-14.386223157011788,-16.044610832527095,-9.851845388568703,-11.450803820551052,-15.53432199779995,-7.494939462067224,-10.039172723067647
25487,,-8.40887284786823,-9.448119970276975,-18.198224459054057,-8.876970808899326,-9.755544125150449,-16.001662597793683,-14.12381478253912,-13.05285024185256,-17.226791946127186,-10.128694885527093,-10.398285993951928,-15.540070289799136,-7.502414339721869,-8.42436942452107
25737,,-7.586890602579333,-10.57424508179698,-17.83625263805427,-7.54266216567912,-12.349197367878286,-13.673100900409883,-13.763654491685568,-14.934299790328003,-14.7520510674308,-11.584665585005688,-6.64684697073644,-14.320893579775682,-3.811689802649236,-8.451041196109765
25987,,-3.046783379811969,-5.592947891935514,-14.275984090890166,-4.45570860439295,-12.481996685216304,-9.144293171270231,-15.957462976205596,-14.527712396422071,-13.941104125828945,-11.60480736617355,-3.897696813827264,-10.346645944732234,-2.542000209810528,-5.615700401474939
26237,,-3.3531957892253232,0.2345973784968152,-12.172627777749698,-3.656424009175938,-13.548155340932206,-9.716625806512557,-14.944357476260326,-16.399010336901018,-12.425028213781848,-10.056835645105188,-3.671392517253136,-12.96404507397635,-3.7943808242669785,-4.1470493769555405
26487,,-5.73936859953125,-1.7390599032200504,-13.395830950165712,-1.7172448744438191,-10.94395930112068,-13.630134638556552,-14.916647611888118,-17.37375390744189,-11.884833385833156,-13.18761850666638,-5.536217444583924,-16.159641054688294,-6.622995289160144,-2.230044869543106
26737,,-4.552288558373759,-7.309426597029082,-14.758012679328733,0.316525356535161,-10.010054501644431,-13.477152625171447,-16.032844911294568,-14.993680942005565,-11.298372950285298,-15.321026015212576,-3.759012177066239,-15.21694577963194,-9.770023519848069,-5.379600539910779
26987,,-10.383842195429596,-10.60398145352803,-14.278673893206316,-3.506912945333329,-10.379989984254012,-14.584804455074249,-15.520011756131469,-9.273677823860789,-10.304706169827496,-12.098805679786796,-3.439086454481692,-14.002118766354108,-10.164218031611544,-9.50359100960376
27237,,-12.284135744163194,-9.64422405086478,-11.451041551656989,-6.987648998582456,-10.1060837987974,-13.5399251731311,-14.901529370584605,-7.653877720302889,-10.715023042697451,-8.5171459951052,-6.800604899603131,-12.840318571821378,-7.711723411539366,-8.197025679386641
27486,,-11.70329706473439,-8.63460461126673,-13.336306616344396,-6.325626059317639,-11.869001370842629,-13.898054010372356,-14.675117850141142,-13.47700578315489,-13.001091729915933,-8.104087024909052,-10.269781111503688,-17.20150708949088,-9.004873181314865,-7.455136763457956
27736,,-9.43016772159199,-7.354225272916648,-13.255457585864844,-5.175834290615971,-13.322598732196813,-17.66722031166958,-14.507596683216246,-14.57153786771912,-10.169438917777857,-7.133843761515248,-8.647257801176531,-18.014284985771006,-7.767154247387904,-5.912484209455005
27986,,-9.0752159829186,-9.437128036746753,-15.67283683984092,-7.131266866974018,-10.606899692420606,-13.338926202053628,-15.526773260237505,-15.539328657105198,-13.15822947905238,-7.567613907309944,-2.200343581310248,-17.1562849792292,-6.476292704695927,-6.114090844819233
28236,,-13.432430010038615,-8.195094607191919,-14.751322219366577,-3.733211457814724,-10.242985112232702,-10.639957775954336,-12.583074270178267,-14.969298275420249,-15.613459425823288,-8.536665466651538,-3.207958416897751,-16.69309361250809,-7.62267241459694,-4.897858577244784
28486,,-14.54962873487134,-8.600675413944193,-16.531807881785788,-4.67821791053604,-8.35154487833482,-11.997159299968372,-12.667489345206857,-14.57633735599175,-12.832087770384309,-10.503330672600956,-10.583673574936984,-13.279051050745604,-9.230744155610218,-6.1688501144600565
28736,,-12.94759031206342,-8.940508060524706,-16.38025387271795,-6.860039681825186,-8.35042068677644,-14.284801730258176,-14.45900780185134,-15.45818307385426,-10.492997985964106,-11.566092220681387,-9.723710262416455,-13.115167174034577,-8.021792105283854,-8.818450364563814
28986,,-8.976389453838406,-11.723637223947012,-17.628225666186502,-5.716402759690389,-7.567507640196488,-15.522931391364304,-13.385353857400288,-13.990689992891944,-10.21336440161412,-15.979677571985356,-6.095479441872652,-14.886086458461731,-7.801759841635258,-9.915624665547838
29236,,-11.918886033128995,-10.926108789832876,-17.84212759826208,-5.276510249036611,-8.200516068291362,-15.265603158063843,-11.268102868615738,-13.068800411047546,-12.353434854874454,-10.92047312464488,-6.896241728371305,-12.99778329622534,-9.59421282182727,-7.71954128115464
29485,,-12.626819425995066,-11.857244402880092,-14.151073990200022,-5.924046241955216,-10.282738591636608,-14.572084268671146,-7.227535147793658,-13.829838197052144,-12.56023017278834,-5.7611583989277975,-8.995846530090423,-13.375459078821883,-10.151625963080086,-9.739209152606936
29735,,-12.690502563640925,-10.28133953330562,-14.056676413265292,-5.917743627400859,-9.221842791445852,-16.22087628169838,-9.364865033625318,-14.97889351087876,-15.949934449859978,-7.89297874110609,-6.803563281909701,-14.499911441131474,-12.00129862862492,-10.764659969176588
29985,,-10.248536887866743,-8.364342453253537,-14.70402733281582,-4.898559890002247,-8.43666539397496,-11.644170830759588,-14.473981128081297,-14.141662883490175,-14.471659245358406,-10.74713171554518,-6.345028335577218,-14.72444639104336,-9.39774731540341,-10.358098702192777
30235,,-7.939832059216453,-8.414313960364181,-14.780033788762577,-5.9661118525878365,-9.939356592614118,-11.822469429483007,-13.692717275241716,-10.337641673535956,-16.742174839455416,-9.891271893343712,-5.171714502132298,-15.465768900167935,-8.47577424103179,-9.199112938231355
30485,,-10.408791663697649,-7.437516918607898,-16.35954460207534,-4.82968944751997,-9.272761786662349,-13.075937766826474,-13.547218203900515,-9.92813514438261,-12.212115216812569,-10.476845808382611,-1.619902266167848,-14.2100038070646,-9.9191219455867,-7.993694004637055
30735,,-13.239498674526288,-10.152989091058329,-16.022806136567674,-2.222418654499998,-9.967283801849378,-14.480826452277054,-12.80889512060553,-13.137894811868753,-10.871181122437095,-9.933828517304814,-0.3860647580734989,-14.969843249540276,-8.338476051435006,-5.369579339569008
30985,,-12.770311777786194,-11.369420437006324,-13.882659540314998,-2.6273042150970847,-11.696067708889313,-12.162567954698869,-13.536997753398332,-17.30476270342838,-10.884627744250372,-10.070982391993557,-4.720163718609184,-15.614200655416948,-9.442336498667109,-6.688431753096218
31235,,-11.215373877064271,-13.138856913562629,-13.59640382650448,-3.993729026796178,-8.670215510005802,-13.484193855437468,-13.368794954885136,-17.430010362807145,-13.15646750827372,-10.50862847621704,-5.4877842306390265,-15.446461899429949,-10.41791047483846,-8.97981693398364
31484,,-8.86373533178614,-9.911387018837472,-14.658211035625918,-5.912330294329244,-8.755262648965774,-13.80055853382975,-14.205714838450596,-17.50599509024016,-13.30591762487546,-12.79635329889347,-3.774088073152011,-12.446915012841478,-8.105736589995114,-6.853051226765
31734,,-8.789718720351651,-6.064780835958139,-16.27162877558775,-2.605665531980812,-9.73596046827245,-11.640702618719438,-12.939425505651736,-18.57264155202096,-9.837291577125516,-12.756407108929473,-4.4778469599152615,-13.220315699114115,-6.906895536106025,-7.5514499086814
31984,,-11.1622164867227,-6.986578464602676,-18.319916530355044,-3.1306617701953368,-10.67625520274936,-14.476065343394133,-14.98410026323121,-18.06587750281236,-10.24367310135445,-10.271506046567172,-6.216941707115504,-14.78463614740617,-9.901145695093051,-7.090284183409768
32234,,-10.172416376063358,-11.19137661036068,-16.53879312921842,-6.8451712830504725,-10.303918064965698,-17.14741450662747,-15.648836609608882,-16.573609113789058,-7.7622406200663345,-6.93944194380742,-8.30375532754289,-12.719001582333,-10.944992770142765,-6.642254475080995
32484,,-8.757335217983425,-12.19505767863485,-17.12849780348591,-6.273479067626675,-6.312200139676433,-14.882829159090472,-15.287316889349489,-17.88811096402505,-10.661446356627422,-8.027513208179245,-10.573776295977906,-11.39930061706345,-8.866034817197562,-6.331306319863028
32734,,-9.86751652455894,-8.52870195783599,-19.262429740789763,-4.820949618216968,-6.720340785737694,-14.865526507917687,-15.415735038768892,-17.82441924392864,-14.289845386231724,-11.869388890409668,-9.046389132035024,-15.186362410913674,-7.819077834038783,-8.164218507948494
32984,,-10.003172886700751,-6.840485925784491,-18.527139836072045,-6.802798406356919,-8.690177694420967,-16.673697320673323,-16.68145368454922,-14.192931763614094,-10.009587509919331,-9.185878041169309,-6.694416535511147,-14.075953766365782,-12.1749545237516,-8.731665233321444
33234,,-11.37540015617658,-4.725792037293777,-15.147513360112564,-5.627406529706015,-11.39359553244665,-11.77376985386204,-10.557124018452988,-13.290182161300375,-12.191079364092335,-5.173089066839199,-6.16422950037244,-14.905767889364634,-11.870264575640949,-8.280702090184125
33483,,-13.865056473431736,-6.427893500588825,-14.903467693447842,-6.119673063426287,-13.451088608456828,-11.66782789113194,-10.24633593672837,-14.434205471674296,-17.21616765304124,-6.894528656201196,-7.7902841728836,-15.866058749991916,-9.588579764566653,-8.484047748315641
33733,,-10.312752180441658,-10.759064546689572,-14.4641301398099,-5.168154713206979,-13.584963249643888,-14.650054528651715,-13.656407238709356,-14.918871292035048,-12.960552443199784,-8.041601214845143,-7.2565367678037855,-13.172995371164776,-10.853860721243713,-8.483120350717972
33983,,-10.738968796800158,-14.6513722384735,-14.564713051086695,-7.556897269347504,-15.08982174361567,-14.54274998389888,-15.032836260353005,-14.266002931001772,-12.084634801378806,-10.443003238219704,-6.764252390062606,-15.67097940836798,-10.474400439765516,-7.455013639035282
34233,,-10.471484722539373,-12.605822482119947,-16.431406971547847,-7.941737195111377,-13.147594109734388,-12.828105149894943,-17.98339047490612,-17.294743137097267,-11.410408286924556,-8.026592988194226,-7.828775035666245,-17.175431830533732,-9.450717355678988,-6.599984770964479
34483,,-9.28214119497276,-8.722535666651869,-16.477159147101126,-5.11072390625108,-10.846115810833192,-11.207127327093945,-17.12324713835163,-16.19446113305899,-11.32412296850214,-8.162025819852657,-10.961646716746,-17.710009311099356,-9.537744311974338,-7.806906470218849
34733,,-9.2342526539572,-10.025387696695065,-15.91379140368946,-7.4055480664111855,-11.188755277450262,-12.654648389864285,-16.32543638374307,-14.430798045040344,-13.277437284872915,-9.261474669747525,-8.199029651871228,-15.256628071803677,-8.427031773488837,-9.1227990146958
34983,,-9.487975718132985,-12.834767560338513,-16.412031110037532,-8.314348936963231,-9.928053779314244,-16.039848355410413,-15.104886120618849,-12.900507447482704,-12.142485852515218,-7.673545913492658,-7.684733480611428,-14.529721914209755,-12.12848515109269,-9.869445746441524
35233,,-10.793059999529726,-12.504866192784672,-12.248937895976884,-4.688372321611354,-10.757507767426189,-17.133923353462635,-12.675318437730848,-12.825142343946752,-13.102620457675815,-9.697244846377592,-7.555201925808188,-15.532400766800638,-10.716797610481162,-10.842798802219
35482,,-11.931115281343963,-11.722610773589556,-13.086026179113608,-6.844655185035387,-11.009200058736898,-15.617453535116583,-13.876186863122296,-14.91972220457754,-11.615835080075858,-11.209583048777317,-8.85328072762631,-16.34846807469881,-9.91987845513508,-9.370121024879724
35732,,-12.281738620635316,-7.561279706962221,-10.047251178645668,-6.509583826054097,-9.67885672771755,-14.893134797960506,-16.954620211422327,-16.47201910129939,-10.180355510977794,-10.330423877609356,-10.824121955351814,-13.920707305806229,-10.823886372495728,-8.172302559803494
35982,,-11.878807345996115,-8.362597191759365,-13.587192764666668,-10.334139080341956,-10.368749591818949,-13.885406363445425,-16.960474656472364,-11.63532875367393,-12.852930290263176,-10.64789263128315,-8.810660721767329,-14.292812556899952,-9.895865094957117,-7.013480448511878
36232,,-13.118019388496034,-11.470513082390696,-16.51987787456075,-12.705435239671946,-9.666595001880983,-16.052460952055668,-16.51914914426811,-8.585436310360627,-19.156584138456324,-9.862084614088614,-6.124566623821065,-16.79083711906013,-9.259773285141208,-6.385627591866148
36482,,-8.473980245031967,-12.218983321364956,-14.839942879370504,-11.576328673995928,-8.711352710629534,-17.98394357366131,-15.295704106159748,-10.00615765161449,-18.05665733351281,-9.893419267754872,-8.208329153859653,-18.748188987726543,-9.086916486274646,-8.292227320084018
36732,,-7.038955452627629,-11.644756061358914,-14.309468533138451,-9.17205972562748,-10.203450285400375,-14.327003802505034,-16.425517549158087,-14.255266334994667,-16.576307009923138,-8.709869934262047,-9.715020191754904,-18.73565806991719,-9.487801286941188,-8.18463334725183
36982,,-7.831025232388442,-10.271858001019808,-13.170823359634538,-7.9477515975577155,-11.17675007401671,-14.260511447185378,-16.327667009801704,-17.81374630340909,-16.870184232683027,-7.85360233742057,-9.897303448429197,-14.74005549550748,-7.197221000188671,-7.677917689395483
37232,,-9.84505513940816,-11.19713321285387,-13.693048774977129,-9.719872811733508,-14.157977831237265,-16.65726306937075,-14.222919365981838,-16.440375943256438,-15.96832220410443,-8.446006638135035,-8.56129333830026,-12.487727222729916,-8.359717160971078,-5.714247519386543
37481,,-11.520589308689202,-10.672058450863451,-15.730208413496063,-6.887143957338998,-14.951545408887254,-15.010963724174326,-13.57680057149233,-14.033603809055524,-16.191283797494773,-9.8680684629138,-10.293710146945918,-14.662970024772836,-10.708400301703334,-6.527148672935085
37731,,-10.16801836113171,-7.219658012916462,-16.234708665185245,-5.823661173181031,-10.237574433682113,-13.726189845620247,-12.39774103709656,-15.961164153968978,-13.047791088677243,-9.159687027877908,-10.790126777347592,-12.159042881237728,-14.779196736392052,-9.734506298838738
37981,R,-10.529866568976452,-8.474887539117319,-14.95064333211517,-7.963256828079692,-8.548597961335984,-12.284462283341345,-13.35766588458201,-17.555479497476963,-12.65566802720986,-9.949278161275869,-10.284384992614516,-12.86118980404267,-14.117885143994402,-7.8544344557197245
38231,,-11.769231018519667,-9.245361776320626,-17.363895785476707,-7.307671751263372,-8.662206114860743,-13.484822575167495,-11.332065242170833,-17.7316305127597,-17.37312969142001,-10.030239463807447,-8.05738857172805,-18.717406441517145,-13.192521977110124,-7.716894709070747
38481,,-12.199686164481747,-8.168945193509181,-15.32905459786978,-5.328017640801498,-8.75549412270418,-10.412624036665218,-5.398271985449673,-17.340439974456913,-11.83935127542146,-10.0476817123126,-8.438189663352917,-16.405286543709185,-12.336209030195818,-9.545282242457413
38731,,-9.576800183838513,-7.737713627732889,-15.910934502622446,-5.9912909746265575,-9.68575090736543,-11.051018650106927,-9.008921670112828,-12.467300509507922,-11.340157602218357,-8.716371832401734,-9.023709570226105,-13.088850745302889,-11.53137880724192,-11.00721522253722
38981,,-8.873779836438215,-8.275875572366585,-15.828111921353765,-9.67397131984123,-10.505422704282667,-15.022694375645134,-16.965679150404547,-14.242958798444214,-14.32782309608099,-11.317035095898795,-7.121485235292257,-12.41267697830401,-13.617645534074189,-11.106659023124582
39231,,-9.328819901282388,-9.143742048466375,-16.78366569792239,-5.630179495045711,-10.705654343029474,-12.85776407376018,-15.070355238763074,-15.981814759558963,-14.4802339299085,-13.505336304726429,-5.02435532997573,-13.130111149087362,-10.846100280911728,-7.164388372959519
39480,,-8.508827355758966,-9.9917483472464,-20.534308511273508,-4.905347067568821,-11.960955505122191,-10.285272946184856,-15.336174282518142,-17.075987854067595,-12.212013532186203,-10.62971487554295,-6.788163721849532,-15.343841263375356,-10.037744462879555,-9.30713908484212
39730,,-9.05629161362091,-9.50395591572146,-19.14862037858953,-8.478028673433657,-9.873807223084384,-14.877383077462014,-15.87828019775928,-16.3147391835252,-11.79959260624512,-8.133734751624623,-9.92228108824711,-16.516111965229708,-12.862244451993105,-9.318427328531314
39980,,-8.616265167771427,-8.410299677114295,-16.5174120218608,-9.12316479972519,-10.633685912103443,-17.081397462608244,-15.735824653679716,-14.09919514944323,-12.76405221793184,-10.717195133982838,-10.060253854244856,-14.158435717800971,-13.972547954467412,-5.9025913602894775
40230,,-9.071324692031826,-9.891067819401314,-13.929512243056331,-9.957331765372404,-10.376006561763283,-13.02578614401203,-14.00875355902927,-14.964006246516796,-15.663076742002524,-8.740141653424212,-7.512771896492208,-13.66353378417524,-14.217049634597243,-4.057033425682466
40480,,-12.835726323285328,-12.686800860130758,-14.588436723430164,-9.366854632783598,-8.555005812147877,-13.35944365372422,-15.297016889720169,-16.02870243083543,-13.850496743664037,-9.846383844365953,-8.103418756397943,-17.016657811605235,-14.263399376738343,-7.015211625659985
40730,,-11.695586510653424,-11.56578302559531,-14.484860873219423,-7.64966299129058,-8.938384302676488,-16.085524109071198,-17.146602917595587,-16.368670075013284,-11.09090542018443,-11.679574869259667,-12.61612875841694,-15.71146249775474,-11.24335398945524,-9.316276999973692
40980,,-8.644247791463528,-7.394485233690684,-12.866453920367062,-7.588871162007758,-7.252513768772876,-17.766629323399407,-13.255544946785498,-15.704972308324054,-12.198106013905708,-9.56149953928566,-11.09330860706709,-15.227806297628712,-8.089746594569506,-6.687719095680059
41230,,-8.139382476136403,-8.367224062206393,-14.010245700767982,-8.00996612638457,-7.214420814859512,-12.828366156661996,-13.247738852197656,-13.10475611915248,-11.190982643134298,-8.80251895861376,-9.163422664785454,-15.977350441971216,-10.419820121758232,-3.219348123928288
41479,,-10.710001712955304,-11.79049728467401,-16.521131831784366,-9.149807238863758,-8.770653744176244,-11.434179147212705,-15.70776245446149,-12.658325616212489,-8.973445945542903,-6.96180470495693,-9.07091435465252,-18.535251005137454,-13.65299928293708,-3.7460459484002606
41729,,-8.343162613145607,-10.85221579156178,-18.240552107626225,-6.736314568343608,-13.094924448348031,-10.554611624473022,-10.787227336213263,-16.32020906909942,-9.848391066026371,-9.687168308077291,-8.19981905652021,-17.49441175449151,-15.118155660197594,-9.747269287219805
41979,,-7.457677511376217,-7.990885892369524,-14.51970554259258,-6.648540762163453,-10.40520712065874,-10.979474240089072,-9.049647690293291,-16.173948165523424,-11.31901061914106,-10.045370325150223,-6.11096254710085,-17.16745695961214,-16.301164698977097,-13.298753572653926
42229,,-9.456629104779712,-9.618421550475452,-13.616290991361277,-7.913645825724247,-8.941205146930844,-13.03584581135209,-13.935112405498318,-16.289795315773112,-14.985506250320157,-9.912458441115522,-8.609301378861536,-15.698509552722768,-10.29903527501508,-11.269577284682889
42479,,-11.143422621930316,-9.527956890852842,-17.0610947173159,-6.7077595763134825,-11.54933227516824,-13.8922384451626,-14.854640801447994,-13.56414029890862,-15.817920876754991,-9.812689143000895,-10.877718404839111,-16.29840329231568,-8.409424660131474,-8.519772385416495
42729,,-11.26072977744531,-9.27224533128108,-18.11662949368868,-6.588882793688834,-9.921915877321815,-13.472980961597688,-12.886070884690348,-14.233980495912322,-13.464274830880608,-10.546386556375424,-8.279095761685294,-13.929375100532136,-10.1242296975768,-10.472019731721884
42979,,-11.30419356095369,-11.782641243678029,-14.385462964148372,-3.988241692726784,-7.321937713612067,-12.74657531522962,-11.2140929758915,-16.429901390665368,-11.634871179918044,-11.665786411732917,-6.509449212656833,-14.086235569701866,-9.370132260839677,-11.937446430006558
43229,,-11.405722064399692,-7.390319261729368,-13.300853889682603,-1.454585483311106,-5.591449510695385,-10.30480929107227,-12.41677926511204,-14.78567153618078,-11.38606833665056,-9.14493584912124,-6.279714938151935,-15.19090829360401,-7.515115665982033,-9.279105324291203
43478,,-9.888414561007304,-4.310731890411887,-13.768343510272931,-2.587099647422737,-9.666308455311906,-8.563279752108851,-10.971133426938655,-11.508593562616852,-12.380688458195213,-8.031924158240699,-8.11170354760915,-12.921397624577333,-9.272165492901786,-10.348878454346035
43728,,-10.552520882922554,-6.828547556194011,-16.39287213597155,-2.947131413488932,-8.881726233821128,-11.832001308407415,-11.000213784699328,-13.16013644767944,-13.680500362346352,-9.100705972581736,-11.920463815312967,-13.902825029242688,-11.839237442672845,-9.008516853677822
43978,,-13.789407298875616,-10.265570354838552,-15.98561420443106,-4.074376657764516,-6.939978561023628,-16.453754891057805,-12.130364944793904,-12.98879505484132,-15.527478526440463,-11.930544973840686,-13.58480155220364,-14.783552814511896,-8.396204936952582,-8.958699239015091
44228,,-11.618320664232522,-11.453835794708649,-13.683326701568776,-3.689056145693038,-9.94098788681996,-17.492303196049267,-17.153747126529417,-12.076030951429138,-13.894662612108062,-8.305409369342772,-9.477773929624838,-15.206755663217177,-6.181444348103278,-7.764743507760815
44478,,-9.942255237320266,-13.458622497002796,-16.12038685370822,-6.695118714912458,-12.37837755235017,-12.217497046021426,-16.063850225365414,-12.710923431512017,-11.780695033711709,-7.295182523454446,-8.911634995975097,-15.02821351986442,-8.48463080695485,-8.011510349264235
44728,,-10.376078267346312,-9.374680442911986,-15.678643399613986,-9.289944960628764,-10.032228464350116,-11.984423223497846,-16.96418965142108,-11.441861226065878,-11.49582007644415,-10.480431612303676,-8.838537272397263,-15.22224934423584,-13.212080779992617,-9.967239806604663
44978,,-8.970020942161165,-7.881428414355977,-15.373489243293378,-5.773265310794967,-12.801242496678746,-12.025319155142766,-18.55415102435347,-12.494993037320183,-13.445874890786996,-10.612859814245327,-11.779787315834762,-16.43631847792806,-12.51107645539795,-12.79445227463313
45228,,-9.029885912916663,-10.930561104430293,-14.620929574376682,-9.00525860003858,-12.498637735490163,-13.927753153292556,-18.98192716799574,-13.271096847024095,-13.381617869860698,-9.246630034071131,-12.799401727780792,-16.63744319417683,-8.799700968264833,-10.402633710693948
45477,,-9.42630718294218,-13.029568723770783,-14.273795784629558,-9.919605914462046,-9.73928055739866,-11.76832076876462,-17.666035122446687,-15.35015330583926,-14.095831759718044,-9.13466318274208,-8.794632445960884,-14.07455297804641,-11.61350522535026,-6.495684435498701
45727,,-9.48231873302434,-12.82530471543521,-14.87598799785962,-8.618390241220215,-10.400087206641553,-13.01542280743648,-17.311632246835934,-13.214760230807974,-12.798261455991822,-12.013843535617983,-7.901477357315548,-13.848871998792854,-14.60408932132578,-5.400770557966367
45977,,-8.987430674673018,-12.590011400546851,-15.629991740304856,-7.753275710812367,-9.27848595150578,-13.073176733860103,-17.793637124568342,-12.877592534170478,-12.830098544377964,-10.8513711477644,-12.24529378036885,-14.715948544899003,-13.922022076564971,-6.626656987102536
46227,,-10.988618524983858,-9.40500674431198,-17.02936338403029,-6.931227333351247,-12.10130721181153,-11.903418197029549,-17.194176669406936,-16.722858320391317,-15.390402287774958,-10.3162965444043,-10.458724320746011,-16.753154733013673,-9.796452316880927,-9.830397392758032
46477,,-8.499161133963963,-7.758840242189455,-19.842202845922813,-8.912506359805134,-13.23807394217785,-14.05323778394045,-14.438308125682983,-20.10819049769889,-16.31830104148581,-11.33895486005881,-7.393090230498533,-17.602897089854988,-10.152175736097082,-9.210779652799031
46727,,-10.5062763336648,-10.983693698925528,-18.097472688589196,-7.862985900059697,-10.865407431197696,-13.693506538717688,-13.811801299757478,-16.22189045323498,-14.889377589941166,-12.895191009206888,-4.965830576778573,-13.003839769621225,-12.963702374069468,-9.256268302013194
46977,,-10.189270426814067,-10.603359373183368,-15.539783413186605,-9.25252968128722,-10.325420727137132,-14.258028420671758,-14.947938599626209,-12.3261906296721,-13.659130125582209,-10.320490860071176,-4.6528612556129625,-10.179905132569814,-8.359534382021662,-7.564697716593624
47227,,-11.001141749081206,-13.668910048580162,-14.195860759079014,-5.608069968906575,-8.260979239670617,-13.280094968782375,-14.888272074161868,-11.908357520203747,-11.347983753424042,-10.50253863152445,-9.36536062107868,-15.394365582078835,-9.61271034417831,-4.801452836320745
47476,,-13.416362818226998,-12.316528120631606,-12.212457115556743,-5.375317098270899,-7.82861589128903,-10.684975063105572,-12.106264501510672,-12.198171798009724,-13.07325634639113,-10.151947373766266,-10.507011005952071,-14.087911359148004,-10.943332046769122,-5.002752370921275
47726,,-9.832196081896331,-13.316371656170231,-14.181968177770454,-6.887939141426314,-10.093530685693633,-12.181215323275604,-10.528815657320589,-14.143850885747204,-12.29570592856886,-10.054212971547727,-8.808621508331182,-11.530609413838848,-7.730821418015596,-4.5983636110903685
47976,,-6.872669688251979,-14.220460305771343,-13.415636888412273,-5.814586124392562,-11.385798657376473,-13.593927061250811,-12.902265092829795,-17.30989348539999,-11.628184824718671,-7.244357405243836,-7.038190176973198,-16.267571754431593,-8.453254558540493,-3.480186237666483
48226,,-7.041217828905852,-13.61218185276048,-14.599483853719878,-7.908305635100794,-11.810402755633742,-12.317222802209194,-12.13501049855532,-13.700625617962563,-12.801903635629168,-7.296732016280271,-8.716418273810518,-17.07915025803961,-12.07956737568983,-5.002948394752524
48476,,-7.374362039155181,-10.168800159505755,-16.56957438323806,-7.607591971896288,-10.99814008431608,-9.822156302772616,-9.939287080661618,-10.935429320101736,-10.889753737756536,-11.55065863724306,-6.450754342646455,-19.54454307356801,-9.1588425728419,-6.742247354163582
48726,,-12.317106062056592,-10.44020691227949,-16.88934931157289,-7.867789832441812,-10.639157800274113,-9.772991860953002,-12.935026370771856,-15.068257352601906,-12.088960108298355,-10.587500513579236,-6.615144331314218,-19.56832947332148,-9.612149135555727,-7.7483495064451215
48976,,-7.874929356059413,-7.212591458683077,-17.065185154961192,-6.914883544147743,-7.710226626811922,-12.257942819233792,-18.0668033301805,-16.05566010836072,-11.021547480459889,-10.924807253566732,-2.9531223469382226,-15.894341304595914,-7.996266926065207,-8.474945006595009
49226,,-6.816767766817739,-6.933785898365002,-15.086960530253224,-4.038381440087752,-7.423357471449305,-12.497374252465052,-19.42856713205638,-15.099649325965416,-11.393931261418835,-10.512600565890128,-2.5352012850388066,-13.65217260933534,-5.216215779542253,-7.893515865551938
49475,,-9.364319415082544,-7.687704851663019,-15.062615201716715,-3.4940051113399746,-12.06671334580244,-12.027210426584698,-17.57068072400314,-12.569383386261288,-10.188327164723228,-8.594078331356211,-5.452498489744468,-15.156953343776678,-8.442335532247622,-7.356737267466658
49725,,-9.900652974684569,-6.060107335248688,-15.432576090588537,-9.8978888361825,-7.662348831831234,-14.390745726012902,-15.257654653522124,-12.222409374610612,-11.692751912829138,-9.193244833777795,-3.4621122360847223,-19.37886858242132,-10.039270919291248,-8.843440900934919
49975,,-10.20416255769279,-7.248660198132533,-15.636495294213136,-9.311992405415436,-8.044249468258556,-16.842603551216133,-14.89156414088563,-13.07059229929645,-14.80992244211122,-8.295157319323835,-8.562212042757974,-19.022117448078497,-9.074009910376482,-7.722366108022351
50225,,-11.298370213958828,-10.65683103632206,-15.340579682975054,-7.025253068365664,-10.04775896058664,-16.4146289803668,-14.49103985331693,-15.690620334256744,-15.187717537209018,-10.5085936760138,-10.834384194730951,-16.23329833662012,-11.002453986003104,-8.630845864125746
50475,,-11.964037663187204,-8.999176750885336,-14.01061801034744,-8.228290090897662,-11.13946101089574,-14.73643218853825,-14.70627590080685,-12.849191853535649,-13.68190256043038,-11.794495383851256,-7.295838631981662,-13.495707194457658,-10.804823028634855,-8.778459257753372
50725,,-12.804852697631665,-9.384730257780763,-13.289645862075382,-7.860394064869409,-9.260735160928174,-14.035246649116468,-12.085494534233147,-15.365804726970062,-11.014598649803435,-10.126068277706173,-5.542707799918687,-13.971085818470364,-8.722889497447767,-10.540479450517646
50975,,-11.303149399190549,-12.695175377199732,-14.396523651420098,-6.319414825717433,-10.107504911829208,-14.410420791729065,-13.0751376733195,-15.097622877840069,-12.19648118086332,-9.905030134325376,-6.457431898272722,-16.082147289617396,-7.132059738869092,-7.573510026359047
51225,,-8.323604594579395,-8.337993393736713,-14.356122762480664,-4.967838407167622,-10.864329806463669,-12.95673587644173,-15.257032171867763,-13.408240539852343,-12.630558337316344,-9.936771786662916,-6.190627643623346,-13.300025276030192,-8.309329079093411,-6.756134107964541
51475,,-9.71725676303467,-8.719126985474986,-13.873083338465834,-4.260808454781558,-8.273542143091047,-14.02721988588733,-14.16723726679457,-16.17044306131192,-12.271235720066889,-12.19822717314111,-7.749469625253981,-13.905686054861574,-8.618416268941463,-9.670770423760322
51724,,-10.616154766743003,-11.636012330557293,-18.83873044790837,-7.30813870129368,-8.153299579105708,-13.796314638029736,-14.35137189814628,-16.174894047246035,-14.689181006519902,-14.362372502948224,-9.842606168745986,-13.242726222713896,-7.074011595910736,-7.129775845427525
51974,,-8.153982753137033,-9.954626904985894,-16.89264125860544,-10.181032682295095,-8.351522193629197,-12.285795113879622,-12.704654034776429,-14.936467778304625,-15.024795276715103,-10.032332836787004,-10.982135460716496,-13.325266394396358,-7.868207611833416,-6.405803880868306
52224,,-7.870276046246464,-8.760748411456854,-13.845801671277297,-8.66768524735563,-8.225959699094838,-12.679746812679271,-14.124467830775828,-14.249515360588848,-12.63085499547506,-10.18763405982426,-12.49363648614069,-16.01087825172442,-10.350667703921648,-8.03173542647958
52474,,-9.781071582402468,-10.624585782768357,-13.22980795197692,-9.480091041994378,-9.11816084134212,-13.970626468260356,-16.9530175942319,-13.793667888090209,-13.49977121287314,-10.343249732809824,-9.454375793152549,-15.647411360692502,-12.32107308712288,-6.944316650764087
52724,,-12.35426235716652,-8.178144221778304,-15.288986955714847,-9.869780534671952,-9.36251252795697,-13.474383546701423,-12.286907676698227,-15.63823118808054,-18.57425697502103,-9.489028750542492,-6.347614437503667,-15.403278685530257,-11.888591525267849,-5.412101616425156
52974,,-12.15724834638734,-7.226217014872468,-14.122787054809756,-6.395261773134507,-6.970505101079083,-14.35396379361082,-10.45620000534325,-13.619618513518454,-19.13952840834932,-10.083828167280693,-8.337713846227985,-14.573290725449466,-9.379503779310722,-6.2754330154316325
53224,,-12.01272169341108,-7.751023884641014,-14.60927315939272,-7.033070968706596,-5.763228202561995,-14.852589444933155,-14.52146430274881,-13.241911983539673,-16.735501181535664,-10.804334411227885,-10.864585723103485,-15.374074583296098,-10.399443434307663,-7.346383313025599
53474,,-11.772014101806354,-11.070083080153909,-16.95538510000266,-5.276682027137918,-9.381455745798084,-16.664860439910747,-16.509320843920367,-14.024277012069234,-17.422519856594086,-9.6384310179603,-9.831886487778124,-14.073131649157084,-11.188389956678854,-7.408584235749231
53723,,-11.96690010561622,-13.879141518399347,-17.82934344621612,-8.74752862841919,-6.888268048963538,-15.207707601651991,-17.267233168816357,-16.073987314443418,-15.579194117013824,-9.452715320927773,-7.469175630551215,-13.742080297487824,-10.010159906278286,-9.86576755490202
53973,,-10.12544950976601,-14.233732092285074,-16.3638935181239,-10.898896851338042,-8.888784363904277,-13.642253254205954,-17.885837272031957,-15.398601291776668,-15.22712356320925,-10.150595974376191,-9.569911091129288,-16.297863596316024,-11.386195939452817,-9.504723305619404
54223,,-8.375394635116978,-10.805098956553389,-16.038099672106213,-8.199201984608086,-9.040460102915493,-13.928294432281024,-16.212955697668455,-11.653919510071027,-11.513793314101854,-11.087049837279393,-9.68064998076637,-15.219994234470038,-12.812564984961297,-6.202136017070741
54473,,-10.69101904517536,-12.94978345807152,-16.587417502391904,-9.0514628030844,-9.766302282939987,-9.084763092311457,-14.961853876603913,-12.570409410858804,-9.356925551505274,-7.490868741326752,-7.621480808742608,-15.28052103694386,-11.226445914449672,-3.3404893301053167
54723,,-11.623643840816534,-15.737745982743608,-16.082045394108754,-9.173945594501664,-10.093528599979011,-9.588329463297136,-13.166268458383286,-15.943191662377728,-12.874932135647455,-10.027536948903474,-5.88729058985031,-18.01272097344723,-10.564067094618991,-4.644143852393961
54973,,-12.31031143683177,-14.297530725848826,-14.353818545230991,-11.46107621461564,-11.619296089415844,-11.860546572465704,-12.904653266808385,-16.59650035995752,-14.570516980415304,-13.038911570251294,-10.548922687054771,-14.293568956600785,-10.21694837247172,-5.519970008759605
55223,,-12.565302157255518,-12.254197669579144,-13.392021556764252,-10.823816148680176,-12.08468944490708,-13.663979997450324,-13.209512970794236,-17.95180871032954,-13.4365582482288,-9.93139578121873,-10.530844820672735,-14.002359639114152,-10.587029185983416,-6.815566647343935
55473,,-11.231378924248045,-12.14096715900719,-14.25443207363401,-10.323250220568774,-8.989523346490708,-14.361841843393918,-15.152132334093622,-18.58352224008545,-15.231280160623724,-10.19184434727306,-6.729713699889244,-15.884216078372804,-9.75872124996562,-9.3254705438872
55722,,-10.693695264155291,-12.801412378483477,-17.642501415730965,-7.747924814654939,-9.084855591569925,-13.359660776074618,-17.177267431823488,-17.905133620732034,-14.8749104966425,-12.436505465314916,-4.543447876272331,-15.682495710731844,-9.274157738166984,-7.356336770762775
55972,,-11.065750105525527,-12.258768379291851,-19.579308888671783,-3.5117643223221067,-10.811224928467894,-13.449325853860245,-14.469560307756511,-16.07029924521608,-10.564613175044142,-9.494566618398984,-7.5403781425738785,-16.181491021701962,-9.63091170936502,-4.880210961082695
56222,,-10.686591749631384,-13.976027365820386,-16.243665129992255,-4.497020686194011,-7.475833232041163,-12.68211103208326,-13.601129367174156,-18.92752312571169,-11.27953180959748,-10.8829399059901,-7.846371463687287,-19.293122968630087,-11.186798103809553,-4.108530126658204
56472,,-12.661760109468922,-13.58659080434115,-15.558330561592085,-3.616555124264746,-4.727399802436551,-13.273596038856205,-15.77595655021695,-20.39252005601132,-14.782416566510095,-11.148077296571,-8.211946916611257,-20.85213379862246,-12.588311657051074,-7.638068469922359
56722,,-13.188996180801634,-11.028696703980849,-17.506320890840385,-4.611813441491968,-6.780428608457598,-13.546906935904524,-15.431420712789938,-17.053985900589495,-10.290594546789764,-6.610652695493224,-7.162463328659655,-16.947327808027396,-10.621981118719557,-7.660761027276653
56972,,-11.27210918306628,-10.60880326635531,-16.08117393006774,-8.663014227981552,-7.219191356805823,-15.687968030904338,-16.058398684498826,-15.130994224802707,-9.44706003328876,-6.007535749681577,-8.98639576860682,-11.988703292819752,-11.385435062287163,-6.245135494679301
57222,,-9.765185011359373,-10.654939136550858,-15.288146546590406,-7.240977539502645,-9.285885135393778,-16.832657628779963,-18.43892353647653,-14.959611213220889,-11.702285650456684,-7.947771047758857,-7.952880632321743,-12.428631089034418,-10.048429770645871,-3.796684282484073
57472,,-7.44898877448793,-11.277419320597431,-16.797657804678508,-7.081635035183589,-12.56771655933074,-17.55383150745798,-15.183101033739332,-15.711715422331922,-12.512447243532838,-8.53635837861832,-5.474843388174734,-13.369456322708045,-11.371973367669808,-2.900594111176318
57721,,-10.008848515462672,-12.648507894002911,-15.714952563197071,-9.893554773055977,-11.403606107920034,-14.968801776212716,-14.101252255357249,-17.003943082004433,-14.363326468648218,-9.764923212131547,-5.7992847366896605,-13.083444507325003,-14.650853347458009,-4.649283664958655
57971,,-12.278835081921358,-10.478785261528175,-18.18363535713081,-10.751304545999606,-9.662861699997784,-14.6085095163336,-13.658140657997093,-14.990835995696283,-14.608734410565118,-8.169490862824837,-8.709664704966736,-13.671428644624516,-12.225008341117665,-5.477733440619642
58221,,-7.855639089917499,-11.56570254053461,-13.331692990617984,-6.996966480558927,-8.547563448021528,-16.80677871832835,-13.79359458387456,-14.571371052678472,-15.318802036944998,-11.15118372266612,-7.674619945487463,-11.487298118831808,-10.181424588692895,-4.779531171420875
58471,,-8.785217439722476,-12.703990195403309,-8.936356789826528,-6.565838640792282,-9.465141807262228,-17.258834026511625,-13.927565405563517,-14.081086645292576,-15.371543993311532,-11.419687407660136,-7.2384420768439774,-10.945467755424502,-7.259517034803307,-7.4677480774324305
58721,,-13.010137535198012,-8.30874829800395,-10.476048732069742,-6.584934293632648,-9.27093793014556,-13.562859114269443,-14.457257494658815,-17.983984101798242,-15.983628412943746,-11.459206069515815,-10.078254665789144,-14.143177082296232,-9.130991648822135,-7.151719104393485
58971,,-13.228396893206988,-9.119274863572963,-15.529913067641544,-6.511596402323462,-10.084164007844096,-12.915074448264898,-12.340478724388078,-18.375500741471352,-15.134686948856624,-11.280006434198306,-7.674322532425107,-15.102153587728465,-7.307547757348418,-9.531577639719606
59221,,-11.368436112260325,-10.76028389067149,-16.522000637421872,-8.247382768172093,-12.262485725972551,-15.953972062295902,-14.643341990964272,-14.63176949075808,-14.09929057097984,-12.297211582097942,-9.821207958551058,-14.94395919410388,-8.87724300798396,-10.94690488042888
59471,,-8.369856195630689,-13.950351498447889,-13.00576422716267,-7.703230227470701,-9.375431608709686,-15.023520362137608,-14.559321814950811,-12.49280696110018,-15.151838297439308,-12.071114613089112,-14.175775837559447,-18.45397731789081,-11.069299641222152,-8.792900621985359
59720,,-10.240861275660851,-14.64931123528607,-13.86364569082736,-9.710130756983627,-9.206266279225677,-15.316417991271685,-12.554337370790227,-14.792961682973097,-16.961643027383666,-9.920225272344815,-11.38439291571162,-16.211044672310493,-12.270680328755288,-8.42107412501493
59970,,-10.72282530953309,-10.530339571550211,-13.601093791148129,-7.727506654510653,-10.04187737420179,-16.729978298614775,-12.023877327054784,-13.632640742050386,-16.491160001965934,-9.391874179237394,-8.745911379713517,-12.096081003204384,-11.931076320779596,-10.68796212637109
60220,,-12.059875375757006,-9.34885477469286,-12.562407557785368,-2.9953941140793154,-9.281441455706736,-13.053069136030032,-14.544359088660348,-15.14303403848886,-14.5621419340953,-13.171480094830017,-7.935608711688767,-14.651285951596346,-8.863567115904212,-11.49681191348592
60470,,-14.829303413078348,-12.56268092649879,-14.679946560130803,-3.215305114962961,-10.234084417856002,-11.717280225760652,-15.57449227894516,-17.802549757285885,-16.437376078040472,-11.205669427020633,-8.884360320036905,-18.11279431659656,-7.758488614383535,-8.425805980444693
60720,,-14.988212498092754,-8.325567541439597,-17.91016517900741,-8.159891292717296,-11.36869236360232,-13.769601875210917,-13.751247454543591,-16.29402445110024,-12.327823451736275,-9.277889692136483,-9.787100596381164,-17.321327393858503,-8.33987394799312,-7.035297202230252
60970,,-10.303738037414687,-8.000191003523886,-14.16274451715264,-8.771074152199613,-10.90761813999876,-12.771827669955368,-15.7990897528094,-15.903730326776133,-9.78049687148327,-10.626320175033175,-12.00870629175376,-17.824025040727815,-11.209637776204245,-10.94572540570768
61220,,-9.429235256600109,-11.455790616230347,-13.398066831919447,-4.500304428304722,-9.54175499620374,-12.684436965179753,-17.87177096742953,-16.920000117282935,-12.107985360263047,-10.05947116570169,-10.6496287991129,-17.724117912712863,-14.02985854640634,-10.248079448003615
61470,,-9.408562429751663,-9.56391654975988,-12.819370302482469,-3.5660969574950867,-7.606425299364367,-13.317931991197447,-14.429796558505746,-16.992951293690574,-15.103700892854206,-8.418378220396985,-7.940390912581048,-15.546824755973002,-13.568234337964958,-10.298263607839566
61719,,-11.250080678360082,-11.992042146322673,-12.800440714884708,-7.330698769329016,-10.163064564835429,-13.39976138210996,-12.32171086161899,-15.527693910548358,-13.685358995515047,-11.702648380467632,-7.4739532252782865,-14.371824725036968,-12.398078445278797,-9.039944018590006
61969,,-12.02685421211428,-12.342240920980403,-15.60086214478016,-5.359165882546551,-7.5434527405999585,-12.59478342915359,-12.186900844591635,-16.116238768263788,-14.274807976066684,-13.821621534441618,-8.618940874461009,-14.870840664614084,-13.723838329041138,-9.86370395592182
62219,,-12.058208645098578,-7.353194952624347,-15.91175091376822,-3.753102445149203,-5.884815583232936,-12.112716179957602,-15.28991795476484,-16.385209989829804,-13.522154231719128,-10.152346440318365,-4.974357936403944,-14.390913571482226,-8.325670450961216,-10.781054478740792
62469,,-12.007544716511456,-7.926981760724688,-13.965344858179227,-7.254102175965214,-8.059867173591002,-13.086937743602396,-16.78762979505013,-16.355880364736265,-14.765089775957144,-11.252300858163167,-6.720106356129727,-15.561294379415989,-8.160300057565255,-8.778253625446563
62719,,-11.636379748547462,-7.48032162390618,-17.30592798206971,-6.442644519846934,-8.761489409392846,-14.93101121710203,-10.069348303623851,-16.365287041530827,-14.94735118102441,-11.864198294370198,-8.878714829121963,-15.197914417180057,-10.949057973850431,-8.431072176371382
62969,,-9.627029711820342,-6.832198265497794,-18.901867837006677,-5.727786950898716,-9.445655325688344,-14.608141423184456,-10.434676675111326,-16.272641932533528,-11.271958052646498,-8.351424375167717,-9.219500243083656,-13.803684186286825,-11.5518961149877,-8.287801391444159
63219,,-8.571737774562582,-12.523582674869054,-18.336423030141567,-6.433067899169892,-12.225421600986335,-14.679723304724892,-13.443983100283564,-16.573260085135164,-12.753081679055178,-8.820309718192902,-9.939867593164308,-15.969713746005317,-10.371038057375827,-8.735758942761944
63469,,-12.164758226029043,-10.744214835572102,-17.287233125469765,-6.034498439086785,-11.548722232438005,-12.359435950220863,-14.385801839183546,-15.267864639946977,-13.858600250251037,-10.447898338041286,-5.3790641006723,-17.051179960444077,-7.050737593921886,-5.948049469014213
63718,,-13.028585590976151,-7.815123916082101,-17.026731250939527,-8.020742690426424,-9.491435554596348,-13.458514595145989,-18.49142675046503,-13.515631880446374,-14.861503258306277,-8.987230146116465,-2.755233531804806,-11.929399618827643,-9.87844713397552,-7.092675679115509
63968,,-11.274147712008524,-9.952877587178836,-14.228841794679887,-9.250934946683438,-11.45112485932227,-14.690315076698406,-15.984517947147877,-13.80308321666855,-14.31404011816426,-9.075310608757244,-4.51967958391152,-11.411404158701476,-10.923117193296488,-8.263103636562738
64218,,-10.341600232785218,-9.218158843751016,-14.898101933567636,-9.017018154220018,-13.30078903296524,-15.614387845351253,-13.940094661666302,-12.993756371731148,-12.233122919426831,-6.835176696280884,-5.946952784779148,-12.373073995446504,-12.080559176655862,-5.053038522985465
64468,,-11.325900700096124,-9.620070267201823,-14.056611731736853,-6.38499333378563,-11.516621867638596,-14.450001161482042,-15.811825418803648,-13.171537933866176,-11.618181583490625,-9.887839355684216,-9.402222292172578,-14.653170880584504,-7.666274184160152,-6.087389874834997
64718,,-8.462496533253148,-10.62000191357164,-14.552246557769704,-5.902853960935595,-9.442871666487132,-15.716626769838063,-15.794354906890916,-12.982153871323952,-15.339395574511345,-11.736580575763307,-12.69915863566725,-16.11245031771209,-8.20754185961103,-7.01223929239304
64968,,-9.24107913680812,-12.59291270015976,-13.70521791699759,-7.185873220138105,-8.927205976752704,-14.164048385795574,-13.636970435946704,-12.015098059552976,-13.29191195544329,-10.647886733345594,-11.42007841215042,-16.090216071772584,-11.259352483647511,-7.721790550813552
65218,,-9.631218268885611,-11.907797427101778,-13.655172276820297,-8.059535430620446,-9.498171922443992,-13.180193467468166,-16.39281840454656,-13.019709615769884,-12.706102386164227,-12.787186110008443,-5.344311691737164,-13.669507518198005,-12.7578776986307,-7.026887583582264
65468,,-9.553084769083302,-9.900878300281972,-15.918425022702072,-7.477676273374793,-9.278097169496991,-13.210342439163904,-16.534613959805316,-16.583417408332526,-15.413452924430109,-8.056701378078477,-5.655138152396519,-14.10999518865128,-11.781433575691446,-7.82145344241591
65717,,-12.341161809417873,-7.935317943593539,-15.239681401462752,-11.049461752156448,-9.290985797773857,-13.560245980743517,-14.56341125634972,-14.854269674693889,-17.36841263113054,-8.674653305204702,-9.457451366654514,-13.270058430503347,-9.621493395554593,-7.172302216577489
65967,,-10.881902841899436,-9.840840464258982,-14.583991561511024,-6.954701977433047,-6.723463252873383,-14.29485379062365,-16.384997087009232,-14.844485482769068,-14.464770058634551,-6.358323908917725,-11.406663106572022,-13.866604766972346,-13.311377514357796,-7.317052173265479
66217,,-9.818704215196766,-8.854042285192257,-13.2910210984306,-5.254324138392395,-8.512762883929998,-13.527689338927422,-13.902906685981868,-13.420990339433994,-14.608332456870968,-6.231903186933384,-9.576680583964215,-15.70065062108496,-10.594001253002087,-7.570255675763403
66467,,-12.403576366751414,-10.166081432200624,-13.609696106877545,-4.866526261050378,-10.315689107166932,-12.613984470436176,-15.942466422888318,-14.033580472838748,-14.007621005889856,-9.40959031977498,-8.90280514004926,-14.138612491963451,-7.93960514986709,-8.021094934125362
66717,,-11.04514536047814,-11.757210120142618,-14.378540708001925,-3.661828729512602,-7.27269323739279,-16.847090213558182,-17.22222563370901,-15.669943030095007,-12.785884890794602,-8.267985701100274,-10.856321611071584,-16.462274326533308,-9.993130217304126,-5.480748721618872
66967,,-7.012788589431541,-11.53520487667905,-16.363687300458267,-7.418528742529671,-4.555321142504201,-19.303396208939425,-17.16280847780871,-16.53906068885349,-14.47129860298046,-9.071940525076926,-14.637722026566852,-13.964382287785424,-11.714462252463832,-4.966623115041616
67217,,-7.178618009775439,-11.471239109755976,-14.481492582276177,-9.694150844423238,-8.04912253500801,-16.329433370790706,-14.96224640144149,-13.698704361016452,-13.43536355192159,-11.340954626838515,-12.211027386019166,-13.986910750036778,-9.437793144711794,-5.038469713440311
67467,,-6.835255989321353,-10.108840348861182,-15.208671186396924,-9.569977780420864,-13.046710009282789,-12.662345554156689,-14.020004327508804,-15.589937449174563,-12.648168468105228,-9.31750155554986,-8.415747145143781,-17.596898240853086,-8.21354364214078,-2.999750405444523
67716,,-6.979872822318609,-9.560104538142738,-17.626453826573552,-10.00771413805715,-13.700274905979642,-12.085431192765444,-15.590241772731916,-18.18361218789685,-15.918295092362245,-10.782109049613178,-6.753865824059369,-15.608930673956747,-9.623612268054812,-5.1161211925327095
67966,,-10.008211844771044,-10.411920151696908,-16.143007302724357,-9.793384995807436,-11.170518386436294,-11.935980637719227,-15.06704457301061,-15.765241539248072,-13.537064148683616,-11.230459857127578,-9.867976487319138,-14.516107615810592,-8.862368702728144,-4.069962468056044
68216,,-12.918414771501396,-8.41964508807424,-14.089229630603617,-8.056121172998477,-8.382166858712269,-11.8732212109932,-14.763570910097046,-15.2114974229222,-13.120683088966077,-10.482937114159906,-12.163932472415851,-14.47323647075898,-7.073128063724248,-4.437790266360246
68466,,-9.152265138684166,-10.18716577682778,-15.25195069831952,-7.5130144764627795,-8.465449483449824,-13.731896607861431,-14.147975948780084,-15.831604875234744,-15.007542253997467,-10.320382148423466,-12.542152373754442,-15.42908434097571,-7.578523860975035,-2.4063578567343518
68716,,-9.35453813010013,-9.621504605518297,-17.634259006418777,-9.3282381417373,-8.878389274768011,-14.004775505302758,-16.06050055241243,-14.430667962402032,-12.027645638850355,-9.588979513961531,-8.812693114806496,-18.08273583164155,-9.256323429863585,-3.169128368512106
68966,,-12.174910794611185,-11.59239063181242,-17.931027754197338,-9.765504821134428,-11.244856627797022,-11.775553653382708,-13.238780527714963,-14.54590910588692,-12.372540692342389,-8.042917087476207,-9.768715672530968,-18.514325946609627,-10.383900504451171,-5.64893158895708
69216,,-10.009917188443252,-11.514466699085633,-17.72882589332736,-7.516069318140777,-12.134328929673623,-11.351307289831068,-14.095897986696947,-13.204581465298768,-12.553662748479228,-10.1373436737897,-9.546491448386217,-16.310336752740028,-11.867580098570372,-5.683565464768115
69466,,-8.184395023193003,-9.1861581382648,-15.76469362292734,-7.949493937722789,-12.569198334293391,-8.940603185419745,-13.097707980373915,-13.379214640762768,-12.75761505472618,-11.855499761548266,-9.918380928468968,-15.482717459428615,-9.904013246931996,-6.476142091915152
69715,,-8.935846309211158,-11.51207738582267,-14.946539458553602,-10.125323463417644,-8.226974126210289,-13.245364962572996,-12.60865062414676,-12.88912750280771,-9.522501141516544,-14.17117026001007,-8.337191502771384,-15.337500601385283,-6.505284858989783,-8.576185873629536
69965,,-10.452674339074068,-13.897263852345214,-18.36700312687509,-6.908030125311785,-8.944726828677133,-13.53379396326907,-15.609811300276126,-11.412414184269398,-11.82018259845668,-12.558452107195045,-7.915869425755573,-15.9399376155042,-7.575661747772725,-11.517612259684128
70215,,-9.146347619077478,-13.247617365298224,-18.094242344778348,-7.984271765227882,-12.706568368311054,-13.583509728520776,-17.112075333024066,-12.156663734165107,-11.639184034388157,-9.26376164165709,-8.121630285136433,-16.507226802059634,-10.74178975557148,-7.628744663205742
70465,,-6.4767317930565245,-14.28891579782225,-16.089354833545283,-3.6577956503221385,-11.26447720097364,-14.639418080407356,-14.638057728787654,-13.753752631019566,-10.71643774852316,-10.486284275418008,-5.42415440214217,-13.971237525753573,-9.343764163585838,-4.900920595512895
70715,,-7.345198668919568,-11.153999624574178,-16.94354335359932,-1.7406010892990391,-12.540195251864382,-10.425376344188034,-13.583665826801798,-12.924363934554062,-14.084425155708828,-9.56401734090192,-4.246305108080704,-10.73414429821662,-7.633910126209709,-8.392681160338336
70965,,-10.796130259367482,-8.954900763993345,-16.20377480448817,-5.191409326311326,-11.732268310692929,-11.507310539788737,-12.241607654049645,-12.536463997286996,-14.124105355035754,-6.583075395736366,-9.603682570253188,-15.344165442885291,-6.482063498943617,-12.349766171270216
71215,,-14.192810319891402,-10.183600419944556,-16.39128034363958,-4.390530214770493,-9.305490556925536,-14.442257097928405,-12.433146942292414,-12.484493098451406,-12.297036283640468,-7.78047359741177,-12.35992818609015,-15.25506565491309,-8.497999357103328,-11.463542623053012
71465,,-13.080389520422743,-11.111686066411677,-14.693212552386989,-7.895430979451397,-8.94462920765826,-14.581443886388122,-12.298691442190464,-13.934602591030073,-10.0431997485817,-8.713052949064723,-7.688527876005837,-13.949154577094616,-8.593932992284346,-8.516140144249034
71714,,-13.748963740182846,-10.47015036476191,-14.316547299139902,-12.55994145643494,-10.090999279311651,-14.876494847251076,-14.563245543954178,-15.554298281775765,-11.081766009946502,-9.53574902512083,-6.944586659468374,-14.570895510297728,-8.676317702711739,-10.184916827912412
71964,,-14.146514825903951,-13.877360242992696,-15.836896037419228,-11.63042064553268,-12.108681746714806,-13.020991284298066,-19.01410612202433,-17.488766701734864,-12.667784526015865,-9.211345302800831,-5.420227313677739,-14.27751732542967,-9.333008332920414,-9.671897367700396
72214,,-11.981298567487055,-14.38561756106722,-16.513229138187626,-6.64741218568394,-14.278494724091672,-12.231629235085297,-14.952116204066556,-16.391234747963672,-13.43037545069776,-11.443211387957884,-4.743855299884975,-15.093361597732184,-8.489791717266609,-10.568227869469936
72464,,-9.531450005076495,-12.33031520272874,-15.323281008835236,-4.7320399999751865,-10.95931749188512,-14.712127774450376,-14.485560112122348,-16.11737630298768,-14.15641480324269,-7.847365469740126,-8.910028479424568,-13.98890138215824,-11.434523887476702,-8.523408039747078
72714,,-9.772204593873552,-10.679015955361749,-16.306736655368734,-4.906190411973959,-8.471527859373392,-18.25192321433747,-15.318006611960367,-17.69674376416325,-12.821977361666704,-7.1519343506613495,-11.84526091387815,-13.15144701053482,-15.266200497595758,-9.005636791278011
72964,,-12.645637701510502,-11.720876383712396,-19.773499537122834,-6.303097868551838,-10.14498414683667,-18.19585339022006,-15.199144722652598,-18.602262537717746,-14.294440130008626,-11.045487172187816,-12.264009814852985,-15.597450502897324,-10.817187497048742,-10.311434813176849
73214,,-11.191483435349332,-10.746840540386756,-21.04789147772493,-7.475597097912658,-11.89105740703216,-17.554725165550465,-17.906897960887438,-14.796215086928076,-14.121345883764636,-10.07637630919507,-10.498360814300982,-18.4422532362342,-11.048455910940987,-7.884356069793059
73464,,-12.171288361759045,-11.196212221413765,-15.75661180299946,-10.776358569527725,-12.721682738483356,-15.568925819288314,-16.857264288486412,-12.192918042875458,-10.221195869366904,-10.402650747985902,-9.119655080818085,-17.067962816723977,-12.475615157415032,-8.97818331103238
73713,,-8.737464308290843,-10.890064105319103,-12.96379354018052,-9.921759208386876,-14.897028056537293,-13.036621264145849,-16.2125760504678,-14.455748271370068,-12.857534620806025,-11.430088317592585,-11.700492197611627,-17.937682561216786,-11.784847989872484,-6.760362101400218
73963,,-10.527917796157382,-13.056807839538967,-16.783576028184562,-7.109529046746541,-12.663365689273384,-14.345013948253298,-15.65800361148546,-16.655857101977542,-13.08003991477743,-13.093146280730146,-10.641878633400625,-14.597120510520178,-10.884817344380709,-4.257875876017943
74213,,-10.379158444474903,-13.647523097752195,-16.346105485772316,-3.039459535269708,-12.976821891562151,-16.7560327628629,-14.84510992535564,-16.08873975273657,-15.601406262124334,-13.789200660881672,-9.391956697589707,-12.401386688686918,-11.8405334873561,-5.535546768336667
74463,,-11.57627563409765,-7.643010110904286,-13.32455293154256,-0.7641923581409994,-12.51172165776885,-12.243152442544345,-17.30061119681447,-17.32905503811886,-17.20506729665669,-12.223111653693913,-10.330774352652185,-14.49620159853966,-10.477145307759448,-5.418349009117765
74713,,-8.01410118114374,-7.17230449493242,-13.71183599048576,-5.052977842068364,-10.67183555245868,-11.044031506476026,-13.54919097709157,-17.2388479808395,-14.973744586941445,-10.012711040113292,-8.66226677830215,-16.61768759505148,-9.920119429065023,-5.465976440925728
74963,,-7.537371591783515,-11.281091533646045,-17.226865228229585,-7.444624299145698,-8.888889898394277,-14.590058952250509,-12.071810880574514,-17.82709982135543,-16.483979420008982,-11.5587336067886,-4.391606469345301,-16.836851367536198,-9.539162269516558,-8.816254664027225
75213,,-10.892481736117068,-14.077600830750168,-19.28514628024832,-4.809514669989104,-9.896911204553533,-15.756377299663974,-12.104315529218454,-15.816865144731551,-17.986839554427213,-11.943108084734211,-6.040653407961965,-13.251678594822163,-9.646919673911484,-4.971761106254044
75463,,-10.75979521612778,-14.827022793277028,-17.24244662339156,-5.481620894950635,-7.814795370681694,-15.478609814973474,-11.759891408884268,-14.59202334492727,-13.750424893088686,-10.25943111671534,-8.528871886385232,-14.593053614491405,-13.106107716620388,-3.341410659056302
75713,,-8.753117068812807,-14.767575816426966,-14.69769306538684,-7.022357777230495,-7.385307057097239,-13.628575744614182,-14.667472077917497,-13.21491960061798,-11.572843284740896,-13.005542987952404,-7.148434650071534,-15.103772990497305,-12.228007704379728,-6.074996858128844
75962,,-9.852651768360126,-11.386189308883012,-15.214483029322768,-7.617681593016332,-8.563627203555846,-15.286651199132184,-15.09147302723872,-11.341741524350216,-12.541427299362704,-12.656257447467842,-5.742845884129567,-12.433280198646315,-7.735117458419925,-6.165275963806555
76212,,-9.477686502846671,-8.647756948542458,-17.352480396957624,-10.114852834937318,-6.810304885802902,-16.691270634520453,-15.376400327088612,-13.707965617408082,-14.215122587439124,-11.87156086119035,-6.972154546638177,-13.51356168258276,-7.681790109645826,-8.316681485069482
76462,,-12.04036669363688,-8.474131550156066,-17.336193190530924,-12.0894973324556,-8.783198652104844,-11.464232136873845,-16.88370075704235,-15.284679278004178,-12.871694702186154,-7.320162213801444,-9.353917266516156,-15.936919157805388,-12.99518640174768,-9.128088830623472
76712,,-10.0613353252067,-12.930931700398787,-14.50439375122566,-12.05835633551812,-10.121814128770955,-9.730788679442634,-16.338384721634274,-15.871312086643243,-10.517363731558053,-8.268820264340786,-10.140360297162513,-17.388378643228,-12.4509065651786,-11.25430381492792
76962,,-11.734130373529206,-9.520786196826808,-14.078146532168804,-7.266702367621144,-9.263537693954644,-11.206911484510616,-15.378292670686635,-16.752890338407035,-8.993411712917043,-13.236244374704585,-7.452668939090841,-16.327270140305743,-9.309663625252794,-8.740489137788378
77212,,-10.418866214772288,-10.14015372320511,-12.881400115436632,-4.622705642751768,-8.4453500719535,-12.376345811920988,-12.20184854556653,-14.269777729400976,-12.06479493355252,-12.421877908250432,-7.166473866611315,-12.463331840661292,-8.843242286426413,-9.719429785874542
77462,,-9.468291043052302,-12.2008464507254,-16.238055605855802,-7.654049974181653,-9.056048755746746,-11.945442892748217,-10.924937279431012,-15.353584083557966,-14.245297752992556,-10.777034683237016,-9.16601979827863,-11.88636846427057,-8.020951185092395,-7.414586534681053
77712,,-12.426263080488257,-10.87049559356662,-17.54488697658207,-6.911492411457321,-14.016144337448225,-13.362673619526957,-13.324724473328953,-14.068328476322682,-13.68666917328108,-12.345937440569744,-5.559982044979988,-12.72419199714018,-8.450033396444974,-6.081600194852799
77961,,-10.598832771416228,-11.421996971454856,-19.55275933796482,-9.253698229215829,-11.044037711963814,-14.875919491770407,-14.297559205900985,-13.5832272022019,-13.683351745821737,-8.775341455973498,-3.968102923173266,-14.779907525430726,-11.192826560540446,-6.342044879461874
78211,,-9.314641596401298,-13.381010590766367,-20.979930496809352,-10.695778185706123,-6.990142668642337,-17.010226939903173,-12.13871865191534,-15.605455534686923,-11.775984856781696,-8.962709802829545,-9.396638171776306,-15.554222062293208,-13.129527945441648,-9.474520215424173
78461,,-11.201256999077234,-11.881809003180738,-15.777359000579729,-5.550640858659795,-8.234684073976503,-15.977811085116452,-12.692318455077473,-14.927681127331242,-10.829303133700844,-10.339120025607851,-7.542245363097344,-15.252334874819056,-12.351632489357044,-9.40190534652999
78711,,-7.935042217684294,-10.676139501773877,-14.233971599875076,-5.70053840834427,-9.126544646726575,-12.97464101182677,-12.725513049619554,-13.68039588639698,-10.53054467504624,-7.095711846066695,-7.198303810292287,-17.25372151711855,-10.999459673778023,-6.57844829641801
78961,,-8.89429636671349,-9.502447897162888,-15.59012382147965,-7.271189771942028,-9.744881629531587,-14.550243156846076,-13.326589698758353,-15.877706149701927,-14.15260583000564,-9.269920561445144,-7.614778111287428,-17.029100617636136,-10.887661096508888,-6.9821856618157465
79211,,-7.225365896449167,-12.12573539598048,-17.10880348016103,-7.701626046721806,-11.98577514206274,-16.517875241087715,-12.185247336326086,-14.613337149257262,-13.506238678860267,-9.5908346106988,-10.332728418871874,-13.404733653946776,-12.040844408929088,-6.129325811233218
79461,,-5.672310254976939,-11.484149032342875,-14.538907230200076,-8.259815172333987,-12.368916658525958,-16.327877750484014,-11.951949694323767,-13.170494431669958,-11.076776229170935,-10.133313028491555,-13.04165998836984,-13.281123171118889,-11.334711307130604,-5.361439035899612
79711,,-8.039462231277998,-9.286150915247028,-15.743093851516416,-6.56333904054557,-10.585460460850411,-17.17768218805316,-11.944561802639951,-11.99682679280415,-10.61460536935252,-10.73804979373308,-10.229578019397705,-18.396017283574857,-10.343200228817953,-8.481442120998143
79960,,-10.58031015355004,-6.926847206301487,-15.992540394899812,-6.162839489656736,-6.533754818705512,-15.626002288065528,-12.953256461894648,-14.5870802754711,-9.873605891927262,-9.704261148398516,-8.566597509696447,-20.62001428943043,-11.168068251767997,-9.648028647754233
80210,,-12.039313976650137,-8.58313457395247,-15.609588889147794,-10.406481781976606,-8.804121683716454,-12.12533360040246,-13.38995510230762,-17.40148219193075,-11.496289898268737,-9.84861085546978,-10.3811454538332,-17.447177740257686,-9.051373982079497,-10.482959684229078
80460,,-9.844707157346807,-8.63934188648377,-15.835741910679946,-11.715761526468928,-14.430768414927792,-12.405577886442549,-13.476119943993774,-14.844989313299756,-12.423966033257926,-8.337156659506755,-12.716170253228016,-15.496985111079962,-8.0450935292176,-6.82999015355016
80710,,-10.167175177232528,-8.737502287803306,-15.276460615850848,-8.970688733785648,-13.800369834210723,-12.993430717510863,-15.898161159625335,-13.839156977962958,-14.733192359566146,-7.983950716778883,-12.853825681562652,-16.493872984935983,-8.414025496708076,-6.458921154745815
80960,,-11.130532827125686,-9.336356070145456,-14.200212014957993,-7.48171404089897,-14.398336083491522,-14.31076635321712,-15.090052922609956,-16.538366439881646,-12.621341037064584,-9.968811626852215,-11.777818279349754,-15.947048249204151,-8.157658434012996,-7.937405223444609
81210,,-8.675723869721551,-9.528452900523574,-15.08901173285925,-7.615719854987237,-15.45642816864871,-16.198634901669237,-14.182495383443875,-15.27729970251508,-14.578666183938008,-7.222792447924123,-10.247838844866957,-16.753776855654344,-10.183419403374396,-5.493937953522349
81460,,-10.78115199735057,-12.7534785920229,-16.184323516722987,-6.903278788858955,-14.46327737578302,-14.196514443541982,-13.57121360231065,-12.565692383391877,-10.975653020151432,-9.806811816569022,-9.378811951699952,-18.37169371538269,-10.970480187122345,-7.916148308635727
81710,,-13.884124483729348,-10.653107730141356,-17.27915618711062,-5.8023957724164665,-10.811844236562331,-14.910063904248885,-14.057965162852613,-13.048768894759938,-9.464506653079145,-11.941455115495405,-11.417988731698848,-14.451539606087112,-9.830153910070674,-10.272674872094864
81959,,-15.819414621500908,-12.66460931449602,-17.91328919614147,-7.471998153657632,-9.308133211472194,-19.882784678901725,-13.816443895176192,-12.980874401143442,-12.860991234936025,-12.288306534726248,-12.310632181326,-13.688569070720453,-8.503945754370175,-9.224401476301509
82209,,-11.839909051152503,-15.540101439421433,-13.925797346180858,-8.940228102390854,-8.379435597399912,-18.002566482276293,-12.851523713459416,-15.003499519218291,-15.091843924008796,-10.666001901331024,-10.4674093991017,-15.841599166519648,-9.150888046349724,-7.849967085924765
82459,,-10.576709082207827,-12.576875069176973,-12.688810602913316,-7.079592947763405,-9.887064084672089,-13.798492764917476,-13.860680154883688,-18.296288999077326,-14.847413962437528,-7.969245812544658,-8.837803600265687,-15.405932900278351,-10.741187652340855,-5.465738515443852
82709,,-12.251744664174602,-7.705847137155405,-15.272033807498673,-4.793755602626644,-13.093238491738768,-13.324513250576215,-15.876214102602248,-16.16882967955938,-13.517436527096498,-9.396673223415114,-8.817231371096046,-11.856356937820747,-8.803056613191618,-6.774539181907823
82959,,-11.373622934343256,-5.1935319022829685,-14.553159807879927,-6.464708010361917,-12.8224374350112,-15.197891791744375,-16.174775987909264,-13.94223114297132,-13.868626032879606,-9.180064849471115,-7.625168554646265,-10.33718636945794,-10.460685115973114,-7.723351150539975
83209,,-9.386283451856542,-6.554095009430761,-15.791328329020583,-8.571471476802193,-9.65185148805997,-14.661064368332324,-16.47470292868683,-15.287488934847428,-14.805313656536164,-10.785070881437328,-8.737006461320446,-13.479062980529132,-8.788024490088505,-7.215354644682874
83459,,-10.827831337138674,-9.826677144354248,-16.104608720486894,-6.160126646255868,-8.95875651553197,-10.845875752704268,-15.92731341040664,-13.92456129435769,-16.695975839249506,-8.798117367102861,-11.533955062470367,-14.02974915627913,-7.340490655814719,-5.98206525711054
83709,,-12.969952618337302,-9.002042606185563,-14.783782477950302,-7.350417234178836,-10.45676403969523,-11.219514721519188,-17.700668741554715,-12.890826565161593,-14.878059799839168,-7.508929684187393,-10.294947280296542,-12.455203783232696,-9.016896725163225,-7.598860729580079
83958,,-11.216214047267098,-7.403029910949116,-16.049964537318544,-8.933996145634133,-10.231197522891003,-12.073998172149825,-16.67018287791821,-11.161637157630365,-14.341381501789115,-10.66765918445969,-7.822857033423663,-15.489958019351398,-10.496113618394515,-6.822856878919802
84208,,-9.279677900445355,-7.131593065886724,-18.341289783480768,-10.82966711424416,-11.449577317746783,-13.747930945661688,-15.281882107070093,-12.14842297707059,-12.029816013561067,-9.010674732767662,-7.438717183090503,-13.990242535271047,-8.043090375840121,-4.570786004265578
84458,,-8.739701442891095,-8.102846946052445,-17.290340442419115,-11.228201104809362,-11.399049305510074,-15.319844484733968,-16.04752838983651,-14.69342539297445,-12.054783876275074,-11.408072270059456,-6.905588259823846,-13.65077925538287,-6.726007903230292,-6.027945234978471
84708,,-7.450325850988898,-12.869845961056544,-15.72454880847362,-7.4679524821849155,-11.3910049392228,-16.42933121856618,-15.081806176995174,-13.537335042117384,-11.560993367877565,-10.229724316885951,-9.118376748062945,-14.121460359078704,-9.413285172471245,-7.22464676725688
84958,,-10.245090158096502,-14.74499661857645,-15.280226828908912,-7.095268768254482,-8.960051238744201,-14.509238184940784,-13.799757927037405,-13.245662882520223,-12.860561809609727,-12.848140384935771,-10.554635848858748,-16.82865512025544,-11.443225009388469,-5.337835418592992
85208,,-10.341520267544306,-9.79486840703128,-16.101029844634756,-9.326426893770911,-9.40689877319302,-11.58605278781759,-14.845040073681009,-14.816469343614012,-11.03543632009002,-12.169061114256332,-11.01475333450928,-15.733130364460417,-8.67857864307529,-6.416316768068184
85458,,-10.151093813688266,-9.389571846695034,-17.589845991062553,-5.8310604568558935,-7.924415006224168,-12.336102604566811,-14.5970167630743,-16.729752346127096,-15.27796474260998,-10.872876059123383,-10.133978083049842,-17.478461162586054,-8.435764610266904,-8.179837792596313
85708,D,-11.22944719405038,-11.395020644318327,-16.245217995174784,-5.5813203958012885,-8.58261470582396,-14.233551502079766,-14.794417824822332,-18.12992536138497,-15.65529492816662,-10.247736686262268,-9.943460161703534,-17.867880099148156,-9.799666414512185,-7.9273836843107395
85957,,-10.807854841037337,-12.779877499862163,-14.930319485814788,-8.878215765476837,-11.873533960992882,-12.622007022837131,-14.9385963263329,-17.66753953099738,-14.377279310240231,-8.541231506699846,-8.483407559378948,-16.908292928651328,-8.56062474392541,-9.30371194468024
86207,,-10.166830989325897,-6.245556785657477,-14.028842910970068,-6.192204993121516,-9.54210705036118,-10.336806791146024,-15.721610869634876,-15.989799184835991,-13.211450859740053,-8.095286945270708,-9.089293085118223,-16.462693082010375,-5.278872048398167,-11.64009351837435
86457,,-11.285393484643276,-6.304833207794599,-17.799258010988066,-6.12072935190853,-9.11162041551572,-11.731223709526173,-14.553055756800948,-17.342980052396847,-13.035819665033095,-11.907455436784971,-8.017344026264063,-13.237302848539098,-6.785292586001278,-12.085122693860669
86707,,-12.055311077001194,-9.061643889499573,-14.96171608495252,-4.687731017986979,-7.421661808602016,-15.172024259642424,-15.79451473922994,-16.016231087348828,-11.819592183968757,-10.989082768404842,-9.40891178825164,-15.909424970962911,-8.647109178157473,-8.955150237537499
86957,,-12.093939803381218,-7.70243316319601,-14.808130907840289,-3.689753934852068,-6.549361399413223,-16.028116592618076,-17.4862732134371,-17.230458353675534,-11.754919187886458,-11.093118795443877,-8.59143760239835,-15.232296650165198,-9.787835663599092,-5.536033059105979
87207,,-9.55548079074022,-9.817459793499705,-16.340013135693138,-3.9768581559925527,-8.280663130701146,-13.99167463739468,-11.992896960121506,-16.826527291075738,-11.527384439418396,-7.522775522902593,-10.894979628770091,-13.14396680375939,-8.577183575094262,-5.405500445431529
87457,,-9.138306081586329,-11.125698423033777,-19.59955804833185,-3.9478246617639288,-8.502617768434867,-14.0258643470856,-11.53538991680754,-13.168815727522006,-11.331465515170454,-7.025610341300528,-11.073368066099205,-14.023151754969753,-5.475897813613573,-8.20944933695239
87707,,-8.200041961677094,-11.7746474764225,-18.798639196625683,-6.97852377612673,-10.13629680518667,-13.538822951671692,-13.44564097674422,-11.202592115537067,-12.450941975065131,-7.434303893844664,-8.979682012866624,-14.703437229370657,-9.467348844306953,-4.914329733833389
87956,,-8.683601780466864,-13.594820546418209,-13.389657587281045,-10.95918622105863,-10.933254324019408,-12.80683204687092,-13.32567290715319,-14.853440286896545,-10.240450367465783,-9.88556134590934,-6.046970944496533,-16.7938757264664,-10.57303870969319,-2.989450759705938
88206,,-8.675035477712445,-12.788528601628537,-15.054204109381493,-10.83253423822086,-10.258158567549776,-12.07647756327266,-13.63664299405038,-17.188520991076523,-11.499469016556528,-11.352684074313952,-8.153639205032274,-17.599188088245523,-8.656931479369863,-4.775028585268531
88456,,-10.618178093957075,-9.018266251969022,-16.74881339035645,-7.242645044738931,-13.37611020522571,-14.332849867818195,-12.88538688062608,-15.733207586309142,-13.196023577226471,-10.37266775987034,-5.950122290523236,-17.752004386448224,-6.848711730644195,-9.201226171285722
88706,,-9.52556078950924,-10.061958983476565,-16.043926972771796,-5.268359811241028,-12.08679134549291,-14.803333495073437,-14.214131455534922,-16.61280009996364,-12.47153731353709,-10.388582763688234,-5.4539850778732095,-14.866588480926197,-8.755249404374156,-12.024837575848435
88956,,-11.782664199417232,-10.9225470882632,-12.74017585158786,-6.4514584633888905,-10.535097779626524,-13.407782103383994,-14.590112867033444,-15.773376832381498,-13.434536730428118,-9.895187656255429,-10.643633813776791,-16.202443571830518,-9.513618237325511,-8.881908236071371
89206,,-9.503097788847688,-12.282144845802476,-14.01144112272016,-6.472508529816562,-11.729696438391857,-12.47684619533972,-13.085716359012062,-14.656931469690752,-12.318175267000308,-10.65851472158737,-8.640008026166758,-15.944748082253204,-10.754018526515862,-5.408978934038117
89456,,-11.371761853705342,-9.437394141750945,-15.16534032189352,-8.586506872139037,-8.733789195113658,-12.6054717629772,-14.19230761505766,-16.22951415118299,-14.378501893516324,-10.025766165964946,-8.560439060878362,-15.25125190070459,-10.86589635343072,-4.07840760032697
89706,,-13.681855951601934,-7.546456566893092,-15.97241051368041,-9.914357919151325,-8.499855359589693,-17.4822674454298,-15.9421338323695,-15.091118868626271,-8.8469564223383,-10.608676504071566,-8.135246485178358,-13.265248530072496,-13.293282734100927,-4.946536083088921
89955,,-12.31024169392793,-7.583114289925577,-16.929038710162953,-5.592822007770541,-9.829492327823132,-17.122614107987697,-12.613830628928412,-13.195711095657746,-7.272934459193351,-8.862930209832259,-7.528605887588076,-12.797922360624142,-12.40498550987082,-7.618804311253386
90205,,-11.843415609616391,-10.521769773491991,-13.763228969775978,-4.599429392970203,-8.42808566285141,-16.780144018718552,-12.579130818317676,-12.450400479271876,-12.428417077425856,-8.464120502195744,-6.938195514076416,-11.54571815373223,-12.675825051274144,-7.665702539024918
90455,,-8.693964177321398,-10.09065272064474,-12.697725416396556,-5.027313955515284,-5.093620007525713,-13.955153226664804,-11.046582347386488,-15.4437447530307,-11.60334551263002,-13.990899524825736,-3.736581893688397,-11.944081928942774,-11.952437973080608,-8.482527582923844
90705,,-8.511160889667224,-5.960158725379005,-15.115561612263877,-4.944584174784295,-8.713107384509016,-11.104611118793253,-12.300836728515137,-16.63762017608595,-9.179770991887896,-8.316593505168552,-3.919715813103779,-12.884891504314323,-11.816014552200675,-7.153582449513467
90955,,-11.081696178387697,-6.674815279496652,-15.023962420933966,-9.510771223624314,-11.156292249414152,-13.106866589204811,-15.905803232361407,-18.33282345701268,-9.085428617249816,-5.286047031854376,-5.229557034767138,-13.632465720882612,-10.793347203634298,-9.044954076451845
91205,,-10.79220350893899,-5.998356130770553,-15.016789371624077,-5.446835181185885,-10.212884318035409,-12.16609769594677,-17.64725954372986,-18.537106514692645,-14.068036646514576,-8.803317766333427,-7.401096948472902,-13.219719482141652,-11.565859407258468,-9.757488231949347
91455,,-8.410855703838457,-9.030649956850183,-13.27033105230387,-5.064748218756292,-11.104361013897542,-12.482834288930452,-12.450941354119117,-16.253078881359727,-14.535475970578457,-9.450275326681394,-8.374684417413933,-16.22703680636546,-11.589133802376866,-9.374751213253486
91705,,-8.893029093868767,-10.543372283823064,-17.98542631530145,-4.042764657968954,-8.256975153868128,-12.56648467605965,-9.39524222816771,-14.061571680342668,-12.582581777588397,-8.18735669856512,-8.788791536887935,-16.162736343783394,-9.998096814049068,-10.308615165343436
91954,,-11.613588379456807,-9.163557925674048,-16.350157753522403,-5.482753042473563,-7.702573401398949,-11.944369944351882,-11.75149070598749,-17.27966082614719,-12.547387735092313,-8.464617503746068,-10.33481111508963,-14.507396157787817,-7.643020085525574,-8.935822052832886
92204,,-12.373151542389817,-7.754335481809038,-13.792030397226394,-8.75766238783654,-8.710478920254335,-12.154394422018296,-14.043956342506071,-17.41285136824562,-13.272879494487764,-9.90271786947688,-9.469612184442894,-14.650416712887306,-6.159306020975822,-8.963402805825694
92454,,-8.311792566118648,-7.619348233883948,-16.138216624253225,-7.884678663164778,-8.83428167425857,-12.657879122830344,-16.04894438342138,-12.655206919117033,-13.225527884114822,-10.826572028810268,-13.19766971118019,-14.88250039744673,-7.004833217970912,-6.883007924644571
92704,,-7.4421066249097665,-6.202658411730296,-18.013851125009232,-7.831269070559289,-7.822703899489863,-13.60531120510592,-13.004599317327996,-12.529367017038064,-14.114096473079352,-9.5228719005836,-12.36482795194149,-16.111683534562612,-10.49624197490428,-6.536330180270914
92954,,-9.541819647812105,-9.81552293855977,-17.097995622293688,-4.745625305140547,-9.566472070773855,-11.455410759646757,-10.641805550244248,-13.143920326765103,-11.012620871011825,-10.86832245439862,-8.07356522406346,-13.596747393559747,-10.316344105908,-11.09481999534559
93204,,-11.858467836521427,-11.500388626828553,-15.852688887699705,-4.3196417905747095,-8.018613478599164,-10.204670002160103,-12.635224967192515,-12.510645765842671,-10.750128980964911,-14.40690192964686,-8.536299885224333,-15.107967047325682,-12.409260487578482,-7.455115709871025
93454,,-11.292386822051592,-9.5121859646066,-14.696291776148367,-7.280828432743965,-9.273695308533917,-14.356130029810604,-16.427007116355078,-13.346997339466462,-13.24038743077308,-11.991073571531285,-7.603924101958075,-14.527011360164588,-10.080593840096055,-4.809196888479081
93704,,-8.934940918487843,-7.000194583278006,-15.923577695246625,-5.818466440819136,-11.548912231443197,-13.334284530812411,-17.21172132884068,-13.378282134561427,-12.34513352193437,-10.040019641863545,-8.250999855097547,-15.606406927043766,-6.509504548284633,-5.209749146753511
93953,,-9.78474453035476,-10.37889677527114,-12.963709671212218,-7.397849299137583,-10.701755755286488,-10.787853810799769,-17.30567548067978,-13.685771044755596,-12.742878870226562,-10.721481542333445,-7.989253030051788,-15.55014335421804,-6.726908950548789,-7.003868883817423
94203,,-10.337104773283174,-12.196346490902927,-13.097465176428829,-9.285069556604656,-9.188836421593107,-13.520283715234855,-14.364154304653368,-14.083378944980662,-14.97294093625409,-9.956007993557526,-3.346823006322552,-14.671294565734753,-7.149364141468019,-7.393993926777997
94453,,-10.508536022480124,-12.566119287104234,-15.715077575829914,-8.687696884509679,-9.33388017164148,-14.214310737760332,-14.368837424981276,-13.251414093955232,-14.46986721157364,-9.884939906725016,-4.8192329874569815,-14.371424318189415,-6.514706944383536,-9.4158395121569
94703,,-7.610289652546713,-10.364689864681807,-14.002612869096886,-7.631290220582983,-8.264661119789185,-15.19969632769965,-16.080009981492086,-14.552514054561726,-11.594636639368316,-9.95400658562237,-6.023662822075469,-15.281285281993648,-9.489891926788012,-9.23480923752053
94953,,-7.967834602954545,-10.904258411520551,-13.339923759803469,-7.056494579722599,-10.47350777504634,-15.35185713698997,-16.811342242281068,-13.48708112131473,-10.316042371090727,-8.011167604415515,-5.1816825508598106,-17.437018018086395,-13.903061238188824,-10.022547095310845
95203,,-10.74955500766534,-10.083862695320631,-14.285617866480628,-8.568413253101268,-12.284811181850392,-10.592686808920126,-11.654108141756618,-13.917421332164114,-14.87671899299636,-11.365322188217906,-9.335478518388696,-17.12289505933186,-10.949992015483351,-9.860572995038511
95453,,-13.205624181740518,-8.517963875569334,-16.004608497527812,-7.271113825419299,-13.591782854326992,-12.441588443770366,-12.292452778951477,-11.500170306041603,-14.811275546454691,-12.047642925285135,-10.38580096976267,-16.809557310919363,-12.975606379164848,-8.393595139153442
95703,,-10.638749447198606,-10.541269074954291,-17.67754107202703,-6.406592363103645,-11.091355600101105,-13.169504655949694,-14.44797009705827,-12.61524936133192,-15.05582827083861,-10.571217013287944,-8.465964805199958,-19.14353475341688,-7.240200820408099,-6.94362211240443
95952,,-7.91991306073694,-11.003357672791845,-17.19238993669595,-6.311935085174998,-11.15802776766948,-11.890133861895528,-11.595117352148472,-14.728329450404807,-12.749158986192455,-12.120217576530088,-7.120263439824287,-17.131995806151636,-5.628339004624565,-8.622041372499872
96202,,-9.294525885114398,-11.449202018567991,-15.136482214299466,-4.954507402549687,-10.317178915412734,-14.572280044303,-11.167735248367393,-14.422099463591415,-13.406113657881097,-11.81944080103522,-8.063701127319794,-15.767170036678117,-7.929972919516214,-8.557405549944674
96452,,-13.30513135201168,-9.659130035793735,-14.63932917465227,-4.916094376134447,-11.832267798792833,-13.25689107800092,-14.051077224445766,-17.541761352497417,-13.993499069632431,-11.131594277014967,-8.506237036294928,-16.47747927052961,-6.623807849514689,-7.678926047351889
96702,,-12.2502967944102,-6.180652663318744,-14.847065319186983,-5.25210950892288,-12.323506199120578,-13.178968056057895,-11.790928669568164,-15.878038506712544,-13.638700180239711,-10.237480206938828,-7.310902489864464,-17.86222046324072,-7.107134725693612,-8.546389869085386
96952,,-9.50352348946362,-7.340275135759832,-16.267594980910587,-5.081802869475088,-10.090157482773916,-17.67478048061968,-12.686175573599952,-15.026770186404272,-12.362957412274245,-9.662620435636285,-5.550454307013952,-15.51503297462963,-10.035444407082242,-9.895045505312035
97202,,-7.524080249463134,-7.456249439649193,-17.131376152701637,-8.496037611803828,-9.425672053273276,-18.366168910820043,-7.081039854236909,-15.263495538031105,-11.979617877046085,-9.332780574834542,-7.91811347078434,-14.63905009732493,-8.165876163349747,-7.972821949090242
97452,,-9.149401789669849,-9.281245250530672,-17.225138797518053,-5.853181021780813,-8.918582900276125,-17.627275694924354,-7.70405281467217,-14.037109551215948,-12.508063264931604,-8.714682852697802,-9.819086735964058,-13.90326663373552,-9.027861735806423,-7.848751324350997
97702,,-10.335293825316768,-7.599304772033712,-14.982294179557163,-7.297197246022376,-7.850000867179471,-16.557988104587604,-13.328712360312672,-15.022731544725122,-11.934792751763982,-10.87888324937886,-8.002170417242757,-12.856464717337776,-11.605399583271527,-12.904623747248005
97951,,-10.212291439230858,-8.920537193206288,-13.246647969412656,-8.875288373830122,-9.68156671266007,-11.64475582087094,-16.039579028519945,-15.819237361415354,-14.36639999679486,-11.279647615812188,-9.909323231755598,-15.069759322732295,-11.870333113173237,-11.181794462644884
98201,,-10.240309067639329,-12.39104146416122,-15.418277221105452,-8.763851871278147,-7.814316903438282,-9.777039136913576,-18.62303928745592,-13.655784591548286,-12.95334208431319,-10.121254667439963,-8.220646027255372,-16.5626057864878,-7.801375165723772,-12.911935518336648
98451,,-11.56124081049816,-11.947766134924704,-16.365381728298193,-5.502698663530966,-5.360794176612588,-14.959919744578883,-17.10872160828936,-14.639420599928968,-10.733236119407527,-10.926723580877589,-9.466486102910077,-15.144332970729195,-7.515513507662797,-10.859441426926892
98701,,-8.837811074450872,-11.944545123611096,-13.891575851720605,-4.070815804582363,-8.746575959407464,-15.551488061839098,-15.842829862214153,-15.868535703155192,-11.69411661001446,-11.918162362942722,-9.723333782802774,-16.51512854936641,-8.980710576657346,-10.41621812950078
98951,,-10.188220758654843,-14.020493233951418,-14.532046599802278,-6.596940990564512,-8.111924425993323,-15.444987966671476,-16.980735282821023,-17.348910230010535,-10.79266742047732,-10.84889651296695,-12.49026164151546,-14.699493153125738,-9.139490528954717,-8.699081474489995
99201,,-13.37653509796878,-10.996047130398448,-17.0066818620101,-6.38518233373229,-10.322898110684902,-15.764219116812342,-16.378019836393133,-17.190671601626093,-11.906352612167815,-10.856914773433612,-11.785320828613186,-14.04893352849342,-9.04282073651338,-7.1784943530634
99451,,-12.456506536179258,-9.733973868567494,-17.268359887277107,-6.9688987037142525,-12.307791700294148,-14.286488315552743,-14.063429273126948,-18.47545626889514,-12.462966287846552,-8.555897867104175,-12.116237318808484,-15.51750250111969,-11.653856221759678,-8.844938678190157
99701,,-9.36538087071397,-10.13225287748604,-17.575116253366314,-8.268119749664466,-11.550729299035716,-12.85450487319931,-13.01410045938566,-12.764129824095829,-12.28274344036744,-11.167579244214314,-9.14931796656748,-16.92722916533627,-8.882904804797954,-9.33219795441712
99951,,-10.279652397877252,-9.000253201546105,-19.651603071042107,-7.859588486418141,-9.98327348370049,-13.621409492460398,-14.988892216074763,-9.88391363398269,-11.365331441924848,-10.109668279862325,-7.359538290376079,-17.174648165890492,-8.076089097906618,-8.671058610517548
100200,,-9.134128860098608,-8.835653258621205,-18.447381853505444,-5.585269041558076,-10.770820394565348,-14.534350062692834,-14.179641437568744,-11.228641771992272,-12.74596275466184,-11.995198766291534,-5.775549634344344,-18.43999148950032,-7.609847416218013,-8.843784858726195
100450,,-9.701379991825664,-10.281731099089884,-15.303282709998046,-2.710108670685508,-8.877201539387498,-14.688816011306653,-14.0573331195504,-14.50167138856183,-12.16692835668372,-13.364530905126133,-7.238009839623039,-14.110855686917672,-8.567352629756577,-8.819038673735301
100700,,-12.186798732384352,-12.928482483629509,-17.66563434959594,-6.846470523777002,-7.824605165332256,-18.05586384327804,-15.51264346633396,-13.054415934969764,-11.377592278685286,-10.573683851328724,-7.159734417725536,-12.124053417883252,-10.351272944829551,-5.692324519490988
100950,,-14.112963717336909,-10.029446205232484,-16.02365079199185,-11.410051270955812,-9.540182114410872,-15.192715389914024,-12.817723682401656,-13.602963459230413,-10.67146649539018,-10.398024679732435,-8.730957813776111,-14.75149087673962,-10.728726020717891,-2.7780318739881995
101200,,-12.018020374725236,-9.742472810209778,-14.45424528468896,-6.286022120630186,-10.33536036333082,-12.161981680558895,-12.224811591776303,-14.476997370524394,-11.722158645410996,-11.291836871481356,-11.45615334504408,-14.240404080224089,-10.031338470647444,-2.616013613138539
101450,,-8.630326592601701,-12.133895192771735,-13.259899464009532,-7.305074912343881,-8.975888953432985,-13.804108957724468,-13.28010415697556,-13.957207947921862,-14.07789217860918,-10.411561373971852,-9.967338757806871,-12.313733058988724,-9.085897280957854,-5.794030095265976
101700,,-10.010698879393548,-10.589300736069363,-13.601941796360052,-9.009281096337045,-9.5116016438268,-12.294424243855634,-14.042361293530371,-13.090936991835466,-13.38452936878809,-11.369582347188883,-10.53350833721964,-14.396397890982344,-9.56982259415805,-7.465209222521506
101950,,-10.06051356567803,-8.568227683861862,-16.248533467518442,-7.134671764686328,-11.20212628699866,-14.620369771707908,-12.641275324676965,-13.475248046682427,-12.544960953264363,-11.771312973719766,-12.099610775246942,-17.677857248337933,-14.276465239514856,-8.427080331231126
102199,,-9.046377597779236,-8.035377256581487,-16.86605079568648,-7.356236248279414,-10.397697616134938,-16.987334999385126,-10.97175373440007,-13.332249599589415,-11.96824697079215,-8.745070065864592,-12.48206447677675,-15.610223866926985,-16.643604617530585,-9.526354807048705
102449,,-8.120326507869223,-10.466507151597678,-15.032715480448331,-2.2383294502667512,-8.986987773667463,-13.397085642184232,-13.01878453116878,-13.224799267376506,-12.159036183501572,-8.836383952478768,-10.662793949503811,-14.629285755150052,-16.735436624632868,-8.690190508633531
102699,,-11.510173116914986,-7.649126287060674,-15.161699827681865,-3.2610694335011123,-7.558298590178891,-11.640980504416374,-13.415080527379526,-15.258414769454738,-14.087202335621775,-7.790108645910178,-8.183007537440607,-15.64519502836944,-11.997557321123027,-8.64971771270525
102949,,-15.387806629998018,-9.314305468884712,-17.759019139471434,-6.517995297166377,-8.384295339059546,-14.556718213632651,-16.591759091265835,-18.75273055762496,-15.902035543475204,-7.537534356368254,-9.645440849123792,-14.654475878519865,-10.895929720210628,-8.198131206035242
103199,,-15.238839139517635,-9.946737296332875,-16.935431190163904,-4.375054017375246,-9.64503359212912,-12.649294423743322,-16.643421072598642,-16.11070233783311,-12.603472228792937,-10.573816678000188,-8.79233581735341,-13.350915255988616,-11.275524510413158,-11.335619810719365
103449,,-11.664030464347972,-10.58289017612167,-16.167788367666148,-5.735312721856406,-11.280018433793549,-11.543093575055783,-16.95005530470981,-14.552717561515848,-10.162520960771706,-6.877569555730384,-8.639926840032997,-15.689203675123702,-11.48106878971118,-11.02268681823472
103699,,-9.155743535359738,-10.76465893298949,-19.631055179575156,-7.341426860846791,-9.917474952849096,-13.405425855940145,-13.808043216931464,-17.403000442114973,-13.437959120044754,-9.545450787248072,-11.39604197081539,-15.5645820298588,-10.897172601252246,-10.147916901503194
103949,,-11.025533117138016,-9.28343609302533,-15.874725763508016,-10.301159240550096,-10.885671760904696,-12.381826062988964,-12.928959479888162,-16.143162828162477,-15.496794317375242,-14.401413401179116,-11.114185221006892,-15.069026587059223,-13.828171817707815,-9.313260631867005
104198,,-8.439217659381345,-12.354303081394129,-12.36872712208008,-7.44238778129905,-9.397978417437914,-10.094553275095706,-13.098520774645548,-13.4652033821855,-14.15886926104819,-10.291775478392736,-11.45851070850536,-15.61280937327642,-14.653425714107971,-8.706660339245017
104448,,-8.007828191414033,-15.239053563245616,-13.331060488854686,-3.295014793153168,-7.954947420556133,-9.139562672135282,-13.289878014567424,-13.31355441616784,-12.976869302278782,-10.429126335572905,-6.027307435239388,-15.986025836333576,-14.642255036582307,-11.677787554642103
104698,,-9.93137469845336,-12.311215446733904,-16.449091443454527,-3.569349283147316,-8.389062196009831,-12.06432882637605,-15.888918966582782,-13.383180404463737,-15.029910141462246,-12.796298787573445,-5.060300938518094,-16.047638763313167,-12.104916291371444,-9.508861091473728
104948,,-6.527671468713305,-13.607898748582404,-12.873010774746836,-9.547838626324364,-10.470977208164877,-12.6659047841034,-15.311245142736269,-12.5688913904932,-12.252168678509848,-9.611230523422991,-9.102825476423096,-14.119445150246284,-8.014085862352786,-9.409445836591594
105198,,-8.541832254085413,-13.008862049281332,-12.43030185989181,-8.466146460234215,-8.833895889311524,-9.707101492210718,-16.125587898091183,-17.342260576530503,-9.62250023117804,-8.892854621438772,-12.096232760943362,-15.2290700955757,-8.020538156765454,-9.818567932545104
105448,,-9.58574559821691,-13.725833168706425,-15.094411230091229,-5.085717268000972,-10.813656396780438,-11.217493736159332,-15.26738387249724,-16.680059524882328,-11.13813289924731,-10.98220987502673,-10.100844906045648,-13.127088642814684,-8.356752556642032,-7.03736087476719
105698,,-8.758488470314807,-11.096744741415163,-16.09266313210562,-4.544978050693926,-15.5400312072376,-13.885854909363172,-13.408177661443853,-15.207126209182563,-11.614874870847,-10.51763206621067,-7.222381632897895,-12.612478497661996,-8.846648645158893,-7.255379008267592
105948,,-9.402657036641246,-8.269388335634012,-13.731454563027814,-6.060211171630487,-13.8831177237926,-12.874131043644535,-10.44091670917123,-14.429811576844097,-12.74184111210488,-12.342755801812723,-10.399941548845302,-13.83887919190991,-8.648760037462603,-8.04850664750195
106197,,-9.57998285421106,-8.943338469784006,-16.16155941735736,-7.1280443347046285,-12.05265088343737,-11.523430346490034,-11.996163112514058,-14.934963025968472,-14.895252711799632,-13.076690200296568,-11.787843342686982,-13.9535618792569,-10.613741019051606,-8.432260433334127
106447,,-9.346175079516629,-8.430301923618153,-16.50677680587036,-7.4468388524155635,-9.027309988192556,-11.427755902073391,-15.222728536910331,-15.399319336690178,-14.09789043063241,-9.544462084799465,-8.89368830615888,-13.816204778179578,-9.221065533164158,-8.193846707746461
106697,,-9.005171848142668,-8.070045207454077,-16.0051876217893,-4.742278565225517,-9.163377077733228,-15.215815649584034,-12.977084258112331,-17.962314050185118,-12.83452901835946,-10.166842515919152,-9.26646927252274,-13.8983030774195,-9.515703626417377,-6.632478820604707
106947,,-10.486083620129254,-13.48739954361522,-15.11517234645883,-7.751968770069548,-10.00603991814861,-12.57051500979481,-13.42827570262186,-18.688664937584647,-10.70326428304464,-12.197757379029056,-9.797821356925962,-14.866837378795474,-13.166774672739672,-6.647449796296488
107197,,-9.392029301493324,-14.669311008330784,-15.335030201389737,-7.867161515344158,-9.724983845066635,-12.586023930944778,-11.255515183119176,-15.677698066727393,-7.9205457197171105,-12.283091927959722,-11.889157558087582,-14.104159874054154,-11.107923598422133,-4.192549934011814
