timecode,event,eeg.af3,eeg.f7,eeg.f3,eeg.fc5,eeg.t7,eeg.p7,eeg.o1,eeg.o2,eeg.p8,eeg.t8,eeg.fc6,eeg.f4,eeg.f8,eeg.af4
0,,-6.572188698292447,-0.5342562374678593,-1.9816963008356328,5.693021131572412,4.012925710434903,-4.716711838808739,-3.353919747300954,0.7876403409302056,-5.5848450535363705,4.679875699676698,-2.5059202725545964,-3.200136498248832,-2.4882867735514798,-0.5591295856558669
250,,-0.887358006506904,-1.9589351538263284,-8.944236335189157,7.888160256194043,5.917232309932665,-4.887221131284279,-3.535979612100768,4.9193227976763865,-9.701890350863406,1.0180669687638086,3.539709749724711,-4.5319536441932975,-2.6653441717270128,-3.3313722332515363
500,,-0.135246626779918,-2.8132059670546337,-7.519501326914889,5.563491337005905,3.719184806839524,-6.808358150541503,-3.379092141220144,-0.1598170825301148,-8.04221905201987,-4.067980273015589,3.831899895752198,-9.70600335161051,-3.1011866308108367,-0.8090634234557114
750,,-3.7738080423933154,-0.6599172706084329,-9.307608138397706,2.158367151747089,7.185348086461194,-6.5101039203256414,-0.3336164460699924,-6.814364339278956,-4.606826473419433,-4.704249893283221,3.595457751821324,-12.196536636213942,-2.362702236410948,2.629980062790354
1000,,-4.214308932040812,-0.0712313215958632,-9.442642008591594,5.129676764929593,3.277449030795949,-2.5075637107245106,5.714125854875711,-7.890523051484087,-4.183938505867327,-4.254497235672859,3.0765306137625226,-9.004327855357586,-1.2603924113270852,3.230649974513187
1249,,-1.2430688651858763,0.9146982786433178,-9.010390497779388,5.668677007850067,-3.470852630708131,-3.006003385128611,0.5679762520783345,-9.097359936283384,-3.281386646308304,0.6295893552419153,1.6851500757991913,-5.852558883629252,1.2786608051962836,0.1807184853732664
1499,,-0.3905407880482828,-1.3070448506299632,-7.040889508979299,5.491177013437532,1.3485744588199986,-5.286028125810668,-5.905701759255967,-11.0565780814337,-2.35368005602909,2.6275319832303774,1.593451314541413,-7.279385019307403,3.647852754832416,2.3657367433410306
1749,,1.983088370982752,0.1679586923426977,-3.796549392090045,5.570302221371129,3.2526052243508303,-5.042616781019563,-3.344048604776393,-7.51339750036232,-2.972518762770461,-0.231321521751636,-0.4324721895021646,-6.286180922148467,0.1413093228111361,0.9286231386124392
1999,,-0.836462487818619,-2.122898923841141,-4.578703181443316,1.8478867880671987,6.081450684865962,-5.502475903826522,0.0431406475147491,-5.208768167515289,-7.995569320618826,-2.722964908999133,-0.7020344967802001,-4.780695626392823,-4.376829825287233,2.379848395123483
2249,,-4.298143088147,-2.5325761532201643,-7.218471888187504,0.8462659105647309,4.402066921512754,-3.687374725473703,-1.240445080707728,-8.288798308066305,-5.667763442285025,-4.336770412296142,1.0313700205645628,-5.044931752700482,-1.0867315421693533,1.530505417504827
2499,,-3.171423661347696,-2.184455291751428,-3.4852993248885777,0.7621081303834109,0.6696542091951674,-1.1595194137792275,-0.5742154863044922,-9.833968126315291,-6.010196529369345,-2.0577148182214424,0.2772649674340545,-4.885687888915784,1.6283843355473502,1.2473651543792
2749,,-5.237094429440946,-1.3213969653042397,-3.1803629256657984,0.5233408285837976,-0.7501535781415865,-2.3370689595677097,-3.4903624225102807,-7.254039595777399,-2.9098283463370627,-1.742851948666348,-1.4218159710609648,-4.730854702561048,-1.6143950799431253,1.1611559155944062
2999,,-9.442164550347345,-0.4983048743202745,-5.865198798169876,0.4640402307484634,5.040509912355047,-2.8076848931698963,-2.6221602974316083,-2.9613246795908905,-2.0399949379318243,-4.009161026536379,0.2798655594919418,-8.616010397098021,0.5139814468528696,0.939849587379905
3248,,-6.306805577283566,2.306992664768881,-4.089644638193988,2.810594207404505,6.461276889324149,-4.751166063435978,-4.672583325930513,-3.282407042913365,-2.791722982957898,-6.02971749921088,0.0310487970051635,-6.165001639280837,0.5139211082403476,2.154092092564337
3498,,-3.63593521305094,1.7901969324626166,-2.133116183306089,6.409184183825073,3.88665599656001,-5.963340371022072,-11.688024957374177,-3.094248937507284,-2.430692049293909,-1.1232151123686365,0.196170325056184,-2.0686520080308752,3.1951102145168093,1.064551851230632
3748,,-3.3005323507205087,2.3250217590497195,-8.796089428258375,6.093406946669343,0.6379311123464042,-9.447000740305793,-13.038486404753352,-6.2683920940593785,-2.096308621637873,0.6051014439543988,2.376047795595001,-3.786770499169023,3.2165218609922275,-2.84934043163806
3998,,-3.313125583152348,2.8446505110071496,-10.408793163874332,3.902085674940332,1.6987489820516812,-8.728948228999574,-8.55790810564631,-6.339291727693272,-2.314001304703868,-2.6646815012797616,5.02674230560729,-7.460112677842495,2.909991458951292,-1.1105869503292105
4248,,-7.138526583257753,-0.6585790226175001,-8.762438345187121,3.9540873503788414,0.7233317517530603,-5.103466833984851,-6.377673070273655,-6.747556811644407,-4.7886817967849336,0.4708981545206772,6.422122306365987,-6.738689285557817,-1.0094189406654226,3.7717323810226806
4498,,-7.787260100207272,-5.116788350578743,-7.328814123407843,5.490245641432625,4.307275122320567,-1.94455841126272,-6.108896682755294,-8.572983996701657,-4.283607715631087,-3.409029279334062,4.826521236902172,-4.561418065975088,2.346320207993337,3.753564842495463
4748,,-3.327852161739215,1.925769498595264,-3.9588977792869526,0.9527120021966428,5.578212236172305,-3.513276886692944,-8.711102626124884,-8.437049900914392,-1.4549275739925251,-2.8834064142554423,2.2015479348263423,-6.628215419271112,2.299851621997919,4.347975188647073
4998,,1.646844174849628,6.254060702904677,-3.652813656787669,-1.318345694786279,1.204208331429971,-5.675911767948075,-3.69888730914945,-6.72869698047907,-5.1042913824180935,-1.4211917335433817,1.1145818937202705,-6.496448840188032,3.3983873698727,3.060893525386561
5247,,-0.2454278929854429,3.217738515560101,-3.337806950066286,-0.5232726853071311,4.408072503627378,-6.141184898173778,-2.033469488687265,-5.245914255972989,-7.182290186536927,-0.5011015038851039,-1.3997771628096445,-5.687792980099503,0.6651123230759497,5.198945900235296
5497,,-3.482912331587791,-1.1723323517162236,-2.901545925203143,1.7847366916908585,2.376494394162992,-4.299239131017537,-1.9242395774979613,-9.500642179535214,-5.596399253138218,-0.2667683258042345,-2.4032947045610404,-1.7125050203891885,-4.048873599011591,2.19427536692123
5747,,-4.447662956156387,3.501407697988407,-6.252306009123965,-0.1583654691311566,3.490343236130701,-3.760746170825922,-4.126269930081072,-7.707478370552684,-3.7964646127036623,-4.726620988027449,-5.062315118314341,-3.390957974027832,-2.582557050514734,0.978266138084068
5997,,-7.681314904372964,2.575954465200885,-7.88264418182235,2.6053890292169464,1.6243275872696508,-3.298333627192539,-4.0702777241512536,-5.5881925399161805,-0.5375789725451756,-4.336654698375625,-1.342888230856135,-9.03559346077023,0.3018829702231775,2.1336697312864885
6247,,-3.42498281417427,-0.523571042931853,-4.315120641249231,2.56091570083002,3.631738533133007,-4.048027158881723,-3.121704907788105,-5.40201087971659,-2.729845055600053,-7.022554293444024,4.0255264752717865,-9.088806349776505,-0.565147601749028,4.53975929756658
6497,,-5.007777461278948,-1.435862606295084,-3.520617204436477,-2.0868168314513,4.859706091842724,-8.210168224976263,0.372326639611673,-5.912591105120422,-7.281486063428111,-11.252379847140684,4.478301031463171,-7.701777179431206,-0.1174150246432153,2.5820612603569453
6747,,-5.488302059034137,-2.192419733353165,-3.968819599536349,3.655357697006947,4.809829782676722,-4.687994588530203,4.981251537948834,-6.908429055532812,-6.72523103787851,-7.807590965305216,5.054362094175595,-5.609516252322045,-0.4527785402893793,-1.5764275705418265
6997,,-3.257889174984681,-1.7208208067503272,-0.6820727950387582,2.0295527615253057,5.275595655689686,-4.860390368650608,2.6104568261089502,-9.181698417316907,-3.609741453452636,-2.971164112263778,3.97196340196547,-6.661704770026793,-2.1214367662586957,1.1402050682092435
7246,,-3.2082515860863703,-2.9268125189007197,-1.6845699229442712,3.346477265203581,6.677317818686278,-7.881770523007132,-4.642564912596568,-7.520086388294086,-2.332745157344864,-1.302950028661643,1.2010006052115352,-1.7471685728798727,-0.6364975865444898,3.925227612030061
7496,,-5.579153348258556,-0.4822250301681313,-10.691267591329908,0.9652358395183857,6.964617358951353,-4.913334186369952,-5.146072645759514,-4.838787703816277,-3.513438085807224,-4.993856891271019,-2.663702449451222,-2.9761922501995777,1.6750870006350096,1.857853152104495
7746,,-2.638702228203492,-0.1854477210326393,-10.936796551965662,-1.4967866048483314,3.1422089645936744,-2.7335898437183594,-3.39057096729043,-4.538410029921804,-3.626663208242279,-2.2075150089020026,-1.8743412102205823,-8.888972739991878,0.4336877649101681,3.811509976557888
7996,,-1.859166637844718,2.2196679294287507,-8.318847550504362,2.410001290338976,1.8696614251221253,-6.680639593631442,-2.089304253099452,-6.253628907987001,-3.6080288782973104,-1.504977372298929,-0.0854403039977581,-4.564977268986762,1.3570951196473238,3.452928153013052
8246,,-4.071023894938407,1.4000363398280613,-8.59661868921841,2.4775683067175125,1.959893116397622,-3.2836935663798688,-2.7196235858029376,-6.782567747880314,-3.3684861739762493,-2.1281843032238283,-1.0705124248539173,-3.297380070670033,-0.8454285024302362,3.8779130349677695
8496,,-4.200878038813309,1.0543272895181894,-7.277570943578557,2.7256124465523257,-2.510526910507859,-2.837042169352173,-2.1122967362503995,-4.262236913465345,-4.0971686049285925,-0.5656313594008674,1.3872736646536246,-7.748913359041309,-2.312993491206728,4.503866817058233
8746,,-3.0435427633072507,0.5791296702492247,-5.391536620364573,0.0183323065833543,-3.321727612897185,-1.5554498315443952,1.3424189836569822,-7.822766726693967,-4.747618360156839,-4.933125812630502,0.9663214788828604,-10.635793142221004,1.405260941487215,5.960613785973408
8996,,-1.4863493038142588,2.4879827656011244,-3.566864298441917,-3.166317432381533,-0.8607280764224292,0.4552860652292484,-2.8735551817554543,-12.185950075954048,-5.46222266121822,-3.570530151741253,0.0278993870050974,-8.428913737061205,4.873620676896177,6.808807720391831
9245,,-1.2296953022486474,2.798970929965916,-3.6432272170382776,0.1887999933211871,1.546110282984174,-2.628012499893469,-5.963046033213133,-5.506871074355058,-3.194087142385482,-2.742709956723975,3.5650318480817464,-5.897199645931787,2.4166094489440915,7.842011533094543
9495,,0.9857666566164112,-0.1981316516131434,-3.1312005956172357,2.5297009092337004,-3.211932743390764,-6.928338559623651,-4.668156409769292,-6.180375592029753,-1.697805417715177,-4.630901114293745,2.3985578707240958,-4.178562914888895,-0.4191688604874133,7.185720915869607
9745,,0.0407658057384468,2.277819692997288,-2.2300797001380257,2.927582839979207,-5.78552974300936,-4.558584549068274,-1.184430430020277,-6.248969997885929,-2.6311680224206184,-12.391582563644388,1.2878229646069088,-4.054010062803212,1.034185163455962,4.00936978289184
9995,,-1.4568696658098277,1.4730282260697094,-6.259573520504596,2.708433352229208,-0.661742008744104,-4.721652019805015,-0.142968513849724,-5.052767441867921,-3.7367893919099178,-10.718385654515243,4.240576131406973,-6.521047566244103,1.9327506160852252,4.739275973255498
10245,,-4.679658692751664,-3.882368459001351,-7.496919974104768,6.007024229703342,2.0330709686363364,-2.147376519411325,0.2425179409291248,-2.901717313405958,-2.615436523434662,-5.420213620636779,3.5429212053938293,-3.862688813291691,2.388028603878869,3.997174203674562
10495,,-4.684757305205331,-3.143579449649136,-5.3509787293348685,5.89396210051421,0.688026312292489,-2.6706095526911406,-5.3347726907948845,-6.138905344051456,-4.403665672668165,-6.008781674605093,6.688415531599761,-3.517792941825169,3.0264535489993936,1.8494863443012943
10745,,-2.7708646568414643,-1.568814008055813,-6.364085646081785,0.7711565328854376,3.2679696476123987,-4.693525431130195,-5.95724622988302,-5.798003582836832,-2.8934633659925257,-5.723698321769057,5.462509171779349,-2.7664953111435056,2.2003231841591284,3.662261155002955
10995,,-3.6339941655585446,4.4847072498038045,-6.804821279655688,3.929003945535847,1.5431635922267617,-5.5948527767551095,-4.599780368119074,-3.347719047534934,-1.3161136503077655,-2.8864850747390807,0.4613123637340018,-3.0241367903933014,0.8471685920559912,3.0043748520198
11244,,-3.5426035962102898,5.761204276205348,-7.463320818440129,1.58948462183742,1.8019267418102736,-6.801966850762005,-3.637972083876332,-2.9771515441899794,-2.353246310133446,3.082634499063093,6.963892070307124,-4.662322135419959,0.2800692292895907,-0.0671667915465803
11494,,1.1162513441531936,3.004164127996293,-4.362535099908466,4.185127760413455,4.424355117368808,-8.60319203652275,-5.43936751762648,-1.7933204988454632,-4.837445585014281,4.498762807446075,7.435292547836177,-2.9324188560097566,0.1536812597428346,5.579154034554899
11744,,6.192753204975042,5.342240783417766,-3.4257937690462565,6.186671608793625,4.378266830390457,-4.478343420412204,-4.961324349273763,-4.089187177855761,-4.448237102232464,2.981462302525296,6.092209016218318,-2.096906337770605,1.7822334989862645,9.93816031685448
11994,,4.14610024532371,3.70154445362544,-3.35177192315808,3.7737939890226975,4.595231062921354,-6.696816814145872,-3.588323901638137,-4.967390698791013,-1.6800041482210974,2.2168874195729518,6.361733863183669,-4.829862307546233,-0.9188624298133288,10.605858580003185
12244,,2.322895656624453,4.599101073120574,-4.213229283531542,1.8633302842666888,1.3275590126799228,-3.7874798432522336,-4.678148645085515,-3.782019890502453,1.1824115550840242,1.0465479575798184,4.782311354473701,-5.458843151814721,-1.3065579171668442,9.639675371795477
12494,,0.9520230199904706,3.175220154294408,-4.197452586379092,1.7320505224785754,2.966094618148185,-3.029429848178164,-2.2876118546247044,-5.647710304973924,-1.2612670658701024,-1.5288054737634516,4.305885730291369,-5.916327023956626,-2.2427929807582974,9.873427175942524
12744,,-2.132260886269408,-2.640594386232592,-3.2570744257789186,6.424790379744129,3.767959629346149,-3.797921817504188,-5.158878966361803,-8.183104296551038,-3.923819090600624,-5.764247350744148,2.8229447435907016,-8.048795624699647,-0.7906965122915264,7.236533518074849
12994,,-1.0220523984111598,-0.0368451763655476,-3.186742763449024,4.815692087763418,5.113457394543027,-2.9714897846258554,-7.467201170440841,-6.748170535778469,-3.285230665556525,-1.2359882130762283,-0.510255494920999,-5.389040155661855,-1.0419325621358275,4.054264896738902
13243,,2.7984972818808025,2.492448100922012,-1.2453731485066537,-1.5201630499928906,5.803523116947701,-0.9567170583763528,-5.238019390911816,-6.690543698976684,-3.474046543721757,-1.0813904979757296,0.7843088143471806,-2.51622364708334,1.3374961512338652,5.179299529794145
13493,,1.647716843211997,2.878943382905595,-5.116542262706424,2.520877664602409,5.805935006738597,-2.5185073396007027,-3.232894213836966,-5.800883707767111,-2.516321788913745,-3.254199196266404,5.002639388878068,0.839954925574788,2.4545577644426717,10.83655624937331
13743,,-3.928803568580296,-1.377914521082326,-9.956119225208935,5.097266335473602,4.989249576196043,-1.4200416043581945,-3.773197347926253,-6.105596876615566,-4.666832336683986,1.118054632490178,3.090079607347996,-3.365163541430245,0.8173470902344058,11.766728170323582
13993,,-0.3154913445270952,-0.2846429714190663,-11.642573171528204,5.721623101829911,4.659035964473514,-2.446683982483401,-2.389804957624144,-5.732939535953989,-3.6753051997112185,1.6359779493075703,3.880457438594994,-2.5177092695978893,1.5998217317389596,10.646231794494962
14243,,-3.1626080987779885,-1.440274795410341,-9.031513730923663,8.776580830732222,6.297574919342983,-1.895062270565231,-1.188896374526578,-8.493731608985607,-2.5877620419557426,-0.1259299517636706,6.272965410245741,1.4664912574812492,5.56014080237111,6.255597882146078
14493,,-4.7210798636047,-0.0632312739563475,-6.10660689405527,8.036425700193623,4.196092598360077,-3.078317411977709,-2.154142144888006,-5.247235099536254,-3.249461978218868,2.7041563903005943,4.446687367242024,0.3142357507617266,7.015043395314429,7.268042419518244
14743,,1.8284333852098145,4.684474330881971,-0.7616920269055639,7.0162579973935735,1.3831970514198346,-4.032564760710513,-6.039622191134035,-2.9223406354751384,-3.631888811608708,1.9294423421128304,4.785592848209709,-1.709945267331388,6.470215583959242,8.94596834343364
14993,,4.383762896361043,3.945171027383607,-1.283720548416169,7.26530415821937,0.3469872682668049,-3.634833530005351,-1.845573202972444,-3.009216257246619,-1.443059648649481,-5.786862683750949,5.0109653435522965,-3.108733853237392,2.1161779869170494,8.984061004916699
15242,,4.289768889786753,3.426746745676381,-5.447668006107096,7.295085278110973,2.085206911846405,-5.148669748764378,-7.077212157695149,-3.292882027769806,-2.9332624423360008,-3.6950358906072696,8.628274349432186,-1.693402328802455,2.519849831135049,3.986407267485761
15492,,1.5866768689310868,5.370618705483649,-2.570765257112779,5.067312414024676,3.792250162519869,-3.252287025246694,-9.948586935085396,-1.2046351053761457,0.7833458047776355,1.3330480122982211,8.68785655403828,-1.1703499722773425,-2.752963846483306,6.589315939424539
15742,,-0.7825953974550353,5.330232352615278,-1.949747443200392,6.52915546954849,1.9244960593589528,-1.312977895939826,-9.270824287574865,-1.1290293959786408,-0.8380986055506221,-0.324515738434524,5.731736097857586,-0.4325486483690911,-1.1327658352749046,6.80217293081446
15992,,-2.542719001255946,1.3125082934627077,-4.59750451964566,3.260776202674025,1.442250662755087,-5.5756828006698544,-5.595034781429722,-5.010737374849174,-5.015812341210989,-0.5645562860236327,5.561758681794023,-5.383274261448414,-0.1739391910790845,4.134000020740804
16242,,-0.004774018834844,1.1077611039418374,-3.6588909293402994,4.30911301660207,4.193749288791687,-5.076718645627317,-2.360984413587751,-4.6143015338376605,-2.1241592406316725,2.337218193360277,3.8729367699180655,-5.384818509944608,0.6634266898506623,6.390533348218922
16492,,3.201043981052089,3.86329342077194,-6.651988539489486,6.604574650891734,6.177178233789284,-3.3327277248325227,-5.637582128598665,-4.388592606399798,-0.8438832254713664,1.2493981973577972,2.3964100434801447,-4.503057503460645,-0.3531688006368043,8.578434154107873
16742,,2.3701383444583994,3.5513676328881747,-5.762258136036994,4.443251739160998,5.038461043203455,-4.03577104568243,-6.196188349790159,-2.243266828983599,-0.8771597234268134,2.0926344457055865,3.638979778134072,-4.039173893026751,0.5169465983360284,9.477525553616529
16992,,6.380644200817192,4.137717899507216,-3.983170965974734,4.148055868385863,5.358108108421689,-5.505062669236792,-1.749603967267798,-2.366766100642794,-2.5834822329647404,1.986627886171715,5.470169602899848,-3.224896388063901,1.772708228862267,7.820854257722826
17241,,5.413676081552224,-0.0838486763897533,-3.2730853417497494,4.409714961674729,6.467590630524905,-4.113637415342452,0.3480317477769848,-5.987134832217677,-4.959291841004786,-4.664000236439161,6.812408828645681,-0.4869655678155533,-1.7289890910258596,8.474127744552842
17491,,-2.322972067378903,-0.723095181227402,-2.72682834909129,5.249419607599164,2.3151007307105296,-2.7195949832371813,-4.724467424043527,-8.570866905647751,-5.370435272876883,-4.897945949831083,7.835819822465621,-3.716245865411056,-1.397484309538867,8.517043293701281
17741,,0.3272688233602213,1.781471367099262,-6.668816832725514,8.041694040769165,2.72528964849661,-4.565997669539562,1.6572705217125885,-8.793801117797205,-8.717101996559904,-1.8129297625052327,5.221868257049968,-5.324753845748392,-2.5953954415812253,8.684472824074449
17991,,0.3792595635282928,-0.850835661657961,-10.038565560054602,7.578217244892103,3.833547905209389,-5.036311256754551,2.5298941625594025,-6.245477452392318,-7.180080632771906,1.1669434210342255,1.7756740125155646,-4.568503068442906,-6.078939907910938,6.915067058314754
18241,,1.6263952124898908,-1.993870779176792,-4.940863040181042,6.751718502018559,1.472361851929041,-3.3547719055557352,-5.994046007055975,-2.4977753103641773,-2.423247729190797,1.323026441537623,0.5635785834723803,-3.925832301367431,-1.3894187605740416,6.272777714256048
18491,,1.0976293825771195,-9.896840625250256,-3.214717957688526,5.485636787769565,3.6241947530403102,-2.703271201829529,-6.569532830116291,-2.33344831569163,-3.0000550247422857,-3.603262758375421,2.6070649978406046,-5.3563561865493,5.030491771493888,8.042256966553381
18741,,1.397385592295538,-0.5924751207290747,-2.8386611433434843,1.1249995250668006,4.8441942623233984,-5.099607606458797,-5.586036938949381,-7.087685250163068,-1.4394103330678376,0.909444965297105,4.953928919755777,-6.4631785182192765,2.59641134801553,7.534019350809088
18991,,-0.2149380528301749,0.6889598231214827,-4.718715387324861,2.6187311280404013,1.5770995712693303,-9.244127428684628,-10.870858230060998,-5.660590520083345,-1.7596004517198158,2.0489499003290925,4.435211909212339,-2.1925733574787705,-0.9708941173395348,9.121965391845158
19240,,-0.4938653633787129,1.378738749475865,-4.344045987157986,3.000699867491074,1.42875570153265,-7.13465734579759,-12.054028636145937,-6.488916958362818,-3.908746272812644,0.9271232713223596,1.9367726075641445,-1.41949856135588,3.5367834905346687,9.984401175235211
19490,,1.2087167096247544,3.795253890529757,-4.206157632943561,2.611403159731674,-0.1682636663421632,-2.38669147083302,-6.715530466552968,-7.043268456635032,-2.889807518715674,-3.9466932189134383,4.825935920251522,-3.715045873935392,0.8963849521832996,6.743276126835749
19740,,1.2266921825344017,3.0424121092851526,-3.286967446979974,2.7114763867703324,1.3806582977651454,-3.796856926363997,-0.6245148835615695,-6.474814430058324,-2.5482717720692163,1.9898037173611005,5.60394726398933,-6.547572778965255,-2.2918824142108245,8.534226609836667
19990,,3.3451182830389703,2.4386039418345944,-5.634947597566788,5.24412325602975,4.086010264696296,-4.080417745690494,0.8658416612475955,-9.42924768612148,-2.328944495842641,2.4698467136148814,4.95561471279152,-9.734724116016247,0.9430380146464012,10.09845182231606
20240,,3.3681059322864315,0.1323088225409689,-11.470111678424246,5.497583280728236,4.489196319459011,-5.546493181872202,-3.076418014317368,-10.368182265463307,-5.540166500766991,-4.486067320160089,2.2026393373880486,-6.876210459279857,0.8258321997815231,7.488077052923908
20490,,-1.7930461839467104,1.599356186180524,-10.635535883468448,4.294175696788756,-2.508321302035382,-6.896022030327663,-2.368976112958464,-11.051754523829358,-5.668211563600988,-2.6064181725258573,3.717753909184776,-7.798208417319064,-0.8072328339521693,5.042279999369347
20740,,-0.0944015425073415,1.7719916786240426,-5.986399072702605,2.05176275827523,3.088179530924859,-15.10769232641262,-5.9672218832061175,-5.351084638292253,-4.106849514640929,3.179685420695586,6.524213718940256,-6.642336730016968,-1.8037405998928824,4.538944599402315
20990,,0.7696358122898941,1.3263654674630667,-2.898819449139737,5.08421573951577,5.395866351536894,-8.684718706621599,-6.38002375617498,-3.7864794275066815,-1.620208991056722,3.5145718772524948,3.5692675801824985,-3.651446964240072,-3.621120602273012,6.06938267401283
21239,,0.0799089732000746,-1.4372269055248443,-3.831749233416306,7.703352892246268,4.252006693593234,-3.867816526446765,-3.611692630230631,-5.383920608218852,-1.1351474197482796,3.33655013438654,3.199160321817112,-6.443295150710259,-0.4781630574751405,6.18608385209078
21489,,-2.538920617371627,-2.9558548855531885,-9.2814550571386,3.5065678504414484,4.482972689014096,-3.645810523472523,-3.0274893724109138,-2.4420438416692503,-0.6953124805652434,3.7063253479598304,4.696336105877897,-7.626043219201549,-1.0808821247625364,7.184847326733039
21739,,3.04655489500558,-3.0513993703513838,-13.395356830766564,0.034155972805899,2.985180956826593,-7.955939040287021,-2.2081754452202,-3.302419843335519,-2.0971634385334,3.2243873790557576,6.862555710453677,-5.656308873207969,-3.141946169208476,10.229987603924824
21989,,4.946209370827411,1.3946462252546077,-5.499607617236251,7.363468065638075,4.882587073488035,-5.661373841252307,-6.398840926367477,-2.567973566840309,0.4669971025202881,1.81203096747308,5.102324228584896,-6.0299877430854885,-0.4512592059717902,8.073645750924689
22239,,-0.8704249780923707,0.7409142993720362,-3.29255862144749,5.963848085028539,6.381219527973244,-4.261430147878993,-3.598274040363749,-5.160136278490719,-1.0292053862934003,4.439566881112647,2.033952800455796,-4.348620453515971,-2.8230950222163,8.5624772409832
22489,,-0.8935982045008383,4.808678038779533,-6.477407960415567,3.5234787039448587,3.4342765484936653,-4.243488355864637,-0.7212427133952332,-6.235823168734398,-6.342613766814388,2.963653964326672,3.3850801201160285,-3.866445437591517,-4.517095841765904,7.66800069064265
22739,,0.0818156888330198,3.799922145047155,-4.363779726112739,6.161458548999436,2.280688969820937,-0.932353280579651,-0.0921766199096911,-2.455060829755532,-4.632523364244835,2.8071513741041203,3.8101340234587417,-5.057410262651532,-3.469746113458277,8.50780210848119
22989,,-0.6840702668325707,0.182931766196888,-2.5129677295490263,5.111317801181149,-0.6049644278602823,0.1749766481707978,-1.5024690268973715,0.8605410587442825,0.5750598613841266,-2.1535899636564277,2.8704227134429576,-2.701184987389309,-2.861515639063055,8.694740833894123
23238,,-0.021796405486532,2.707093170246402,-1.945247538226252,4.558013937496916,1.691585587165608,-2.9810419163106223,-4.415915150698541,-1.181523319456425,-1.031818667249109,-0.630011365681653,4.921612311651957,-2.2017612807339173,-2.706834001202951,6.324183792106598
23488,,-0.7009853327435557,2.79578588323296,-2.14816888504156,5.73915247588941,2.163924956364066,-4.397415893382377,-3.8819326065357416,-6.482729456832427,-5.415932828569869,0.4148526509485011,3.4155477919275623,-4.487042584492382,0.4406881726456438,3.972614687110085
23738,,-3.008502637092674,4.159751913245006,-3.4755641782997966,5.983354150192328,2.5822397285663934,-3.869992810331489,1.555904419293018,-9.887384693591343,-4.729898339436232,-5.181024634001212,4.549855985496625,-5.746482245488448,2.8643847485617524,0.2369888349495045
23988,,-2.5506687522232108,5.486742962548897,-3.168173946696475,8.053756025314424,2.7296391742549435,-2.113234287258845,-0.3348956963095152,-5.985379326973193,-4.378944651184371,0.2258507061447633,7.029291712642375,-7.817690320174634,0.8356320098153074,3.873847941843728
24238,,0.8253362453906445,0.5300509510301605,-4.018751996254747,7.894530788282642,1.7278111909289449,-2.604743182625173,-1.9348328712599627,-3.806262096741712,-2.30432829454785,2.6052874504156645,5.277061555034969,-5.215874323014975,-3.427348951831179,6.073245017805933
24488,,-0.1700351338071978,0.3853376169864611,-5.2805598683148816,5.456780213611312,2.2218453295806526,-2.2458017575707583,-1.5673611160962575,-10.188015578822194,-2.538575762561722,-0.0427100538690822,5.865719267423982,-6.361084558241168,-1.1695278208410071,1.019742923451593
24738,,-3.926249423021707,5.40221309183508,-9.06282384056927,6.3968513985941255,4.449436143140984,-3.230516040984029,-5.031916573550493,-15.813699980750876,-5.075209448776137,-3.800677809841313,4.231708658226443,-8.851689942934959,0.4833917352778907,2.041979669661006
24988,,-2.162124244683562,5.157633262054492,-5.7476622780782,7.661841665951615,2.170700251719176,-4.198818434203201,-7.965313255170329,-8.978506085734333,-6.359170110647766,-2.255183158433751,2.569939477983667,-6.285415508164273,1.3446807206646945,6.750702203133096
25238,,-3.054868433111666,2.61187064295733,-2.167513755392302,4.959474017053802,1.175765258387165,-5.6841417210849325,-7.640957305443427,-4.552505301993767,-6.40406121123732,-2.02498776893698,4.62980678771169,-8.372045741487188,-1.0800325976970393,3.875034498277486
25487,,-3.8016149952076654,-0.5936292968854838,-3.269245168449604,7.472879880203966,-0.8725951507629757,-3.780113784875075,2.3566800644981765,2.679428121034515,-2.8578245038954364,-0.3999647571966367,4.296438181946588,-8.885966860720423,3.0270920106327663,1.4111619084414757
25737,,-0.0221646568351253,1.6090703484589908,-4.193307335153474,6.415945925622159,-0.8748348108167208,-4.849384247320594,3.1403061638841416,-1.2307399269636072,-2.3031914796989685,1.3617507871738286,2.4096464832032045,-6.106626920330244,2.998069200435536,5.571525496190106
25987,,3.014734899220884,3.455952258108868,-2.07372598376054,4.711971901304565,-2.544799209796369,-8.17846150565064,-3.5661521103423013,-4.553797269360466,-3.213257200293434,2.277558789936238,1.8636515268408291,-4.274663703319149,-0.2984115956299992,6.492342142920986
26237,,1.3183504325666222,6.166574785181224,-1.6865319152639209,5.290846211507732,4.361680597602552,-7.331493048985549,-7.31108936611794,-1.508488471389675,-2.5311372457200227,1.329579556371538,0.7909726191736942,-2.7080277553557903,-2.307112634485729,6.403621301647181
26487,,2.306705626214256,4.487165884044641,-4.715320146743618,2.205623590118619,4.1357917610538655,-5.3754953930136296,-4.390650924485699,-5.938683988586101,-0.6958931784203349,-1.0033909293131866,3.938651812645855,-5.404855815850439,-3.343267008604273,8.954333535644071
26737,,2.374983207386653,4.438720410522727,-4.555679781160619,7.120873432903486,2.7757247274456462,-7.485740088505169,-0.8769437560928095,-8.751614044937167,-1.4983607113942408,-0.5977688879839625,4.50306726270965,-10.9428425346138,-0.4759333440159234,9.816075632279215
26987,,2.1138944056052464,4.387845696597124,-4.316478029500984,7.245222541479841,4.300144872886467,-6.889743262036503,1.940823193725964,-3.098137177790261,-2.4751293134473973,3.605064982047996,4.563601395096132,-9.15025204065637,3.104449208632734,8.94124576304524
27237,,1.4168555737474575,6.72820239319363,-7.517764103415441,6.840124046039073,5.65168335865713,-9.120830065279913,1.5454431559382562,1.7819447362207814,-2.5650123027275966,2.404003848893768,5.849714295822218,-3.869813009559773,2.8500422862332453,3.8022015882863327
27486,,3.09425880260568,8.141804162936877,-2.748513250654812,7.205203646836455,3.9313721728683975,-9.88951590451218,-3.442810854420475,-2.23991900405173,-0.639169145589751,-3.2124047765362933,4.788490725950587,-4.913325766108479,1.4161684231112426,6.082103802609629
27736,,-0.9024693530343176,6.384812812199293,-1.685905697146029,2.849024861802436,0.6464339745961051,-4.261095442135733,-5.553625528004618,-7.260106137727006,-2.43358661612318,0.2220212441908938,2.790240910520292,-6.024610557690321,-0.6454294588413152,4.358828662776206
27986,,0.7372672882375102,4.486917622961465,-4.732724342903807,-1.2510232663376288,2.280654010835952,-1.3046204534887271,-4.297270282639564,-2.3374866516327417,-1.7314408840661688,0.1792280178318891,4.281249913240798,-1.810452225226436,-0.4730371271209637,8.56412925195968
28236,,3.886837325670107,-0.2600277436427742,-3.48458127397312,2.965732230313123,4.620506893499506,-2.8116430381644,1.6539156256704934,-4.335992707617123,-1.886326787940566,-1.9972706148690755,3.546335360728018,-2.363797464481061,-2.030906053686634,9.473857189964036
28486,,1.9947550459295145,-4.114968535151152,-5.096530277202488,5.218096307419536,3.144540477834748,-7.268729652888989,2.037337167167056,-8.163049983107037,0.9207670147357128,0.3197032996809959,3.1579887736157093,-1.971199105866424,-1.441832546116695,8.412262058753884
28736,,0.2007512826872466,2.8897523012258626,-6.560083155665531,5.467680252226747,2.909653385611331,-6.53422537872421,-3.418296846845033,-4.907824055448695,0.1603196249871835,1.2182359661852973,1.4291669367506494,-4.674772065057803,-0.6375458993042904,10.269663717802333
28986,,-4.982409718974587,4.677551687519096,-7.077674634814,4.824307752307347,4.330074591150426,-2.0084847585982875,-1.7471005140568685,-7.336865814359248,-3.492456406027099,-0.5163484522269368,1.402771006963042,-2.589698879870092,-0.4337519232948101,10.547169155912623
29236,,-2.25712658639946,-1.8813249762916884,-2.7920091477594786,4.629327084127112,3.188881469136515,-2.2833971167752813,-2.5222723346389344,-5.602620843494154,-4.05264061340351,-5.61651213015546,3.507405026574414,-0.7355462931072622,5.745775471026708,7.772401404623719
29485,,0.6790791777361888,-1.1656722718051804,-2.1569764167662795,1.7691029925445712,-0.0848480034077826,-1.0944238684349403,-0.8606554095321011,-0.5498993015941965,-2.745480762363053,-3.99315217647638,1.1318375445216882,-0.8595772416081622,6.60998113949351,5.63660591807654
29735,,-0.6493843288225907,-2.9597839343114862,-3.4498285415562897,4.334271956400112,3.4924291783523884,-1.6395721211551302,-2.128117366620152,-0.830523898684558,-1.2751427360810463,-3.5687299602559133,-0.0275252428742241,-3.619519193797779,0.2741805128530842,4.00077257195303
29985,,-0.7962386428987536,-1.7891128275156254,-1.934662528525116,7.0119713567344455,3.671667991615153,-2.069891375362065,-8.030499306218296,-1.4824333472447728,-1.9421504906366347,-2.286206355629357,0.2890204736477415,-2.7840235854527497,-0.3713577409279128,6.120477198415425
30235,,-2.259867602265384,-0.3860098197232476,-3.1876753079611344,7.004642866842371,4.203766397930427,-4.342307784869555,-8.199695102864643,2.345609080849182,-3.836018334025472,-1.2193934036631,5.316963313914281,-2.744502888836346,0.9182527565039256,9.587180331968195
30485,,-1.5623024605555782,2.0139454960152814,-11.079774269452198,4.869592340406256,3.216506506588268,-4.6965760220935415,-6.099133361616266,0.0167414693687299,-2.410046088822541,-3.347563421651987,4.831850026267461,-3.7527151320821455,-0.4840560467748409,7.466601469148498
30735,,0.6769791337925611,-2.6790704941628998,-10.262689909317572,-1.2551590444065888,1.882026078352994,-3.618455649085352,-5.732416401479389,-10.867763085936314,-5.480279959324318,0.7321884073908747,2.5225259764453205,-5.128640154037891,2.377178658410388,5.807234638920397
30985,,-0.3934998084039295,-1.1444147452224398,-3.841510110792057,-1.7795444558943951,2.7456574810066687,-2.8919479248504865,-4.159732700536559,-7.318815113089206,-5.682445617971411,3.7378090312362247,1.4605095449824923,-4.804395865871021,3.0073151044907487,4.924932617167414
31235,,0.6727369590769948,5.026060233156027,-5.1247988254254695,0.3489988740088657,2.5097299631435948,-4.531853915573637,-5.887681223148773,-8.5272201900395,-4.061283126577976,2.956630158501679,2.382428229986693,-4.840206791344524,3.807965769411879,6.204468916529738
31484,,-0.067580329157093,5.790384390016095,-5.97339064714385,2.454707763451311,3.794361219382769,-6.163067972181967,-7.280569442494654,-4.082878677752928,1.7690040155858866,3.5151534659778245,5.696627331379501,-4.594777744327101,2.0301929072225864,8.526751005689361
31734,,5.4686518810136056,4.806096992290607,-1.717312497353081,2.8126582076700664,5.1212498031607545,-4.008935841623549,-2.476101434303125,-1.3321709276299454,8.064351467928532,0.6179833966147021,0.6947685741689633,-5.128522657637746,-2.3419119069653886,1.8919878671351011
31984,,3.570244004529382,3.8689150559687913,-1.126380877641384,1.0548112283513202,3.382743888846784,-6.012751198911138,-3.6370857170194895,-4.556830374355918,5.738128725109296,-8.98683742741735,-0.2312167496611868,-7.1516201103331145,-6.119172429022908,-3.481751432281877
32234,,2.304881869110073,3.5976933109131606,-5.616888907759341,4.370870117593833,2.4510724954071303,-2.2916395846312505,-2.235135012207536,-5.239240536610157,1.018519581037607,-3.281200683661182,3.8501890011536153,-4.070223553862027,-2.8680772676984256,0.3676095427663855
32484,,0.6390448274678537,5.16231526741996,-6.582821249445454,7.736807661499161,0.1285207086820911,-3.148708966502604,-4.299898789430983,-4.779417687740967,-3.2697362314267724,-0.0330274706970153,4.950766619798424,-6.017314359265241,0.1197467959361839,0.9118931112223728
32734,,-4.357444526421182,4.818571863709972,-8.40978491397503,7.503403456428544,-2.085921740126164,-3.8245575144690394,-11.230657801599296,-9.145650634112616,-6.923086163790097,-3.546379042400117,4.612189915859162,-3.3332722852067964,1.065440357538003,1.193965458638638
32984,,1.1830133003343355,2.63028569462636,-3.2476700733256485,5.311400970794102,-1.3389504633949727,-2.060144028975714,-5.732880011893695,-7.718509600076365,-3.886360155537712,-1.7467265666468887,5.107656319223715,-2.1392619894997,3.520070068983221,8.418073781343484
33234,,1.1315807118690393,1.708735571291054,-0.6666420022194531,5.851791558698636,2.307632723975489,1.572084792396233,-3.856951516363955,-6.632853166568288,-3.34577270995206,-1.057714125003892,5.259404083404931,-2.408242170261276,3.774340852210541,10.466373988234746
33483,,0.1215788649577336,1.5216473044688208,-5.824017888718784,2.417454801989507,5.034931459469125,0.4103810278587557,-3.597118833197008,-5.9596011764133126,-1.8166226715196363,-4.337161693514188,4.820002179653205,-4.26231643776556,1.497891050045387,9.549274993097397
33733,,3.44146098593106,3.947770856748391,-11.267979159898069,3.884719905093511,1.6370655204313376,-4.826956772583964,-6.01645880077988,-6.0380500168028215,-1.6388254607275563,-7.422022266986863,6.683796372557573,-2.49987707237586,-0.5876382400056617,6.118457355616593
33983,,0.9180780510457044,1.3411684900402066,-6.063208528164016,6.280527618360124,2.950298151433474,-5.078724952766004,-7.833554028919297,-9.304693806740415,-0.5138149374055339,-4.477516076834514,6.352993417017931,-4.699988128170676,-2.3615528525299,4.903109469270558
34233,,-3.503284235369961,4.226708140367114,-1.5360482056600837,6.606888622902575,1.416344988578126,-5.177832933775758,-6.476385410985932,-4.9077280777169925,-0.4434466992801191,0.0846594389490072,4.413871248265081,-2.6738559928769066,2.741252870762048,6.411894215563567
34483,,-4.930524622604403,3.85164073815739,-2.805827246391732,8.100472756359402,3.988224489544555,-6.112094110132734,-5.919470283199857,-3.9167975415433953,-2.1651863872147064,0.5848422868221984,5.240762843877692,-2.909858829209544,1.5914448056744688,5.344947878387324
34733,,-2.689973369458299,0.0131477270608169,-7.035711874252641,6.716609043925562,5.617486532381591,-9.850010422250511,-5.832151494615707,-6.409586839725563,-3.6594077349727328,-1.828901748411953,3.709976613373662,-3.1552713056827835,2.2401138252249178,5.253885730780434
34983,,0.7659810536930578,0.3990365194343402,-7.199786724862869,9.11585138321614,4.911331296468468,-5.613590582099071,-6.230204171270585,-7.49662802494742,-2.598961351165081,-1.1642129406990622,0.4719781192188894,-2.362111873692194,3.407630655008461,3.3091276838692805
35233,,1.1009549806436745,1.5895763064762711,-3.143045771357016,6.362153531106804,1.4559067314391163,-6.699723500169535,-8.414187581710369,-8.210177661275383,-5.82690063097639,-2.953957831118679,-1.2271083507426823,-5.593092039723114,-0.6214700055554784,1.21514901810428
35482,,-4.294262730170324,-2.4445685862739945,-3.218925212934516,3.1640696071698526,-0.211790832194427,-7.199411667837936,-6.242153485463944,-5.7827660000653776,-6.873864953207709,-0.6497313637872888,0.8772580490219144,-8.438539786697438,-3.7396970207129607,-0.6074737171313906
35732,,0.9862562953224628,-2.229082159479072,-1.7064917133467128,6.19615622020814,2.9667803688879024,-4.160931819313197,-6.0861407909244045,-4.573904587203449,-4.246636093168593,-1.644185961373019,1.3499756555059674,-8.838915679596692,0.6264169573255922,6.898284860311622
35982,,1.4142677121970912,1.0172959504590453,-4.262356244946447,5.257924859804374,0.4389547743213587,1.1653611137088606,-2.8980487806305524,-1.4626389525605623,-1.3543447706998812,-0.407810437177702,-0.4482223404108997,-7.2145735471384675,4.549238832069548,9.52549531180958
36232,,-1.4010131590443708,0.1067415802601433,-8.742078954734058,5.581116628610428,2.577368520998392,0.5142008912867664,-2.0972703022191923,-1.8862898200201528,-5.022782835033741,0.9462858998913076,2.3411821986281858,-5.960913469724059,4.487653916747546,7.270958315827891
36482,,-0.5636053429433376,-2.582258053376085,-8.232796677197609,2.844403811422031,3.080276784418684,-0.4797182906707486,-3.1249889966456683,-4.2275913688571904,-3.0787217352977434,1.275722151953237,5.294386482284601,-3.951324416127747,3.965765036372522,5.861897334368697
36732,,-1.3256043398406294,-2.8918742034826432,-7.231054469199164,-2.266479799619274,0.1461187172471068,-2.3377287856632707,-4.215998547896795,-9.01196507419512,-3.57419062484796,0.0986911694167486,6.330689496542552,-1.84829582099288,-2.949838589097244,5.382384454138169
36982,,-0.9905371210490606,-1.424987660221272,-5.095320916075609,1.1334680506285846,1.879355061649966,-2.382071198070805,-6.8797870275579065,-5.16965022909964,-4.602584502931158,-3.85330467721734,3.541314023940508,-0.2858487395911811,-5.896776634816487,5.08601543479258
37232,,-0.3276990965201881,-1.834792863147328,-6.1708913949042445,1.703551516228639,4.156347004223541,-2.4049411098446187,-3.869910777494372,-4.3409048166336826,-1.8565353806104967,-4.068991976603741,0.5027411950307336,-4.28743328668976,1.4859712404122334,2.8888758815625417
37481,,-0.8686065289167787,-0.7931506465528524,-6.367634870801889,6.317611989958406,4.428665986730634,-3.5901779863277667,-6.780127836227496,-4.583109010462144,-0.7155578500909475,-3.1737392620688216,-0.1027182243073212,-7.009009853455634,2.4034764773567296,0.8266986144561275
37731,,-3.2503134858997846,-0.9657263549095746,-9.052151654712237,8.710979665715069,4.070598648923,-3.9915113839674383,-9.353817622208147,-5.019850283115187,-0.7266409176027845,0.923488298163385,-2.7161592592343924,-6.6964605131645,-0.9254001701503072,3.164399367600515
37981,R,-1.4127152411620238,-0.671968605895536,-3.1698987433445853,8.61469833238212,1.6795006617294872,-5.753674791094684,-7.949093780875519,-7.833450307123969,-3.0589829126826364,2.5241297423151177,3.2444393839290098,-3.20632389604606,-3.047340375687982,3.939955636989364
38231,,0.9780569783975506,-0.0180061866291376,-3.0429170166704558,7.428623023207206,1.988788021020684,-6.0808752122895084,-7.104263059450934,-5.827206233835383,-5.36170051392514,-0.1998823770907105,7.849153887843157,-4.026918157367419,-3.1994236346055827,6.056012753792453
38481,,1.9934003262893225,0.2922208437441775,-4.228947761982113,3.17762696945401,3.263658457331916,-5.753022628522101,-2.67449561628463,-4.625327343373633,-5.235622527787744,-2.7897864617431467,4.985929243276289,-5.08262512929207,-1.9785395488279671,6.367803418793312
38731,,0.1797603351013969,1.366689050203595,-4.034347899434025,3.856078237486175,3.738401125846188,-7.800295429452968,-0.5446082113908761,-1.2986013571800483,-1.464411712687754,-1.4239240766105956,1.7609035180407917,-0.9886710913032372,-2.836934049577385,9.337465507480758
38981,,-3.930829847736504,-0.1440104014687679,-8.23259683850296,6.471993115164819,2.4156273570039395,-6.607782461520327,0.1685875307099307,-2.003268744640992,-0.1251130695446631,2.5257119469975864,3.748645571313933,-0.903869827919116,-0.0551295845967378,10.2082677874848
39231,,-2.523737862858676,1.9275326006034184,-4.61335312119394,10.539857943302696,1.3107969612571884,-5.5925473757800725,-5.848415981311459,-6.696722983312073,-2.50560704253079,0.238928436057273,7.224925610778397,-4.4851410129057765,1.4032221295459102,6.841963059744769
39480,,-2.05807202201904,2.929881750994378,-6.64082743616116,8.102206839609021,1.489474073924852,-4.754216894547488,-6.448266378146142,-7.904190397942072,-3.842232572802495,-1.645259075117126,4.19154413037962,-3.846249936019415,-0.03809393591769,2.7585761964282893
39730,,-3.937711132664215,2.660326258137868,-9.204553935486212,4.476264852704964,4.153194820157521,-3.632827472562499,-8.4508917488432,-8.580267820635939,-3.788998578531404,-1.5758964998907756,1.1497843097722713,-4.714660833515694,-3.448536231606108,-0.0171931963124855
39980,,-0.7918018197514434,-1.4986751192744552,-5.293460182905307,2.865832802226435,1.0444479002165683,-0.1464373147777108,-7.1426966321701935,-4.58812056125411,-5.509617535080067,1.440999724834931,0.9261134716228112,-4.988863530423628,-3.069183077672741,-3.555987695134211
40230,,2.406548639580996,0.7898036536016109,-3.7348747175578634,5.715804897238463,0.5460304528681998,0.4631663641413254,-6.369065588575379,-5.313304761107949,-6.645494315537544,3.6635605471467114,0.8273429146493604,-4.289895708979699,-0.7912500596852894,-0.6991313313757584
40480,,0.6559551857067448,2.2549307166231527,-1.865342999296307,5.879878394164228,3.12265685041875,-1.7721499389859243,-2.639322711725064,-5.806364003125558,-1.6281626352123777,-0.0934577416849207,-3.5687542255557143,-3.245903960108865,1.139854267391275,2.893431411736706
40730,,-3.5773381122985,2.209756081124545,-4.671344076136203,5.226587650293917,-0.0684534525552446,-2.1833988307113468,-1.7377404677887454,-6.865174068643274,1.3398833006872128,-3.333557519496372,-2.672336254498106,-7.19903855751709,-0.8089324993174053,6.806391618020663
40980,,0.4817771391006176,0.4572243563198134,-5.733600525839904,4.06077444096066,-3.666815083472175,-3.166678340741289,-3.189498955626684,-3.307059664115669,-2.438332965739451,-0.3157653073321306,1.49107430518537,-13.348430387877537,-2.1721996164598134,5.873843296633488
41230,,-2.849304589335162,-4.27050169963489,-5.807985452838276,3.8557121048823975,3.2127562982591584,-6.003493515263144,-5.545954427055388,-1.98585783364799,-4.23647673984545,1.4222995122791655,3.308614871571917,-6.807370076003325,-1.850801751443476,1.6685446896536944
41479,,-4.587095347955058,-3.936658658349072,-7.040707879511368,5.335868297599603,1.9524502178041283,-3.654932667377428,-6.253177220451479,-4.037540677061597,-2.346859934311673,-0.1707032636184768,0.9520844570266316,-3.332153451060539,-1.2897202279481546,2.056814055308473
41729,,-3.001639246386845,-3.379787456350406,-6.120490793184744,1.9822910731399392,0.1157120870957573,-1.3275334708262858,0.4745066748914019,-5.868100104081351,-1.8638448569531143,-8.51779159611997,3.2097425821549,-1.551848564118163,0.9967954879432406,6.532045744990621
41979,,0.2106387977470894,0.0401817977755063,-1.763920396429012,2.784707233198687,-1.2560263595222332,-3.852599450340968,2.545852334986308,-3.82599254648321,-0.8683336137423731,-3.126756341558151,4.166894803635268,-1.123475115952222,0.1287020846770868,3.365329449635098
42229,,1.260694243962902,3.961074208055365,-2.162547558821918,1.9870216503382845,0.9467580578507806,-3.0417624420089395,-3.609683392107178,-4.785894568553295,-1.5143568292982257,-0.3502187034958289,3.531148726898581,-2.3953140055853166,-1.877188944195109,-0.2008459053554623
42479,,-1.6209245751478785,0.9287172317370485,-5.586678290813191,4.385023588137416,2.937336608454176,0.0384310680326082,-8.16989001929352,-9.869232492061151,-3.5098977225709675,-3.100384391786441,2.549447417659924,-3.5304365920748104,0.8260078594115648,1.408911365304239
42729,,-2.944804034758437,0.4734308537013791,-6.826137989849715,4.901107845810876,3.489155651318114,-2.882341002369386,-3.565449454209219,-6.056576879413722,-2.382379352130016,-1.0536589186672394,1.4981418504657784,-2.615660005232442,0.9618934161870076,5.204670595818827
42979,,-6.437592835119528,-1.231382920225502,-8.530146690540171,4.586625046701187,2.8490706799249086,-3.146926313610936,-3.778372977117992,-5.472855021806594,-1.4745853669579037,2.827231742123181,0.1050075713229879,-4.2385351428877,2.340140631897997,6.760886503836772
43229,,-4.291219497614751,-0.2586166379889266,-12.17402012131096,5.009725452563445,3.106232718133408,-2.201595325207948,-8.127952165037382,-1.540733335213078,-1.8155683704054444,2.82672672618113,1.5920346137948136,-3.800659925726404,2.190848262613145,7.474174039678764
43478,,-1.8730046829184204,1.4447493504202715,-3.695257252053942,4.283780270345144,-0.4296251786864025,-4.491154149893307,-8.553691946791034,-1.7409924689205802,-0.99513717329612,-0.4689962063857767,5.928862982527634,-2.479748672607885,0.428728276580084,8.010631374487723
43728,,-0.5134875459633372,-1.201903451721248,-1.3007689166564709,5.944604294314079,-0.1085493178446637,-5.529152503909913,-1.8717035623246132,-4.794853295892441,0.4458829384430459,-1.4079678377624705,5.619078662319921,-0.4213822016717251,-0.3339632500263005,7.488172492159886
43978,,-3.3671979195779893,1.131157976877296,-3.703128131893409,3.345382758575008,3.957250695460468,-5.577695655692687,0.1248885632738039,-5.865903394958339,-0.461877304262173,-1.0026194521832512,1.1189784638375482,-2.5504135975646114,-3.137011542671053,7.252486096940004
44228,,-3.6056511011606966,-0.3322969522263594,-1.7128482342890097,6.3038045879173445,4.092007589992171,-4.4861889572732245,-2.2956714547552672,-3.4731055811645755,-1.5709461945903418,-1.2346415566742968,0.9897252130839378,-2.597832563781278,0.0011595103261538,7.333056973912926
44478,,-1.129430318827524,-5.10300973775208,-3.0918871322311423,7.195394576501126,3.23994961766218,-5.378680034438293,-4.638762101237416,-7.161875548039061,-3.3464353087554084,-0.452667882902926,2.4870948405274342,-3.7742843778012696,3.147065499385896,8.404743176011486
44728,,-1.612271417529425,-2.179671227034539,-1.8628984548429035,5.134893502330779,2.3045274965525064,-8.805893503219433,-3.605361975214177,-6.223207962250687,-3.781525681476796,0.3881144742587222,2.779127601271603,-3.5240739379359853,3.9619252885910647,7.003643986502127
44978,,-2.575276575585793,1.869123421357558,0.8056056352436016,4.537524528422537,2.511629263550531,-9.313384047087242,-7.358556932514856,-4.848656456438858,-1.867598687592336,1.2930759232156397,-0.4636853431249942,-2.0742171706455887,-0.8954083982225707,6.863474710831902
45228,,0.8733750194052443,3.5471895668961406,-2.05181072952484,0.2377347681389351,4.343282169793246,-4.7047975538932025,-6.196417083313467,-7.34507357601287,-1.1920116198228352,0.3571279854117634,1.9325585999493855,-4.196268900446216,-1.472580657093001,8.700666076651043
45477,,-1.7930771335734998,-0.7550451943133618,-5.285840566593598,2.234433496805392,3.4213687275292703,-4.4081552798011705,-3.1710214996935333,-4.769898164043578,1.0485148513094047,-2.0483993149641133,6.544497984956839,-4.263319057562487,1.1007177015184504,7.588726076824088
45727,,-2.7424371660446827,-1.4980963212122678,-2.268129760269712,6.384527209962785,1.156065487783838,-2.2911076978530382,-3.6932961377880535,-1.9327543759370105,0.0101167099547782,-5.211006316295684,3.8424212608065296,-7.147563611356129,1.472663088853504,5.601047790907222
45977,,-0.5323904863603203,3.484196780278332,-3.7951017198839727,6.449144606820773,-0.0295157972889859,-5.72257674510346,-7.793766556850498,-5.120957512690014,-3.640436805073193,0.1224079355954709,0.4253856273478088,-6.928773583934329,-0.1452835275446413,8.024131852892406
46227,,-3.4230443037846605,3.120778708697051,-8.317501053700676,5.591564275671072,0.9850268033101536,-9.528805501623976,-8.464645479026167,-4.467402883856899,-5.852231384302662,-0.2324379496932377,3.566795903361561,-5.713331227728853,-0.8686702866664265,4.9403377315295725
46477,,-1.7903332808858028,0.4590397099322942,-6.48142786209149,7.948692997691525,5.099726629600862,-2.6365171587968645,-4.119153061492867,-7.481041943155741,-3.560177180888262,-1.3462479182752871,3.0025347149053867,-8.20511981240037,1.0118986117043902,1.3971094490718416
46727,,-0.8448748905807832,2.308322972875177,-6.035012036153848,5.0307703692209405,6.945086118910858,-1.3481019232800286,-1.2652227812329495,-8.729592463348158,-3.814665443280804,-2.13470845012177,4.87290320019955,-8.52208365530311,-0.5173199078931368,4.134277725420493
46977,,-4.305074992355621,1.834341864499936,-5.513086516998143,4.180537524611957,3.7295528068165615,-1.1794511603663844,-3.2099801021362184,-8.803726864393058,-7.188135796014864,-2.9912988996559102,5.869933499785049,-8.014637735633718,0.3793242300205684,3.67711964134002
47227,,-7.716317516731706,0.5423954388490444,-3.4318576182918195,3.682765137578492,1.0534196928059318,-3.951826573971408,-3.3884845963531225,-7.0593716765711,-10.2091857900769,-3.2121815021118323,3.231411731423342,-9.426150662839945,-1.2867603427949286,-1.584127002984551
47476,,-5.809714142850192,0.9342932494052496,1.3944595574877914,5.575679966810238,1.5640641087762757,-5.700991499136223,-3.8600550538352607,-7.000188662068516,-5.210069138785425,-2.809034979455205,-0.422117998842979,-5.389909085367661,1.3075549081858064,-2.0080811998002823
47726,,-2.717646636688158,-0.3516858665448498,-0.294573003858593,4.830414112285456,-1.1160670463556823,-5.334759032390181,-4.217202128646395,-2.727883133021388,-0.0569425443174928,-1.776401614481446,-1.537766241786772,-6.770340800787929,2.2965760905867656,-0.771041317202401
47976,,-1.249356738453682,4.40564341851408,-6.288341457344746,3.5097583574448707,-1.9374733760288505,-4.873001779386483,-3.783357882124797,-2.7212832372354896,0.202764384540219,-0.2037001748865795,2.8015984010192363,-5.835223253610088,-0.6734717870757557,2.767396357564044
48226,,-3.750357170752716,3.439853592123096,-5.173319157316101,4.215792237729296,3.883444067905901,-7.335806520489438,-5.830287590705119,-8.818741297848646,-4.177467160341497,1.0107000766031615,3.982648136488278,-5.300684465786203,0.915038493092178,4.6772283134394845
48476,,-5.370542353266281,1.1957617762488808,-4.925028317747483,5.580029132538997,4.392744521180419,-6.060213173093033,-8.867358619337104,-7.039344594247423,-3.069057521697917,-0.8234480956988678,1.1966811354665006,-6.01910328476711,3.7236628357426,5.11357635970604
48726,,-4.210273929525176,0.6373770742797586,-8.864302068947744,3.757326963851793,4.659395245276937,-4.559414795903967,-8.922233319985967,-5.920503590169084,-0.5414672119499826,-5.731708294158981,1.352737679201776,-8.425730722647785,3.789747528725092,7.543102281319801
48976,,-0.8384490751732332,-2.2577656119538987,-6.819648847306335,2.009047445307017,3.687016786762982,-4.017291855396875,-7.586787886508217,-6.025548615543307,-4.062034720863307,-3.8535509028503783,0.4324440673816917,-10.865446528443664,1.3211234613418887,5.642797666864725
49226,,-2.075719552071865,-0.3597772585143083,-2.124225885130085,5.13416912186379,3.213736551674286,-3.9251639212790903,-8.765944203977236,-11.183710563410097,-4.813832358371057,-4.645696671752371,5.760291872186279,-10.250533229953902,3.223316229239753,7.730001285542461
49475,,-2.017710976841128,2.928458838351497,-0.7805281282814015,2.9442203317347437,5.569542984021933,-3.6066711759925054,-6.860906373562838,-12.216819657151154,-4.606538462475276,-2.684627937340889,4.641557768458526,-7.881928471326183,4.478901147005782,7.599341751907814
49725,,-1.6927730151255058,5.033471797063612,-1.869929758170505,3.982935956072638,4.980204604316981,-6.206815661361517,-6.0297204634968615,-7.874174187842279,-5.800289455373855,-0.7646952687251606,-2.6987544615878907,-4.613194937491957,0.8974326000510386,9.129897136014751
49975,,-3.194492387091975,0.988975143529936,-3.882622309569599,4.556562912467695,3.971822404633576,-2.6629235077061173,-4.82499925213998,-5.146953095981523,-0.7838771197402161,2.2711301574430616,1.69591110737504,-7.135184642900107,0.0289692219813819,9.161873722349403
50225,,1.106660265881648,-2.162570199164486,-4.946971968201171,3.844498306787163,3.3662229826166907,0.5889179562617666,-4.923352750928094,-4.760512214383971,-4.066923380937832,3.2131217973799586,5.724499253122263,-9.470190494248698,0.0936151819867345,3.2793569257547635
50475,,2.049483465116593,2.4244817916857504,-7.495187566656121,4.285737759580038,5.035280610644874,-0.3402508663684918,-8.872401865310458,-5.536083735367024,-6.015668839045507,1.47917632315892,3.6668008509657706,-8.863231413071132,-2.052345701130111,5.562018949541954
50725,,0.6640519508358045,3.1011056482119885,-7.66278912828783,5.788028494476251,5.688261647175907,-2.2625638652520546,-8.828855737593402,-8.454150160606709,-3.244296989589021,0.2134153498093706,3.732813823199765,-7.9550203069914,-4.23410656332649,7.082926324630112
50975,,-0.4123257778697049,0.7117035495477444,-4.876967303372496,3.117058463274548,5.803266556225852,-2.0142620559385334,-4.669938881829074,-8.795736143656722,-3.811031401199589,-0.3984132346509741,5.257018368239104,-6.251944061818255,-0.3795799606769143,-2.3790560989412373
51225,,0.0547080917232605,3.9771477172952,-6.369629954744392,5.51732486788883,6.835693227269708,-7.341375910426661,-7.203441249268247,-3.489831592551992,3.875900828320744,0.5412618142139504,4.073972231938246,-7.8867619488651854,1.6801093785478785,-0.4535585905111126
51475,,0.7602598365029639,6.332698658760357,-11.409274462507602,6.914777201394449,3.696959766980334,-5.950309373027986,-5.706591245362665,-3.748418312209392,3.256938598991608,2.7063070192691763,5.369961560233624,-11.737598331738308,-0.3552885891723997,0.8549997811051817
51724,,-2.7653341598507337,5.777997747452748,-10.642062570054623,3.543831522592136,3.4465967923910013,-2.5697100478276163,-3.997585354852364,-7.249467375478659,-2.0949966572615546,0.8968904462469782,4.043105326293063,-7.248354003037147,-1.2436544384977564,-1.517437854655912
51974,,-1.359817010797228,5.435962357434281,-9.605812392597876,2.1235631949920317,-0.2933926084925617,-2.8943517995258605,-5.50940242489716,-3.927618822965088,-3.4218753392313683,2.694607899543526,0.3467377245639017,-7.400000661439008,1.0124474695595245,2.261416251097728
52224,,0.0368694175606914,5.6317244837040565,-9.201353907925265,5.695279622729222,-1.6399356483536012,-7.675174249239154,-6.7234854580197725,-4.0762088572561295,-3.4715650552965367,5.029912890564625,0.8564878438519399,-5.966759205749112,0.2832520086371388,4.01405716408515
52474,,0.3924679055220506,0.674693757455655,-8.771620814140306,4.388580788740251,1.8429657501232968,-5.55838125779717,-7.257539169817311,-10.464889335553602,-2.323205166704998,-0.2873403992344328,2.9847373095551166,-4.598206460212424,-0.2765545152731862,-1.3783675553884271
52724,,-1.1734865176033082,4.778964641901977,-9.364179208685533,1.4100745472421696,2.4160161540958547,-2.027825617186934,1.3115960778706657,-7.994854882910005,-4.901402842165913,-0.940159402935157,3.4232227231059498,-5.905313716770239,-2.428823228586298,-1.7546614618082077
52974,,0.847666497894515,3.392104283446788,-3.0634699448239417,5.505451291522009,1.0185391218867137,-2.126020983656588,3.699462674276908,-8.221004343251563,-5.647321844847921,-1.159712564986822,3.007056337643958,-7.770600541409313,-2.1983191002752864,3.642514115426488
53224,,2.6203037658047035,-1.2175104017302856,-2.6022282051099745,5.19918115073653,1.090398177549248,-2.4950340564626576,5.415395267010386,-9.239921414823195,-4.058784697086695,-1.6590336173392624,2.1168409583722028,-4.188692944260232,-0.4397266964143149,5.49783780890396
53474,,-0.7586929510439708,-1.0449456727248492,-2.832917051503032,4.148864728323638,0.8154856937210668,-1.0038894504392888,0.0153975156690927,-3.571262817233254,-0.8566046230411024,0.8896518214927249,4.214180847761674,-0.949325028847988,-1.6842742008003773,7.567466992544616
53723,,-3.0416220978184345,-0.6415149560474709,-2.3811533177486424,4.884717868718011,-0.6305127439951423,-4.340123536006328,-4.304269696463795,-4.6865405464088,-2.0143002051970447,0.3500893105082386,3.77947299421715,-0.5870334396217898,-0.0153848132067586,7.049219038057972
53973,,-2.9919511026596406,1.987434661940324,-6.619834695264771,8.907918316222599,1.1350630822380885,-7.035340608444857,-6.687761460569409,-7.774109692690473,-5.17008426905827,-3.239905860509902,4.774868016544499,-3.432171819291133,-0.3632211940274701,4.84584653579148
54223,,-7.199960164922217,1.813927950290407,-5.090364197289955,5.745720267308517,0.6264289750457686,-6.628753203015369,-7.018688589663968,-8.157512308807268,-2.974179895643827,-1.3564771050890447,4.566680217960762,-3.688019088903349,-1.6373570230445689,1.4178340619741836
54473,,-5.412797491142229,2.2067061825105045,-1.805079523159256,0.5426067011905986,-0.8140526855405312,-3.42154244441231,-4.751008487711457,-6.27494633941091,-2.321580448282444,0.1484063128226863,0.6039174617935033,-3.8245374159478818,-0.1919699991597351,2.023071850959256
54723,,-2.760917099091491,2.1620136664650804,-2.0646192447641694,3.980578919472934,0.8088930683245792,-2.825077153528672,-7.591979019788572,-8.566774622595458,-1.6010708413396997,1.2678817541290337,1.643069164910858,-5.949801669474467,1.2530058191190825,-0.7833343518035993
54973,,-2.95440231374654,0.1791768615558832,-3.249996741323317,5.924828144484336,3.3502535923986434,-0.544134155348822,-7.146711087305314,-9.349134578902218,-0.5710575871806788,-0.2385045419806044,1.6027136957476569,-10.965366713065944,1.3410728941313803,-4.505156452356703
55223,,-1.664726102385121,1.4705983380730523,-5.824648166664214,4.353097319202828,3.1446750228809206,0.3599939034008931,-3.0320505904692885,-9.906739701901492,-4.191882094381963,-3.3331624069837056,3.876712575854648,-6.443078826391079,-3.606792697996784,0.1497972050380441
55473,,0.266335396256888,2.3354880764323127,-8.218026161570101,5.603050075091568,6.189053615132961,-0.6087141866999621,-0.8100955321615367,-8.027578921113573,-5.603277115148267,-1.6043035215940882,4.453794431026974,-2.206248254347884,-5.58794632367972,5.935016492975356
55722,,-1.3695226385462234,2.261445053758318,-11.328024325163351,7.655910606784539,3.5517688299355,-5.1833121711141175,-4.223165966882471,-11.044438104714835,-4.313394979358527,-1.956405526678276,2.832616064622881,-5.7964077004078,-3.2797277745901106,5.162023065911803
55972,,-2.1575660165515087,3.057533311588762,-5.677173222574453,8.868905056832897,2.3233452576598834,-4.313192156498578,-2.6512329932263645,-10.58126033365716,-2.2964922374172563,-1.0165204302927249,1.1911054753730854,-8.658280258242861,-1.7692299802751283,2.48475620024749
56222,,-1.174931351767993,0.526998864275905,-5.933480310942052,8.378297708046814,3.436037883556231,-5.777895999467972,-3.8596150333570622,-5.783595938425167,-1.456961619836423,-1.218362600378786,1.7964162738493092,-3.2585138319557987,-0.3417277339459456,4.813493761452995
56472,,-0.8076315032022513,-0.3803860900727317,-5.278028473101033,5.016345219638656,4.275382049116749,-4.558076224071582,-1.2204405294835814,-6.941822364368574,-3.9953435255363168,-3.3919660991611518,2.280645578495084,-3.7415476502963103,-1.1910066092527938,4.791254977079574
56722,,0.257921975595808,0.6822134138052448,-3.971358458979977,3.826512859847022,7.85990076512001,-2.9462200819036144,-1.3456658712477865,-6.169703640474618,-1.6798400258748325,-7.717772055403421,4.001886657196189,-5.878711899896815,-0.0681462813961806,6.335095105388281
56972,,2.8109656072336064,1.6423359009639782,-2.76970141339228,7.47037206147837,6.39560534515736,0.308938842941081,-4.202193095643488,-5.251945954689562,-2.3065034525300065,-10.062549501897674,5.17816004587627,-1.8534063815076085,-2.567485653658286,6.556416152312599
57222,,1.32665956320255,1.6400065396464347,-3.854663419494516,10.48370879474622,6.04361937374523,-2.3061662171995483,-4.043672741973456,-4.721873053478861,-1.3873281901952674,-2.9801107091460715,6.412167996220099,-3.4232026806044447,-1.7178459495319285,2.9421479935706256
57472,,-3.5216811526990286,-1.446420068463916,-9.764321915230845,9.036735262434506,5.411400096552054,-7.185089333295574,-8.457310626142899,-6.164603937187199,-3.989133103509786,-3.7715109565326745,6.107895692181017,-7.424076036069146,1.3414203086664576,-3.853238832326572
57721,,-0.822889963619201,1.907143080801047,-11.203503815539245,8.37870683204503,4.649338637685102,-4.049720512395727,0.0155045800362801,-6.477577180696957,-1.8813030526295755,-2.353531907263356,5.223117233774358,-7.58403145960725,3.4134198110336,1.154650062001083
57971,,1.668909866054881,1.7653427226291307,-6.326620385281609,5.258869035298069,3.907066230996072,-1.4964848622858389,4.380555039397708,-7.459315177053837,-2.155282059781786,-2.0329879114804434,1.802941933092026,-4.622960415065088,-0.4209457628755811,-1.9523877007789971
58221,,0.8884356214608556,-0.2293579186914718,-1.3867647924450397,0.8532814969363428,1.7365648182167646,-2.25460642065177,0.4043624288724212,-7.681407318106794,-5.64422711855678,-2.248435504636672,0.5873108977546714,-6.152090534499141,0.6451286687395283,-3.613608713407365
58471,,-1.6617454030972207,-4.790725034914033,-1.9125706645384843,2.379507320702712,2.329425660907967,-2.3712984239810373,-3.991986427760494,-4.340993940246149,-3.410568793529112,-0.1711707936636193,2.084469809032155,-4.477626379266063,-0.1719740380460045,4.1094640621011935
58721,,-6.46375039672852,1.2299348248440871,-2.03985284293487,4.287238422781328,3.953912350447728,-1.8145814220018468,-2.6312506049109,-2.962107798353021,-0.9815207242062428,-1.0389414163763444,5.038239504722368,-4.726457678173154,1.5018971076998509,11.493649040084852
58971,,-4.141333436991844,1.80489082131469,-2.967580619861698,7.562463276467016,1.2854837538094506,-3.200922136433749,-4.171858351544982,-4.356565100497973,-1.7575165335337686,-0.7282044006100179,0.3372358095861898,-4.814398470485825,4.729183422999504,9.176202682983051
59221,,-0.1035979097904626,1.256277075271034,-2.83824807428341,8.91290730997916,-0.2230305697285568,-4.2225077663873485,-2.1507475699926357,-5.16560445532328,-0.7850600425128719,-2.444648849027582,-0.8003492828214619,-0.7125883608119628,5.306360757932593,6.546274633694163
59471,,0.4837711616827136,1.2845877171087134,-3.482245258176877,2.9164695987752194,4.978997877972708,-4.98031763631656,-1.652165801713483,-6.022706826641523,-1.1471309356247164,-1.4725907256764317,2.44835868517006,0.2187451312343736,0.9078916785977704,7.971220776469457
59720,,-4.102157558479947,2.421358990157647,-5.875025020984324,2.730005994267995,6.676203477031533,-3.22871002993446,-3.424186731827355,-13.44901499691623,-4.48391460344641,1.1255599726391423,0.5359070885341576,-3.780573707700068,2.730447901068911,7.2627191065547905
59970,,-0.9035195738400688,1.187391140347506,-5.71999437924947,4.338183925120149,3.377192877923406,-7.820866890962524,-4.351696589242062,-9.450076276333752,-3.706427436181073,0.3583246971728197,-0.9489580036715708,-6.873180283853575,3.351752249638284,7.268608775451684
60220,,2.381404682883547,-1.3587838134800827,-3.604460164521729,3.569111200171849,-0.3217665437019835,-6.46228000500697,-7.48447224372736,-3.149406642392028,-2.5766027376470046,0.2041158591283204,0.9883401485539623,-3.791287124390767,2.5661630515557734,6.496457293099351
60470,,0.3856613738195663,-1.1171628201923298,-5.584853659243636,4.370561159623362,2.0030679010929826,-0.5035711692694416,-3.5820366442492357,-2.128589718443928,-0.0643023274041008,-1.3706795651006072,4.374336740894117,-2.610030186493866,-0.6791427446229171,4.838110802512106
60720,,0.1985332595420826,-1.858065440816849,-5.63587246109584,1.7072230433568312,-1.758508101186099,0.8998876929956354,0.3432983748389067,-6.152176153013085,-3.613227685844042,-4.6698837364202594,6.913225945119248,-3.010905181975911,-3.156363761578998,2.5919055936982307
60970,,-1.62998101251463,-2.111607331559401,-5.045899502625291,3.79191819381077,-0.6836813074734304,-2.177826917155423,-1.5007949584198357,-4.220119623360349,-0.0904285972784153,-2.134890236906797,8.680158306814402,-3.349778255748485,0.3872971404026534,7.221316759316444
61220,,-3.931143977663737,-2.316208669012925,-4.604016403559875,7.406775217434376,1.059998833386229,-2.765798578793647,-4.372007862228137,-4.342852421495093,-0.2637488026704284,-3.76932078161584,5.772722570685591,-4.333219867843557,0.9912465413404647,7.1554867631816
61470,,-5.171113013898735,1.1336286578418044,-3.1226482842206025,4.357176057193202,-3.946257882301058,-7.367621327020558,-5.064936089998238,-5.41631564998604,-5.00805225191683,-4.003776252155644,1.906619263566311,-4.957037503715275,-1.389147855354902,4.941075009736623
61719,,-3.047235129730775,1.8196845830360249,-3.006416988735533,5.580474734277324,-0.9074474952149976,-6.049852653225422,-5.620569426236424,-2.991607041156738,-6.168994127730847,-5.940583728337588,1.1853895370708345,-7.401077323209492,-1.8251995553093583,9.981541452870012
61969,,0.106423876367322,-1.949923651371106,-2.0029839508579057,7.4902720103579075,5.020759370513232,-4.356139296540094,-2.744021506874894,-4.1710031362686975,-7.5683802585130655,1.0718802614107612,4.401791461940961,-11.433466230223068,-2.412148685696625,8.032927456558367
62219,,0.2405853089209795,-0.7299081952615813,-6.427205080188928,6.359850844920322,8.069957420301257,-1.1053746663985418,-3.091362560804758,-0.9414414972577771,-1.5987696885702691,1.6001888792879209,5.197167364747184,-4.278284094066734,-2.352304657023754,8.59554034428363
62469,,0.1637348953533054,2.204094079105108,-5.599953141955937,6.821645917103824,7.321751478747482,-1.0993608715323195,-0.189305231553627,-1.2597294166717052,1.365584873322478,1.2225804651478775,2.908357469682767,-1.7427180581259027,-1.3786193968914136,9.942060574966158
62719,,1.957041733096031,4.475460865490943,-4.9543131576154025,5.673876855219411,4.692952405467566,-0.0968091059373852,4.954025308781023,-4.573452573425703,-1.8663273612046212,0.2270190529190124,3.0127045355412907,-5.6842332322431695,-2.613061909400422,7.624920936116735
62969,,3.3536091762305698,2.8074916086428554,-3.897245242045523,5.112426625820551,4.861505473460863,0.505896776321866,3.137141305544469,-1.7717586756765258,0.3985664182312657,-3.1502339678952254,5.789760410095354,-6.810120073625229,-2.93443551871003,8.431545386413795
63219,,0.1719000056519266,-0.1918385996452161,-6.412691310840577,5.615070886081535,1.8222234096229413,-2.7985551707868463,-3.729461910766757,-5.9904526058814405,-1.1241007884226628,-3.2958512157907185,3.254774748761315,-11.334461559910949,-0.5526337622804631,6.077637062247348
63469,,2.7287135472473087,-1.6711093931243108,-7.470442627277532,4.721725123604575,-0.9328581163738736,-6.3474672383918165,-4.786850170828556,-7.678526761370349,-1.1767511824085606,-2.26198336463412,5.245211980106953,-5.063549896930794,1.764172958792618,7.809323137058083
63718,,3.710178494955216,-3.5413685882962898,-3.939771705579649,3.4858511304041864,-0.1525649814013649,-2.9692961114229166,-6.593196541912386,-6.578027065221626,0.0335004093407335,-2.401792560383824,5.920738930022356,-1.771069534246568,0.7757426447901311,6.49077254032807
63968,,0.740407719142623,-3.4607791124712763,-2.011339036790325,5.727512058295918,-0.2094275535382511,0.9691034297233868,-2.8971422990312408,-4.345888312560566,-1.9274929784350745,-1.899489856902976,1.2808507026850993,-3.97673595479837,0.0068930279521609,10.47771158979578
64218,,0.8009161310180595,-1.6828971133064856,-0.7260422336132399,5.183123451790954,-3.977765824489082,-0.6335188800871663,-4.626260895458378,-2.832612297785318,-1.6181160769965932,1.086142405131118,5.062771210056695,-1.9313964678098603,-0.9417054007685912,9.11846969265484
64468,,-0.3039285157579461,-1.924463818215861,-0.8089238554359196,1.9716420439263995,-0.2645082787946732,-2.201972630301316,-9.521561088704496,-5.341716671273426,-1.278068602651024,-0.6620034976656592,4.505299406622426,-1.1993586672070458,1.1845337039306554,8.420881135690369
64718,,-3.3846397234815315,-1.4918676933464252,-5.497411703471229,2.6432558882929147,3.227743523134938,-3.8109616805433775,-6.062637936861267,-9.194999475873926,-2.876912376894757,-0.3888286955982725,2.7607738209870107,-2.2740771196953355,4.041060849654054,6.233632684282103
64968,,-3.1486379427380524,1.0274146965884658,-9.491872810427946,-1.548793083614886,1.1544019564422114,-4.467525244233666,-6.369873591489053,-5.33487690805118,-0.7067945277006626,1.0422596550535257,3.479085646949294,-2.324552775853381,-1.27227296528017,7.071700854907648
65218,,-5.051651585174103,0.4303882857925794,-5.186387449544155,0.1135916229983053,4.452033827881829,-5.46381619600797,-8.188715199740779,-5.605775629806784,0.8615320291182125,-2.2739050775519565,6.335024463558094,-3.3047953974851154,2.445353242930186,6.197236039951774
65468,,-3.417486266270902,1.532862476483761,-7.022747384678658,0.4237248134351811,2.730416554714152,-7.334602283722493,-10.457557322376038,-7.228798543285844,-3.4531796786028552,-5.632924123913234,4.83452262378667,-7.991146268315789,3.958360900035181,6.228077510456329
65717,,-1.7782039412673842,2.072989079813315,-8.073475378525286,3.1901027049678725,1.3870503582497933,-9.47292600472458,-12.653706919505332,-5.423582861894586,-4.616300408796457,-4.144882214252361,0.8617699784914129,-8.526682265228166,-2.852199813954521,2.371152669982317
65967,,-0.4173198465643533,2.271423376880584,-6.595373225122189,4.691548278682456,1.51838807404285,-8.416589086107736,-6.90964474135456,-0.9687644210150036,0.1844798452029002,-3.1643056812585875,4.219725802325753,-7.612758618249087,-7.131350439120608,2.278920310535912
66217,,1.023580095424592,1.4184662290702807,-6.311395092975291,5.661008398010697,0.5124062035036643,-6.822642050851133,-6.302641133979414,-0.944799307810826,0.1224001651981341,-4.663260003491095,1.8479628056809816,-5.714973088205857,-2.122230794525501,3.4381743382552306
66467,,-3.1954306051655754,-2.1993628285243942,-4.113302967554139,9.010138732444943,2.5004420544486674,-4.1050598671575775,-5.114026902206701,-2.4892496490905223,-5.194715197486875,-2.1227782192074067,5.05919475257693,-6.034627053437776,-2.753873146406413,3.38687377133702
66717,,-8.21006274691365,-7.465821923180044,-5.720992286707315,9.149500077316551,0.8372049695963482,-7.148523034863841,-2.563205420994386,-5.427637423965859,-9.14966889925333,-1.676862702245378,3.212428828068768,-10.967149007760888,-4.645509697447336,2.238873368453349
66967,,-5.276245182103842,1.720684130402717,-6.482728751231996,4.673161251516574,0.2276202613832147,-4.055418844460298,-3.681582570824839,-9.510331789552916,-7.9759997663676305,-3.900067406108745,-0.8337852838282169,-8.046900090784577,-0.0576897754901892,2.3201140295482627
67217,,-1.624092354157941,5.910610625312072,-3.419874874598299,2.7803384733972383,2.319702683685545,-1.6655226603529705,-7.659405718457542,-7.967580420038568,-7.278696108498415,0.1595949208798478,4.506707871189912,-5.272571863246714,0.9749684781202412,1.7195988306630643
67467,,-5.093813543750938,2.722620804091351,-2.675723413252356,-0.2090144667550026,0.6898738680236881,-0.689228749177112,-4.954483143984085,-6.824011423414508,-3.498729863432676,0.2083425451084635,4.338395774502819,-6.3050836195614135,1.0669225061007126,0.5070809731419031
67716,,-4.632244645689892,-2.0442856898764243,-5.18899069853128,2.738997669829037,2.5324620214974325,-3.549434577256525,-4.154853771065866,-5.891247574500291,-1.4529329278803484,1.8278085602025325,4.109801550755342,-4.063166511510926,0.0344825132357208,6.881622940632015
67966,,-0.1046109385650219,2.369206398063199,-7.249086134798511,2.768484509510107,4.870218249722297,-5.88049095678484,-4.233240440762687,-2.824356408821002,-0.7223624395538732,1.588189999361578,3.032822003498292,-4.352648882866493,-1.5700303164493348,5.536344808968443
68216,,1.2632563937688512,5.856929777725527,-5.356571658111196,6.429364013482828,3.640758373324795,-4.284387742374671,-5.629597410592236,-0.3372266248101064,2.0843752671378253,2.6412121465527223,5.115263491546907,-6.261655257278776,0.3044427169216414,1.99002627435973
68466,,-2.219525590892322,1.8847500276264453,-2.4115911893451445,5.897896578739308,1.870574301885439,-1.386960204153917,-6.198815713380526,-3.364055915853497,-0.7847412400339975,1.7900517682618329,3.785436156887109,-4.054234330127255,2.523319633752448,0.5608735261770306
68716,,-3.845813596095403,0.7547660127411043,-2.608632349256343,2.8550028409830173,1.507898279205954,-1.2874056932473472,-5.785397501918989,-4.143199701443169,-3.213503173148281,0.5045608653003015,3.87909493059722,-3.644452629741776,2.9360048664765865,4.683206653465032
68966,,-3.6497125646820985,-3.492315492438322,-4.316307737446477,3.27893559935583,-0.1657837616047314,-1.90136455731175,-10.1336614239509,-4.381814484155754,-5.028113122016738,-0.6034440201218263,3.33227576647905,-5.952411525931183,1.7284040799684028,2.840365593121801
69216,,-3.3486160331451704,-1.8686308247569816,-1.39791431715055,4.849026989321335,-2.668461295630951,-4.227222352444929,-8.271493302205501,-4.728022153897564,-2.9299974118618373,-2.935142698348943,0.8579545877176854,-7.237849475359011,-4.174997077494756,0.0900831939375122
69466,,-1.0467662850086266,0.7330001927120978,-2.209331381930206,4.644574991076277,1.2364263261476205,-3.290371589190472,-5.488396603125204,-8.340514302561663,-2.124385407209592,-3.0745331121755517,1.6334925149801929,-5.727528022300615,-5.900220127815765,1.675371685214313
69715,,0.8784249625042483,-0.6170324594621635,-5.93619506391089,1.6693564331255737,3.757412617439606,-1.9481736069287956,-3.682147910087544,-8.612057571366545,-1.9659415783236571,0.2908371809360562,4.028414198323287,-6.457438641429602,-4.746709718586507,3.0945383447111
69965,,0.0091508423574784,3.1208971013067432,-10.455976452278652,4.246792399005615,2.584296827395513,-0.6521746857343889,-3.818685423374508,-1.38322550231761,-2.702887283931035,-0.4175902879506601,4.868363597042052,-2.794559880741247,-1.4884890228065042,7.597282821457547
70215,,-0.910618415820875,0.3468413851926017,-7.067636158950419,1.7198866550931668,3.921224965815554,-1.851503230045718,-3.6519117948746422,-0.3871204172783986,-1.215750267773575,-0.0078683970468844,6.770812325269409,-2.863030228613375,0.4570792428847086,9.047739346683333
70465,,-0.4721862646846912,-2.308972029930836,-7.6792672510975555,3.909348258502006,4.577715334967976,-6.188039048394371,-5.3116590139253095,-4.545472198567847,-3.4306724091595866,1.889969048138308,4.857803426079982,-2.1222048446591413,0.4968126978639899,5.343658315743355
70715,,1.5362232730278145,0.6897457199239192,-6.262908884757054,4.080773525453317,5.236919660959362,-6.629169262352522,-4.598988827786863,-3.612033880775385,-8.196932819941358,-1.996090527396024,3.4719215241555457,-0.9224616596058898,0.2023264413344477,7.7730843403929475
70965,,2.6274267899860124,0.1490584551068031,-2.955740411201613,-0.488775043245494,5.990351039701345,-5.323368005096379,3.165080946463074,-1.5299347394357108,-3.643865378577361,0.2722727130572647,2.5498534379940163,-3.8506425464875615,-2.456396882551765,9.000363540803338
71215,,-2.003775477307338,0.609446054517045,-2.2576707066481023,-0.6446214760429052,6.334968554614997,-4.41611432616786,2.52098723102319,-2.934547176320295,-1.1376656913657786,0.3813970433545852,3.010992038370122,-3.2039829253965872,-3.2587756915520814,9.391251796178128
71465,,-3.959090062808439,-2.605572681989241,0.0356596045895656,7.086501130406312,3.020434653377169,-1.28359002175206,-0.3227224742002926,-1.9970505814381072,1.7590762753744804,0.144200106149279,-1.853457406984817,-0.4265174875901629,-3.661591316456368,9.2689175271179
71714,,-0.2953568323854273,-2.4314630966115667,-2.735500745227584,5.401154172101808,3.415021067305836,0.4970280785094249,1.0150568885228817,-1.5492149239981237,1.797820850602093,0.8851079804175515,5.36023393092953,-0.1512138694044315,-1.2820202285717428,10.759809531342588
71964,,1.5472076518016054,0.8131514465165833,-5.846021167089575,7.72618645980436,3.6340461398500814,-2.885872330703896,-4.4519181531570124,-3.8156138451864487,-0.341036958070861,-0.6217765135578599,6.868270065003983,-3.913876614631013,-0.5821830329009526,9.11435061521993
72214,,-0.2247985596081232,0.6177942566066028,-7.140943582832233,6.60571998091894,2.1299517338599294,-2.4031126607235445,-6.000752985008445,-3.697896002365452,-0.1787400158803313,0.1082701651146066,5.253499228594864,-4.418399680575513,3.4889666308676976,8.448266891719818
72464,,-5.047424907106216,3.692537962705853,-4.831887354691414,5.323692715714811,4.331235131262004,-1.5824503224442157,-4.67883250170292,-4.439884705350419,-0.9965424051096474,-0.2126170658779597,4.802503781006245,-2.5884988230910744,4.175941425741208,6.444636604523117
72714,,-3.6127622233839976,4.648617874062275,-6.024313295008367,6.653394578740111,2.272272549734221,-2.773773607846385,-7.01918261323872,-3.628965065085266,-1.9970027849673209,-1.4493887028556878,-1.2798403105900005,-6.0398337222792,2.604741554518757,5.980905779147653
72964,,-2.6982433513219983,2.02920796657562,-3.926861088099444,4.773850545737319,2.3284296340236086,-5.569430897389419,-6.427110505373656,-2.108507518626344,-1.1786784788563318,-2.788024383471728,2.9383036646039744,-7.204340338130335,1.408061686070884,9.69838969116208
73214,,-3.3160193969670217,2.7048331792823515,-3.25157673857434,1.9546614185679692,2.05668107972461,-5.185460728992455,-5.6222771468514185,-5.111052948123161,-1.9029661567392413,-0.6068487061328763,4.386699382109624,-4.666601730761993,1.4260536175543703,6.5629338156058425
73464,,-3.564203928870329,-1.0571079924568854,-5.984397191971799,-1.0325032032308,2.0462304081423364,-11.518187808187337,-4.95901228033704,-8.214915961874755,-4.53539738833314,-0.9919892204813254,5.195453359380611,-8.069381671923068,-2.10159944569114,-0.6745871405898283
73713,,-3.0853865532928157,0.3403185858437424,-4.498558793788607,-1.881260489142359,1.1589785845766476,-11.530586142211371,-7.030572672095633,-6.529795649143589,-5.584341566899572,0.4344492191930022,2.5803078692763397,-10.726676317175832,-0.4071916443440165,-2.588125175040416
73963,,-1.968262597561816,4.154621510071301,-5.6647926813302805,4.780960456898232,-0.1426711943173952,-5.158792792409559,-3.763373465364964,-9.347298061926306,-5.339041588553992,-3.5701910846446965,1.658944931441687,-12.201002836320392,0.0937429075718394,-1.0033131723112216
74213,,1.578091330378738,2.239156975553682,-5.414460024163938,8.699083977539042,-1.3459969664850655,-3.2481751377923884,-1.83035259108978,-7.560808827260552,-6.75056076826955,-2.964748742447102,3.610631943982203,-11.246904954304926,-4.782837646253012,-0.3097574286998802
74463,,2.5997265805435523,0.4401981097445986,-5.115119068490523,10.915009261469995,-2.677416409315976,-3.3018222796129804,-2.423947111304904,-5.596443601938295,-5.013410191592454,1.2623412270395051,2.7018318399443637,-9.48878469621456,-3.210441837418674,0.3641472877768255
74713,,-0.0468423145868009,0.0647325505831105,-5.030316915352564,11.096475392589271,-0.3563915930022984,-6.546657591435135,-4.125065965595248,-8.823301604347742,-5.614752003795818,0.2696021034320541,5.827692176489544,-5.716993262125514,-0.0013008142988764,7.26137507131451
74963,,-2.574214455136442,0.4391470113131024,-5.76385760069317,4.129751101499902,2.111054637073293,-3.4208336004786464,-5.505726954590921,-6.296071193006448,-0.4491670443617563,0.3504929244856885,5.042762758767222,-1.3244460087638,2.2293756300681378,7.654740260683585
75213,,-1.2239620225260726,1.9368532648996095,-7.173983340495621,5.65398703528846,4.202285698044138,-2.017330596331499,-0.9062694766240076,-2.6888369270732726,2.4387028813064355,-0.6375063008316664,3.987153190787072,-3.712163275100494,3.7348110794096594,2.318693441608795
75463,,2.337477412129208,3.354498466304089,-3.5892080751775177,3.893659561922753,7.064766259072453,-3.36792408368944,-0.2504228806429571,-6.365262663329335,-2.9339987143882262,-1.0201650463156595,1.315906558555279,-5.280098979263965,0.7056706412858507,-0.6398364136551743
75713,,0.9373584913660756,3.4669657523570017,-2.258328153532184,5.812324729405184,4.800005286694283,0.7844648353279589,-1.3162854329795324,-6.268013882903013,-0.4477392827087921,-0.1050084122862246,-0.8095031264439678,-5.200509089881251,0.0520536730869218,1.853568132692028
75962,,-1.1923124146478004,-1.444881081263638,-1.962723303396328,6.480545924704771,1.0169368809472077,0.8309272291413444,-0.8912729879271829,-2.8267502440092085,0.0277305845402056,0.8097828597143968,3.505360469697536,-2.213688547788031,-1.3900814554742973,7.017029810044276
76212,,-1.726815358430125,-3.957828944456737,-1.9930169018995272,5.158121342815711,0.2175825492530718,-0.4967492187311761,-5.268834445821325,-4.209396461885629,-1.874729058123904,-3.124763764486194,2.773198970971236,-4.096121777113528,1.2285470452403442,6.634761319606626
76462,,-0.2600376746577723,-0.5002471076649967,-0.9040656513240388,4.520628288043767,0.6849105154350732,-2.4696676154858705,-6.169992160118904,-6.120267256800272,-2.235418627812821,-6.180415568602761,3.322290258457765,-2.583894893500824,1.5817890039738924,4.429859814814041
76712,,2.013158209200845,1.183064394580232,-3.5408640336945734,5.935297515768152,2.536789376325628,0.3445110237463206,-2.443983050517216,-7.53164894090572,-2.5531585832445702,-4.786553899368732,6.326911719987046,-4.817764395419173,-2.6736628899879338,7.198966867438649
76962,,0.9905525289837634,2.75089817494472,-3.641813521904097,4.473322902927712,0.6347936928687854,-0.0599388681693391,-4.873017352185627,-10.52666979334309,-5.130782529791606,-5.453681225820786,7.50177419033143,-3.7165761560740114,-7.038148740037363,6.817753628946526
77212,,-2.4679829054881397,-0.1590486243651078,-6.668384582355076,3.825081642757031,0.3788222514056393,-3.5897612101750367,-9.78879140538378,-8.870564456867548,-2.64206310463804,-2.5813160425419968,3.267047851452791,-4.2843133278042345,1.3823685251521185,7.042785412591648
77462,,-0.9937668685705152,-1.923462691291097,-6.295973852408009,1.6327528813186676,0.9284064495280084,-1.6995659956402878,-5.535490333662479,-6.913234581597079,-0.7138658509333233,1.1181965280685522,1.403961993885191,-6.476530347253071,3.2458835461877724,6.846239731209634
77712,,-1.0579704043103535,-0.6277014886366137,-4.975016431399333,-1.8081378544694824,5.347110230239834,-2.9239429874467127,-2.651614070464551,-8.44049854999001,-3.902689081987009,0.6033500815943169,2.7174643962945244,-9.924689518171474,2.735329415528388,7.313859210066584
77961,,3.192584394847425,-0.0149871807258114,-8.766200583930763,4.390257802037282,4.385806447509566,-3.0875230408517265,-1.3141694496698997,-4.055869488574247,-3.877405321182209,-1.5846264462202106,4.765076923735322,-8.729688246540121,2.5670378222498726,7.947742202165476
78211,,2.130205892299692,-1.0131728256613597,-8.663210417680444,4.870325599264042,3.845549826991369,-1.8382939931827516,1.2734481421455648,-2.059707286049726,-1.6509161920020377,-5.027520982832609,4.468496765896168,-4.125559885166072,0.8282068808334935,8.030155539327552
78461,,0.5712607401849039,3.1027762398038834,-9.304911759291524,5.161357334592143,2.1823254429427683,-2.2569727473455545,-0.8068872591426375,-2.451379724117244,0.54021398968311,-3.35717934270954,3.9814694847455496,-2.570885693775047,-1.7482998083171304,7.899518825592809
78711,,-0.783891475372987,5.005417930274384,-10.057975339809705,2.678247269177865,0.1673776197420749,-4.980204415524069,-4.155286748710256,-2.4612851062183223,-1.0983495697166692,1.5996492587374016,3.38324201368497,-3.3794348567662933,-4.174077750181764,6.027543799944785
78961,,-2.3547166514933604,0.3084898736146887,-9.132740314269688,4.6002415101331975,2.2595633629393475,-7.962913964726014,-1.1784245221794802,-4.136025336976737,-4.27173532649319,-0.9963682353496296,4.737993862720918,-4.090825587426487,0.6090060746381134,7.041643635470605
79211,,-2.2533567708468425,0.4652196203246151,-4.917943757171938,6.217041417353494,-0.3125159113056074,-5.22005863348006,0.7166691021930214,-1.1099720288656263,-1.5901822334598148,-3.6746200982127646,1.3389584759401816,-1.9168416616930253,1.202267760097277,5.39301234413847
79461,,-1.530102786510687,2.176308412999238,-3.0205464553538914,6.2749648841303385,-0.1640965767080355,0.3081373299137099,-4.251499176777597,-4.271816003355093,-4.2594666353654045,1.3922558815121489,1.6884142952845864,-3.59569925191124,-1.045154516414772,1.2459227979162617
79711,,-3.816987427127787,2.306169915783746,-6.055507119191033,8.286502443736488,2.171352127726257,-1.5640843339724564,-6.779635819704289,-8.32958804787867,-6.883103986957436,3.0397107793494618,2.7561811088199746,-4.907996596710303,1.2805237738125574,3.2999453832939114
79960,,-2.561502913011689,5.652410051560476,-3.276860075207943,5.229806708489017,2.385613519647869,-7.385559015691144,0.0231428443586024,-5.515844671629072,-5.821372538929977,-0.3167991959102085,-0.1911884849353996,-2.794533301074167,0.0308091643518299,7.3758648830803955
80210,,1.4008408730844504,3.3236030288785723,-2.0755569799451945,3.838079267706141,2.040860530212492,-5.2704339040625054,3.893059183122456,-7.327524727351743,-4.578971016407346,-0.7434964457384939,1.1643531298936145,-2.131690847064776,-7.062036664210394,6.515274772546366
80460,,1.4894993766674132,-1.924331805123467,-3.917085052601285,3.693752276765317,5.882555070441385,-4.967362048504044,-2.7202348251247,-7.825322423158942,-3.272071844420346,-1.4264358176221452,7.081401416455504,-4.385985535870749,-8.021822156300832,2.912882846380546
80710,,-2.457321476194484,0.4791006480084689,-6.696690748524929,5.369529784687054,3.337587685739481,-4.185152360927621,-6.570571792263001,-4.704432892501195,-3.8601333209761446,-3.509571276915783,2.5548098613141583,-5.503125092663529,-6.164547432388641,1.9977415208099123
80960,,-1.551296848031689,-0.522780850725113,-5.319301154213796,4.58825992446208,1.5910807722533309,-0.2366200462968858,-3.1740462112907246,-3.878207583685609,-5.264762209567998,-0.6635638102240013,2.303192367536741,0.7988968319695096,1.6916766062362418,2.698881990429578
81210,,-0.0044426480106619,1.8016960535740325,-6.206681597728646,3.478259100996598,0.7886630208493371,1.3378606346722743,0.7858697337515103,-3.154265306048302,-1.1267769635851397,-0.4876541774940357,5.730332998797736,-0.2213473475296689,3.880424865455903,1.382382823479955
81460,,-0.2216147081419724,-0.7584068492386897,-5.198728506381112,5.1270112895397855,2.5123902507469005,-1.3683737182362703,0.606647529845548,-3.1842280805439955,-1.1965887192784173,-0.8376699137505634,4.678878537112288,-9.781786581808914,0.3403704788143001,8.123892094683438
81710,,0.561386967809123,-4.064909811796492,-3.5478072288243,6.25238952122419,2.9464203034451013,-4.882044964018601,-2.505655389520812,-4.6726342369294525,-1.450614591090158,-0.0317739963063707,2.372472342860074,-7.438546792554462,2.9291084188075365,8.826029162226034
81959,,-1.8349271949488992,-0.6374944290081834,-2.233099192514141,4.044311301238449,2.882097213666488,-8.051586215560963,-5.676231650415428,-9.291097492935393,-2.23799711191076,0.9734514575611636,2.979547808962573,-4.695986904582071,2.7215586231367546,6.311911910415637
82209,,-0.6476204450827225,2.326739585501818,-4.333812795743979,5.108187429532276,5.961812750693048,-2.4219730545734466,-5.583080657861435,-10.341537216820726,-2.3430921889156453,-2.112884572206076,4.1278245699764025,-6.375799649653636,-0.0435167907049612,5.155497450054124
82459,,0.4808838111425514,0.8078159916261335,-5.413634375903823,3.4644482477156178,7.588098512115151,-1.7210179631837326,-5.207970871075545,-8.077209997126912,-3.2105690981435897,-1.957378661772668,4.251260501393959,-6.566016372201781,3.776698307096552,8.381573215139749
82709,,0.0224901945911582,2.474886176174784,-6.102085194534666,3.3390623813827034,3.742481348627684,-3.8528062877508034,-7.296312970898542,-4.74497750337431,-4.480578481549244,0.9796241875034346,6.00474720571638,-5.058481149825591,2.6054307917240043,6.693236987952433
82959,,3.0002265073332595,-0.3122614061844426,-3.3234021866572148,7.683136796279765,0.4912167419457717,-0.6699596360726814,-6.340027217504617,-3.7547341101862,-1.4352323716078863,-1.3434811009258685,5.420786117823946,-4.84602897860156,1.7064024898115115,-0.7722199370544898
83209,,1.728110146131144,-3.1637789485649312,-3.866580567348,10.075531199607532,0.3218339617651667,-2.0766606727836683,-9.053356759643208,-4.569923404711916,-0.8438314037620895,-2.487747882140587,1.3902270254562563,-7.405887272471264,-2.6714768607759054,-0.2079075959886764
83459,,0.2100301751468978,-1.4169343578591531,-4.989611888750453,8.819330919375883,3.956749536316543,-1.7912701481154047,-2.512341514695546,-8.161744320310818,-4.829023771883891,-3.302237632108422,3.1565889389336017,-10.701048653392109,-1.1463250576850252,3.603862469411847
83709,,0.1270214744593927,-4.809472225503116,-6.295848307086613,6.470386218128227,5.388420895817489,-5.465306842294657,-3.321845207433769,-6.401409605448968,-2.217269822335352,-4.156697466650079,4.571965152190908,-10.311318036570498,1.6240105693949138,5.269237800809216
83958,,-1.1192594378161067,0.2808704939440371,-5.414336933804157,6.299781965740343,5.364678358182655,-4.152516254444417,-5.134023834038757,-7.317128732295459,-1.1244632581962049,-5.590265608401966,5.512683314075565,-14.65233875223401,4.6716365535055,6.942903227348398
84208,,-3.481289137204735,1.0796265593468222,-5.382329370828149,6.547562007695467,3.9075510463714016,0.6945926902997954,-4.175414939375618,-5.86346197319615,-1.9864461429612732,-4.958456302449658,5.77638412563844,-7.945715844373348,1.774471613641038,2.156075131882956
84458,,-1.1721923765072797,-4.390252369557165,-9.525343572124823,4.69247429946074,2.140058535064536,-1.3142559427421392,-7.393106839394877,-4.938223733693767,-4.980500368415016,-3.799704799715921,2.6828723438622286,-5.268415374801188,-1.0879528973751529,4.483927612261605
84708,,-0.4660621466650493,-6.306053223462506,-7.895570348655273,5.266222295923583,-1.8978190448773915,-5.112871672352172,-5.722712039113671,-4.317719999764256,-2.6382609132689065,-1.778249643627679,3.207832136666799,-3.8190513601148295,1.2083587175511337,6.41423331228137
84958,,-1.963868692769364,-3.077987115903922,-3.94669761073768,6.83621732631559,1.4770650907238037,-4.778769526769957,-3.0976798338205542,-5.561850717211919,-2.025060781641601,-3.0650930635330824,3.697979773668677,-3.2102457871105496,-0.2512022666099957,5.017735611018992
85208,,-0.2443461853530694,0.5341727149881489,-4.076805255198272,4.639504527918593,2.1550748173493437,-3.0421469727171906,-5.8222272933710615,-4.106178583792851,-2.102031548269066,-1.3562740121837271,-1.8626693490729551,-4.3814634209828895,-1.6635238009238291,7.324408076302644
85458,,-0.2110594454909024,0.7692144867360688,-3.3155336243285576,5.602658605460728,0.1597866212175477,-2.766818107173326,-8.592185404844791,-1.9574330603336296,-0.9126965436125531,-4.145296991305319,-2.204406787730206,-3.7635557554620034,1.015592864798958,7.502337429819363
85708,D,-3.8872524707198233,0.9133371402406536,-3.954312851284208,7.763402252398379,-0.2597291119354854,-6.816294116938058,-8.117705807937398,-3.491277113589571,-0.6585912325276086,-6.887947062478963,2.555618575124296,-5.246755205958399,1.6273170231564338,3.473778135703478
85957,,-3.9081692221470954,-1.3674399185659798,-3.3609442029321523,2.118776277292008,-1.251661638848661,-6.31877802958738,-6.4562294037417445,-4.32458210947908,-1.4612669830669291,0.1642931255479787,4.684647317825903,-2.2627761055958437,0.4740515907358162,7.985409879210383
86207,,-4.250604214473292,3.919217265874479,-0.6535261878497861,3.105561484263757,1.2474363792049972,-4.346532541888672,-4.141475630644453,-3.821549965273488,4.303295450709386,-0.1165249693765499,4.115754661294941,-2.25075665550696,-0.1349898134278875,9.96629201844064
86457,,-2.5262580117328333,5.235662225760356,-4.254801232976286,2.640647959970325,0.5978733809368796,-4.646750492858322,-5.296472268850603,-4.177371605536476,2.999993427308957,1.3068881403195465,1.4042826430394748,-4.608581413760109,0.0723610731139928,9.77843942098966
86707,,-2.397357801092242,0.4629729504446792,-5.153644339576164,3.405925447352752,-2.7258543526734016,-7.4774198291175615,-9.488464521642868,-4.483416667428753,-3.6513834200662942,3.468793659987159,0.3742165729516594,-2.627436149468545,2.7662623191749125,8.576251911778424
86957,,-3.7235922869468734,-0.1072570450149945,-4.754895452453575,5.37540426909036,4.448648662426283,-7.813387874900451,-8.407747968309812,-5.908671004527752,-3.0027790798560643,1.781468776798992,5.1546511407192845,-1.8035395116665909,3.1654720719749285,4.791631409351054
87207,,-4.173332064163867,4.293222166361799,-8.841629393888994,3.2389028372704183,8.426724948011863,-5.372788882209064,-0.7254098669223965,-8.333700357924204,-4.05778340944851,0.5386457449316302,6.224404325003929,-4.136797032321512,-2.1414414295983217,8.619509472087577
87457,,-1.3057560589542183,3.829756214357014,-7.337510765332921,0.4092293564963953,5.6935342392349,-4.154310290084778,-0.3903699326457071,-7.752082438558235,-7.855786221656044,3.926253970914608,4.971209430674344,-6.980696247965431,-2.0613704615584965,7.321645131459233
87707,,-2.8938816077887006,2.6191270288927204,-7.498547222810146,3.714330779110756,4.80292529475904,-3.849531413951338,-3.4110632768976963,-6.058668189342967,-7.709015189517766,5.250621356726116,2.7889645211048384,-7.866863643602697,0.652174960091872,3.673571062225669
87956,,-2.567407469717751,-1.6908457279832232,-7.353076714595788,1.941681420796681,2.195522684131112,-7.748590763998756,-4.856415509253983,-5.3197171386207565,-4.193607002210372,4.5990533255774215,4.0681303651583285,-9.789587827685418,0.2803262369663767,2.3018556711572007
88206,,-2.788195108911183,-2.635730893184784,-7.843773716934112,0.7517449279591408,4.06012913677475,-6.755560395575845,-5.935769408041369,-6.446567345020072,-5.380606174777434,4.533383500858864,0.9467794662217938,-4.446759822437544,-0.7837863818375017,5.426709409322373
88456,,-0.2964314993541586,-2.315439511692854,-4.614516945336039,2.2749964328938765,3.730268356500104,-4.380679981329365,-5.33756558183949,-10.114117707488411,-4.341441941952938,-0.3779477019697341,3.538031265319135,-0.9050309475198056,-1.0740903090566458,10.765248446994784
88706,,0.112333494180028,-5.77168892448484,-3.5413606463793883,1.1618096868072816,4.240863764890585,-3.462859699280183,-5.760298256456755,-6.827652781107064,-3.16566766358008,4.5206043679736725,2.7944730492446053,-4.095681810791661,0.7535499589401748,10.581697217482269
88956,,-3.048894236587123,-3.302250791026102,-3.317368004476596,1.1182554859624732,2.015613867344108,-1.3258283338060652,-4.669254350037894,-7.048616460594964,-4.177550697870994,3.38781048022998,4.982238126470633,-8.652177741682404,-0.3582777648382309,7.213355427862568
89206,,-4.557144558993425,-0.3415996859014785,-10.51997582910738,3.537592420437913,2.215505326793063,-0.5670070111960364,-4.912478914381556,-5.184451773365305,-2.2399901588024624,0.0090036082520446,5.050110298864667,-6.891976554503458,-3.465523746301743,1.728326297333966
89456,,-2.3041359418033043,2.449484269634556,-9.0245799417584,6.24920110627723,2.035646268575349,-1.1662748909886478,-2.5875487177379104,-2.374732270098584,0.5656371808577472,1.6538821779054622,4.259842094310714,-2.8596502061778355,-4.474153941018145,0.3088127606147062
89706,,0.0669953465311763,0.6904980856209942,-5.439128666091005,5.048160111902323,2.807350548914762,-3.9447197830137393,-3.0633544250049995,-6.363142732768132,-3.63495932120904,-3.028579557403686,1.6562073381921385,-2.529282686177904,-4.2147629289313855,3.676398249331407
89955,,1.8156579632191792,-0.9799905243762688,-5.884776993528085,3.0081674580421063,6.367953626262789,-3.694867498284845,-0.6833618857100741,-4.742799080389308,-6.305921032562248,-3.3071638959097687,0.3754264381606791,-5.013958425643174,-3.59943437717568,10.212215902075798
90205,,2.228672696873437,3.438018424894426,-6.170016560416444,2.3693858973849453,7.182114468926631,-6.671047416724367,-2.226154647874037,-4.74581020408338,-4.3930760432379845,1.7288768029491428,3.788806852697235,-2.815458071880752,2.138751165386201,9.818161786203888
90455,,-0.443802385687087,4.111112418536972,-7.352093937642517,3.2132443168607066,3.8955944606196455,-5.96044784790017,-5.704180249971527,-9.022749939571748,-7.228746145321633,2.059620144165118,5.360184393036556,-1.4308100933049472,5.014979416207761,9.892635165806244
90705,,-3.474075050740629,0.5417959395479132,-8.45982973204646,4.344369559715034,0.947021794919894,-4.90048561768101,-4.175015352994099,-9.431741077623212,-3.31706016686478,1.7925630287887877,5.2558682333463285,-0.8601004995657918,3.5129698540311622,11.976087244737146
90955,,-0.6065835311972231,0.6716009741379291,-3.636490217347329,3.870691078012384,5.088495095877503,-2.758666678993806,-2.95353565783853,-5.426913295940025,-1.4683243912838717,3.8629166063324,0.825371507718088,-1.7380277029278115,4.74817852457779,10.03162288930259
91205,,3.599607094831142,3.428957230688378,-4.78641675173103,2.142769391466058,6.450310228376375,-6.2138910539368295,-6.245416140842184,-4.57577122600037,-3.050782159755196,2.3044471007618688,0.7924667873169084,-4.191590092611913,4.974164086868247,8.614015304651213
91455,,2.462617367876587,3.6819623063574456,-7.373404484337401,-0.3159816901543579,4.958928309989009,-4.220040642156645,-3.238728794669657,-5.409609312890424,-1.5153385423024488,2.492887153015108,-1.288473441105327,-6.6391669809074685,3.195850340342256,10.43090074787768
91705,,-2.8217351528385826,-0.9563356455722328,-8.330972614456384,2.725859130010642,3.982182553117045,-2.690641929801932,-1.3724782454679918,-2.9960892177206584,-1.793530817706856,-0.7946616625419533,1.4149783421690425,-3.398895379971179,-1.4326672656926809,9.354145072960558
91954,,-4.820844489483635,-3.912759103739961,-1.2989523961166152,2.5241007594838587,0.6520210902976751,-0.0466870395409221,2.213456690050233,-4.583955435072946,-4.981632922417459,0.5637671354886036,4.133938626132323,-1.3891722648143223,-0.1462663511502874,8.965188834213066
92204,,-1.5712297141553284,0.7077691249748768,-0.0876495260265456,5.043772714197665,1.3123274836009942,0.6283876051763844,1.1236289087793534,-3.668997446545866,-2.22221948208535,1.673459368987768,2.37188452152658,-2.666169170372265,4.415390227375583,4.916277959312319
92454,,-0.8667643347586225,4.5743509339162935,-3.203177220988815,7.030154178353535,3.1818524597133937,-5.931773089119523,-7.451646715798589,-3.912492195497141,-2.069090523729216,-2.7040121570685303,-0.0080681600488145,-4.381402265997815,3.2729537584553365,2.605080821463263
92704,,-1.943488339565071,0.3372231665856219,-4.944987990688194,5.065412011512647,5.388888921277956,-4.848243726736226,-5.55461909783534,-6.571504826853332,-5.14032944724473,0.9583961511965092,2.1082433258866216,-6.79966309207283,2.7803848628528183,2.2161039457981597
92954,,-1.641920734526825,1.486167128647952,-6.308613020231732,-0.1069188003033483,3.4400579042142088,-2.809307679158717,-1.718193298134075,-5.964593338163143,-6.69377347361371,3.438401531915262,4.462689595017554,-4.199882991875114,-1.6472187652560908,3.824793138915856
93204,,-3.1593414831094835,3.389181813119003,-2.930251938767788,3.191140237942818,0.9727049108915852,-2.310781828274584,-4.024044164443669,-6.872509633032783,-5.678503702658855,1.564453297437855,4.088643499611016,-3.040947141642181,-4.151945885255582,2.208475377848997
93454,,-4.047123602069863,1.485958021150453,-4.293399831497101,3.0361571910001954,0.2297554468339048,-2.9896010607761534,-6.141763204361793,-9.230606040919112,-5.152309503768242,-3.1375638251207034,3.1897905523243497,-3.340573313518167,-2.2347419272504405,0.4173524665471464
93704,,-0.958428879800162,-3.0111067828321723,-9.426473241343288,1.3127104901701014,-1.5479855289895097,-4.3757829976555085,-6.195807520269113,-3.397881847312328,-7.404743206667935,1.8151622298285863,3.875318580745629,-3.237395927808066,-0.2035165595472414,6.992344370188698
93953,,-2.804791896834068,-2.418085437845381,-4.788537544258624,2.0299445685006696,1.2966020943643168,-1.6001183898233022,-4.683212239459821,-2.873590433422042,-6.014686378615992,3.270700527115409,7.034515623901757,-3.07982572808837,3.397778477719579,10.85976233129053
94203,,-2.7342307692463064,1.67138959939986,-5.583453888084955,3.5603992607533352,2.6183711478616267,-1.5160818053720635,-8.709388496385671,-5.28439505044382,-3.558075470921913,-2.5230821789736417,6.976317646479565,-3.905161052204659,2.511293553009774,10.457686008318278
94453,,-3.787518137955888,3.4069885903563857,-9.999840634084585,4.263623291014774,2.9359955406172933,-3.729891696519206,-5.921922654156981,-3.899684062994077,-0.7938204306696178,-0.7740664438671372,5.439349703201297,-2.9573799494160324,1.3631855377327675,8.834440193652531
94703,,-1.619871089920697,3.540951158680574,-11.064399571171588,7.882119774822362,3.4960746118266512,-4.59893307866407,-2.581886089155905,-3.942920013895353,-0.747385669207446,-4.983941997229929,6.587424630404733,-4.051278549956746,-4.566399802749659,7.637831512593758
94953,,-1.719496228409905,-0.4998531612080065,-10.649530089528865,4.048461572367389,2.8527398414587912,-3.917370134687891,-2.883798102065506,-4.175724544054802,-3.662757572274231,-2.8589004815180634,5.061405016435382,-1.6334117955045282,0.2674247365630048,11.248297604201271
95203,,-0.4163846591951656,-3.392675354830436,-5.275719494237977,4.12412412125506,2.1836080531588813,-4.566101740358186,-4.6022663947879305,-7.558769802025114,-6.8913887997697865,0.8532602455030669,0.9665590615115826,-0.3137692849738666,2.7914873518201064,9.841800506195447
95453,,-0.7219131020059464,-2.048480465948415,-3.1790073831886985,6.678386359985987,6.909876714069547,-5.2280285695221815,-0.7115677187355138,-10.512249064841978,-2.7386247499999152,-1.2165631358108262,1.514349881621242,-3.41718916377906,1.7538878446551798,4.5938015126046485
95703,,-0.4865331820528104,1.3223108551269576,-3.675752049405677,5.991153128841637,4.191175672888754,-3.308388529553927,0.7570722742336422,-7.74980348713171,-2.098314671234533,3.050476621449655,4.134424160631479,-3.812712886732144,2.204362293240672,5.093699898786831
95952,,1.1262472515470214,-1.6707598810501394,-8.13268773731764,5.371582723341115,-2.5593568685059997,-2.5321316864984085,-1.6298094755083508,-7.819636225586141,-3.146475559168982,4.966498263861441,3.459245951190248,-2.9925842426182663,2.0954301795998784,4.053911308471271
96202,,-0.2714790687762312,-0.4954397379521481,-8.56270461882146,8.318110414989752,-0.9122467972727896,-3.31399927707043,-2.841092654439424,-8.101376322895815,-3.9521000546732408,2.6870742870510056,-1.7094180744437846,-0.5852060455823729,1.346852189234819,7.602500230633254
96452,,-2.1309054383585515,0.2870690872407332,-3.4372264629339755,6.941867364297099,-1.7874308430724437,-3.134003925434938,-7.340453958031795,-8.049901869098402,-7.7262472198725245,0.2110309850810706,-1.313800194109108,-0.3610699525633031,-0.2273277030372819,8.270582692907288
96702,,4.174807792158205,-2.4332467421913897,-2.9530989138714108,5.417102543133367,-0.7391375553915054,-1.4007346976712287,-2.5818504668980937,-10.47785482402108,-4.420544981254687,-2.007061654348957,2.4774940597612,-1.0736568765400458,0.0981173433744897,10.309028197906372
96952,,6.671185158469875,2.620615521672558,-5.954557442569692,7.642743083493043,-0.2778527608289335,-2.496212529658475,0.6470027606798433,-5.719693426268656,-0.2160872729426952,-0.5696056675673735,4.320935065238825,-3.502932976206927,2.196044711917696,11.41902611666682
97202,,2.451746228436077,1.2862620115963286,-6.836648442098684,5.602100974059576,-0.2669865950629185,-0.1066854333784375,8.099154562978715,-3.313288648711289,-0.5499243898732331,-1.0389267560346611,3.581909819836335,-7.139105727465872,1.0888710695847168,9.529265484431283
97452,,-0.9614113266483536,-6.918206415698417,-9.266799288520785,4.938176489109583,1.0352872137497584,-3.5621220356369374,5.039992235545402,-6.219247334259187,-5.617731120364789,-0.975315278888063,0.5460506501507596,-7.527851345853733,2.0681745558665825,9.560073265041712
97702,,-1.6431528419961197,-2.479334112298652,-8.717250919445842,2.5534125363381808,1.3648192973437494,-5.475823327613355,-6.90275957448886,-10.005052933979863,-5.160612622077304,-2.9269392668234806,0.898791223517875,-2.557901602323656,5.130359516428591,10.696634267080428
97951,,1.6499872185365003,1.6402368925044322,-4.954213066140988,3.516601393012748,2.1879133169411538,-2.555623507246411,-7.610202593821328,-8.399186962939964,-2.285169093436481,-4.95924281752682,5.031432282830036,2.032905578669755,5.1007745650936,10.561506937682465
98201,,2.6816321376450363,2.020520824410468,-2.4655072920270475,3.603167569846833,0.6062917594366115,-0.6225203945334492,-5.050004949976974,-6.224073325778278,-2.2775634631266897,0.8594176856336144,5.962481643521684,1.2902282284519393,2.3065057966709404,7.812557470294523
98451,,1.951873925003189,-2.032880745601107,0.2135337403093589,4.049108187409981,3.588280475711404,-4.931509298406708,-5.389027608543778,-7.8681072137980355,-5.509384697687056,-0.5069661104576505,5.946288197236994,-3.223205844883989,0.0731958647694869,11.394491109642225
98701,,5.967922864739032,1.7688133152662069,-4.495330354481136,7.025588930001788,5.886606385422219,-8.473243623477389,-7.232944855697808,-10.67919580343901,-3.6795490824877817,-4.616786238729002,4.406216282334965,-6.83863733917767,0.3707483005757538,13.364407545574966
98951,,1.7801780880278364,1.5828095807945373,-10.47271766518407,7.069694526267865,3.2500584993448705,-5.106242876919135,-8.445941786955638,-6.989555040154966,-2.999262257752804,-2.7534032470184044,5.863545870100308,-5.173506782778171,-0.5828259763570044,10.72329578627844
99201,,0.2444490614284314,0.1789888068944666,-13.09733377919024,5.325699154880255,-0.3813292317301086,-2.862964775554046,-6.651973538030456,-2.533848996337108,0.2106309313800281,-2.07231284584728,8.155974857861432,-4.52813877874126,4.67822160707398,11.435151398647726
99451,,-0.7101522864888526,1.4913299735566783,-6.443855681658892,8.050432832210557,2.9181432283545634,-1.3833740724727948,-2.8697002743854334,-5.567394762257893,-2.6609690921583957,-4.739882608456389,5.08011176178295,-4.048240189078233,5.810482969050568,10.845379692855984
99701,,-8.17534252429907,4.420882075089389,-4.88116130739405,4.537287045945254,2.4438863209617168,-4.024933721050717,-2.9750817377473715,-5.879806297789351,-3.591003484338508,-1.650541417887811,3.1994199624444937,-1.483986318094856,1.1902412470296426,8.2391484980806
99951,,-7.634968670263027,3.043933209780583,-5.879186256997565,-0.1146399454424808,2.239749737082498,-6.834075289546289,1.050985784913851,-1.0616452544928645,-2.5813327246059616,2.5098326220335627,-0.8440017733659317,-1.4363097278342016,-3.3550832365438907,9.601050288149958
100200,,-0.5976623971997497,1.189202004469085,-5.053382834868122,-1.4319736992965688,3.6795243533517112,-7.231616693271176,-0.9478692094306272,-4.477154205665908,-0.1846932301061153,1.9446893549299724,-1.176995147213427,-3.130716538745426,-0.062301400827455,9.838541825325414
100450,,1.4157314152362588,-0.303595726392415,-1.6404805642137026,-0.7265968736924567,4.765730378496383,-5.813234410146071,-6.675306283137265,-9.40552649295115,-2.407310206450706,1.925109419802421,2.1425294499473364,0.7428904086754907,0.3069719418308033,7.608913391477702
100700,,-2.985379013945628,-3.486809980202773,-6.126335802428819,0.858892885285085,4.185519852377432,-5.894264267930241,-7.364171063347187,-10.88872672219775,-6.088772641137208,0.053000232522501,4.412592863182015,-2.825790012481105,-2.9919044751106814,4.087528477638453
100950,,-6.741388311441248,-0.6135377664568921,-2.5555516419118893,1.058019420235942,1.9856215638644812,-1.7121411588249946,-5.505728163876169,-7.656827210061636,-5.761330683758631,-1.1770909494611197,-0.1084701038173441,-5.0945255125538775,-0.7158708686697869,1.598281877989432
101200,,-3.853862974803911,-0.9481548041098592,-1.9070461836540764,5.437124922991989,1.4324154173744152,-3.219084488066643,-5.087634168002882,-2.343426457406236,0.3635842991641357,-5.695686651076678,0.6909035175584882,-3.202427434592159,1.0461375337370966,2.121967770376098
101450,,-1.0966346973143004,-1.310689159466074,4.959851067522862,5.763551509772734,2.376594432856195,-4.423767461559577,-4.830044014162278,-3.0925505319941364,-0.7629740212307962,-5.950935942474863,1.0843569814991545,-2.2489823507466955,1.1659629168739372,3.7926897729920417
101700,,-0.4255084502295849,3.3306017535705235,9.32993820948284,2.7602975767443096,-1.2038129303552407,-2.0308581495710487,-1.4394995658274028,-2.802038077304536,-3.570812977204454,-1.1445378953483956,2.5422427423780176,-2.4770681730671966,0.1497029101254596,3.5055238713201837
101950,,-1.5100242650740854,2.970801101062315,3.2685898869321344,2.6741708191312825,2.3915265808748414,-3.1522193343065004,-0.6438185734336843,-8.190325890518228,-3.1973432892194675,0.1409564572553432,6.4716683149510015,-0.4187417801561406,2.8073513072050584,2.35055866869741
102199,,-0.3988860909742446,0.5756349185453036,-6.234824310954716,4.146299252216497,7.257009327541394,-5.533712933948075,-2.44863861796972,-10.65890137748008,-1.505441397092985,0.0504162104715885,5.528336964020668,-3.1844276019680806,1.7844408563554814,7.283619844929902
102449,,-5.284313042836719,-1.8595049530810872,-5.235200663799583,2.586327212073642,7.212207124666044,-4.625059110658053,-7.26755921338053,-8.404828975955255,-2.098336134379743,2.0833730925443525,4.510635443072083,-5.856511136962077,1.9460287921950767,7.157938668640078
102699,,-3.20633175287668,-2.735212499258351,-4.852575682459433,6.457536173735559,2.9949577750353877,-3.156738335545876,-5.886931513099971,-5.967421392712194,-4.678303508735774,0.0974323117562257,4.144215299866023,-7.072547323707155,-0.6229765986914663,7.005718788577548
102949,,2.218688540709975,-5.498756558994657,-5.570350316742598,8.332116527162304,0.967333401508104,0.0192022434091267,-1.892874881203672,-2.8676763887783085,-1.6110879992619225,3.0691477780370144,2.716636923658844,-6.965066616294387,0.5072502092393325,6.210739677410929
103199,,2.774791132675689,0.6329861159416351,-4.777684238606944,7.151696548537333,2.077250588497514,-4.44703724624034,-3.005683983410933,-7.044155702396914,-3.0934509631686438,4.6637448511917485,2.984514035372472,-5.008293922025848,-0.079109848495102,4.882961654847067
103449,,0.7973169460845397,3.838294058918093,-3.112188877018382,1.9534980538092075,1.4270157599196165,-7.875298832689831,-5.449009142437227,-8.989210558084439,-4.817965076649728,-1.936396458580717,0.7633922879297419,-5.319339371601336,2.5675770627803467,0.6666887212268746
103699,,-1.0781599035167275,1.6620231807945829,-6.415777183597623,0.5476183682729125,2.5359223607042107,-7.872231775889017,3.159496626598796,-7.860920931638567,-5.475835461390469,-1.572804013605361,3.1047072709547856,-4.360056058384193,3.414181333452639,4.25570095875022
103949,,-5.533574217443784,0.971955178676367,0.6197206945141365,4.709913616624776,2.192018667181556,-11.140534266398587,3.5722729837653007,-3.998132601981827,-2.5685866156387087,0.2642390682396013,5.804200693893683,-5.4265795187542825,3.225515693979992,7.570635738133271
104198,,-4.351096868227569,-1.0895545226010908,0.9005917468003057,4.896621973544829,1.208686996364552,-6.460419420215474,-7.013174865346452,-4.4604357170912,-3.0231989626517244,0.2822209209739986,2.676427210314957,-3.314752618995019,1.6920465252557788,4.528038920450486
104448,,-3.0196462837023,-0.2419926750085625,-4.844526424699176,-1.5188557742211888,0.7504356225251156,-1.3321236889546904,-9.38613134157847,-5.641172985883215,-4.632608708408837,0.9509795299276224,-0.7803269923540357,-3.067469284938777,3.944439087375391,-2.8477631565160264
104698,,-2.984499359335881,0.2615055879480262,-0.5644332052913972,-3.378281355043588,3.5941450800850165,-2.820993297849,-7.850342803684782,-3.6186347039121274,-4.036880343528335,4.055710520270916,1.5950413276550002,-2.170789267589229,2.774014053191739,0.9072987785891434
104948,,-0.4379129752475222,0.90482835130088,7.507109236375263,2.0694731493355256,5.430912348926974,-6.919454887043029,-7.242737948438659,-4.12795124949611,-4.472141768988548,2.8303020673785544,6.239723002115282,-0.991086102281862,4.572707788499068,2.9868836441680404
105198,,0.3560749093877779,-4.231940671851231,5.921841246252114,5.301872904895366,4.048351660510715,-6.627116604873286,-10.661641660391036,-5.642335187883117,-2.382120619208879,3.5500830572675173,6.701139588190586,-4.124825898793728,3.7287852681033016,7.297320096047906
105448,,-3.929000372713728,-1.853875698648208,-5.368016779415847,5.82129883913018,3.897634721711848,-5.806858091951936,-3.387233670083808,-5.272174406912235,-2.1150907939359205,3.2868253080585594,5.495081872589341,-2.624031053473052,-1.8096941102705468,5.340141970940071
105698,,-4.6512885928193,-0.7730627147929392,-3.4883141668396096,5.737399925879821,3.689674973165269,-1.1660469362353558,-1.3535849487685956,-10.876494772775027,-8.251515451949174,2.535209066652651,4.6054350705749245,-1.8461399719991065,-0.5510889449909727,1.3538686373361175
105948,,-2.63503438738332,0.0081431622955554,-5.031138210834218,4.084161531362531,1.8525440551378052,-5.521354472636068,-5.9260680770711325,-8.106938138358533,-10.411966212996496,3.7046784724745607,4.114627916552832,-1.7418494295367597,-0.6853769130386984,5.487148159991446
106197,,-1.624168189572589,1.2387692613850725,-9.502679794277542,1.828794191987208,-3.841525567904575,-10.489919215128506,-4.767156007524323,-5.231465734850028,-3.611681076932336,3.30275309654822,-0.3537887712022097,-3.860585733421468,0.0696840208540268,3.5927671778431423
106447,,-1.0615339696366783,4.850266676852498,-12.356500737713606,4.429755097992222,-0.103491572988959,-10.894386643364218,-5.160765558562578,-6.884494358926534,-3.73854735179084,1.3448944119403874,2.438086081383031,-9.509865285709296,-1.385389714646812,3.897433917091906
106697,,-3.341041896223354,4.130320132939606,-11.15581611922284,7.187284583997866,2.445597707809414,-6.647844346258058,-1.2055341029794884,-6.355862149300534,-3.575834006904594,-0.1954893655952406,5.720369686040215,-7.622211918905127,0.6701956820365815,5.689576327796639
106947,,-4.416507734955619,1.6854661285884371,-8.529039483784329,8.887018052257272,3.3536050023978574,-1.890561078626859,-1.521283075701224,-6.049552678527313,-5.1240132755379,1.723263251341132,5.39623128511109,-4.554480335034584,1.4114674709084407,5.192204089537766
107197,,-3.769064856750089,2.332268955598912,-9.65187807677811,6.128383656571616,2.901023301142589,-0.3799210055327381,-4.65829170231541,-4.49812996077647,-3.5210505454685004,2.075500952595065,4.080767640393347,-4.750122757358332,1.0290475471689011,3.2587417292253167
107447,,-4.709670994197335,2.2549737693315253,-7.613883692420551,3.2591718378506345,-0.3701046899819812,-1.1869254058726753,0.2272641422921194,-2.620505635849838,-1.549143871981859,3.4190305426854395,4.533672026401238,-7.64742785228038,0.6313150328851422,1.1877274970789118
107697,,-2.897224923544828,1.7615650509565528,-7.320025569794596,4.996170558922271,-0.0511858724307906,-3.24328685776746,1.9063424763759853,-1.1024182401716127,-3.745389579510145,0.7871494994258793,6.445569824356672,-6.07213275981437,2.364462401699493,1.2984590646563197
107947,,1.0162480763782271,3.0015193332241057,-6.80471095698884,4.017791406289558,2.926674876355919,-4.691356758354725,-1.00530738305251,-4.571843483469919,-5.87401639969718,-3.8256428655807273,7.10637022261303,-4.310997529453136,-0.5256108546955908,2.9841962830217508
108196,,1.3258847936565863,2.1421957435389496,-8.095617477833342,6.270217825649034,2.47456323464667,-8.76446903814691,-5.593581153907932,-6.028375648099702,-6.240557313090572,-6.074608585921164,2.0145588018296388,-7.274489360817562,-2.991238619677146,2.5297453576809263
108446,,0.3106666700725862,5.194320907404732,-2.102050350794469,3.1805896075816986,4.705581787679021,-7.309284612251462,-3.5436060356539256,-8.294813207235215,-4.773105959059159,-1.6302583618713622,-0.7530280448007415,-10.55087319607478,3.3283360412805285,0.9883330163746472
108696,,-0.8276292246948764,2.2186701095603474,-1.365032506898911,-1.019498643620543,5.94626203987003,-2.829741675296193,-4.982702580758209,-3.737522313951802,-4.232226792010259,-4.054275271079925,-0.23756693370472,-7.608877526201184,3.8514891315226754,-1.499645969090642
108946,,0.4230359284764697,4.249025336693373,2.326624455261299,0.6700740538937183,4.832154115787065,-3.062952620165587,-4.234609452229153,-4.133747122216201,-6.6103441524446085,-5.903033964461048,-0.7445806276731183,-5.665821033718799,-0.704753593904469,0.2208787111543013
109196,,0.3444333256709877,3.0675139017862696,0.5041004079607795,5.861095684157645,2.4238535792737665,-4.9576935502377175,-1.6912225951425517,-6.172516705723767,-5.334467482392881,-1.4229410512883869,-0.0905634927584572,-2.354980675265283,-2.7234179183796483,2.423723501589058
109446,,2.361740305481516,5.38966279772737,-6.486670339122416,6.978913690528694,0.5093433521559245,-1.6346136151623818,-0.0144857448857188,-4.980437508182115,-6.301105547414934,-2.268796689305685,-2.5051640040025207,-4.349600442294726,-6.059079181563964,0.2693776309589277
109696,,0.0730657559282286,3.972262926410636,-5.074030182610818,7.0502131669186365,-0.2486757378417987,-3.2725063317230854,-1.3290927951913505,-4.97487931308846,-6.2903411426030935,-2.2804032404149064,-3.151969087366948,-6.518694034418985,-4.496767532490179,-1.2003320063711234
109946,,-6.515202213345779,-0.5027404231251935,-6.3709150835854444,6.788571919775923,1.1500812684921282,-4.722583909931015,-2.0424136677743085,-9.88519406866086,-7.104433938056475,-3.831946005379104,0.4544223887817684,-9.800068267975398,-1.2190787616021204,-0.4262683606364837
