timecode,event,eeg.af3,eeg.f7,eeg.f3,eeg.fc5,eeg.t7,eeg.p7,eeg.o1,eeg.o2,eeg.p8,eeg.t8,eeg.fc6,eeg.f4,eeg.f8,eeg.af4
0,,-0.8951191125392327,-0.600477783108392,-5.084383268541588,4.618561009410934,0.2551469035353905,-3.3123692815249104,-1.368164125645048,-4.002899459996271,-5.046300425499723,-0.7824994077258878,-2.44942482147939,-5.419304060789275,-4.203356536144668,2.745147534845542
250,,-2.67436193558279,-1.333444741068972,-4.396386478279202,3.5243682673231227,0.0972963686463419,-2.626545315364347,-3.681158489280932,0.6764352631088889,-4.209018350568599,-1.143460247906532,1.3560144300847816,-7.19349859287828,-4.631217896788866,0.5540065388092744
500,,0.0673596643601713,-0.6892885745152927,-9.339721087995205,-1.1018990339951005,-3.28978887446328,-0.4464524462788403,-1.1071010046959275,-3.7602177934169374,-2.650955036135122,-2.3656029368043354,2.815401250392497,-7.287568560139277,-3.023566480952961,1.4263240260657697
750,,-2.280315294172625,0.225490187714777,-9.985224760187911,-4.890680413207567,-2.400805063164065,-1.7862897688693429,0.9149649437166556,-8.173011125565491,-4.392573996201994,-1.5707234932796907,0.1743080834263566,-5.568252471720259,-2.405099304692229,2.3238372066817847
1000,,-6.746721156587702,1.049638451901937,-11.71041308035841,-3.361323935243528,-0.2374774822890257,-4.1111400978503125,3.426091091656884,-8.28525669231807,-6.19686921234392,0.6469302069323155,1.3423972707317264,-5.89274454309904,0.3122026873978097,3.18591170759361
1249,,-3.7907038739438215,-1.041098145600848,-9.311734789122788,-2.457203998527869,-1.9814049753227736,-6.083216334653738,-0.9681419064764948,-9.498455441428964,-6.660391940746582,-2.5327111043244805,-0.7475577854977626,-7.133320553226965,-1.386673381723302,2.224288595270132
1499,,-0.7386232862303027,1.825121670915888,-8.239028072283684,1.271898228173558,-2.0551408660841903,-4.3593182772964765,-7.790753750598876,-6.324876886501367,-6.848304401181236,-6.033044164716168,1.7946737440249465,-7.227126526001584,-0.0149139422033996,2.1932284993323794
1749,,-1.824223919624537,3.0910421832983337,-7.133168008769024,2.232331085132065,-2.122596653118064,-4.5374624009913935,-4.565430798860357,-6.669834949256709,-6.927323344536697,-3.668546516756357,0.0785948349730833,-11.316001305489037,0.9972254504049928,4.309030938727875
1999,,-1.4261628665116943,3.3424161248448576,-5.113051400733077,2.110721400998892,1.9672993723820549,-6.307344649120475,-5.008363202491973,-7.013130220408136,-6.159667943311,-3.26938806267766,-2.2089679835833174,-7.4567202813210525,-2.2047361091530018,5.317823967574039
2249,,-3.9459521189459097,0.8488315921539666,-7.115401559677158,1.0037183154642173,3.432896118852402,-6.583640601258724,-6.4219502599864855,-8.867094821571749,-7.93727686820459,-3.002644478497019,2.202559277319668,-6.009124411307707,-0.7430036328264222,5.152067066830144
2499,,-1.8617830873001369,-0.7478261467491444,-7.79688669235984,1.8239241962418768,-1.3473545106208955,-8.5426202587776,-9.427333198078037,-12.752373342657082,-8.821296526123191,2.086773583756674,1.2267034820818392,-8.647717416678134,-0.9783982075626324,2.685963842516645
2749,,-2.860112595774806,-3.244484472706231,-7.836027660702907,2.3879034185797336,-0.3731960996499867,-6.047562180515792,-9.672105424569214,-9.714978429540112,-6.666985652923575,0.0293445530457821,-2.5203777665253173,-7.300787687430661,-2.5316924078687624,4.35967562271056
2999,,-4.533482221288242,-1.1154590559920738,-7.343179367735139,0.4710115500344723,2.9552069035125044,-3.5981423113924875,-6.584502537473118,-6.560521315974702,-5.443650891097656,-3.7571263190484494,1.2706260776518006,-6.836655683536367,-0.6613780903407834,4.085883390119662
3248,,-3.3790245445905227,0.8434112522296882,-5.986656069584276,1.8704133057665704,2.088511843138624,-4.279371927682151,-4.6380155104944665,-5.724722194341235,-5.1726390298275104,-3.1501450283107166,3.8309751040538673,-6.629484544770045,-1.303161773946094,2.347152170595584
3498,,-4.031050047927752,-1.6134987538876333,-8.331578445269482,2.235315120430942,1.2177418579866457,-3.058150468833219,-6.521280348036001,-6.713894688101622,-6.750349349725165,-1.656270652580926,0.7051138391987568,-8.29124339366623,0.0023252707515288,1.67689683496338
3748,,-5.405407994234775,1.2204713185305351,-8.707803525668263,3.1307493753798483,1.0550825426817527,-3.789277266247039,-8.193105226881823,-8.09974033380806,-6.20567774652078,-1.689372841085056,-1.305968231433602,-6.724931335751206,-0.3395652995513794,3.5441714605824552
3998,,-2.515101320385177,-0.2519243171923057,-6.008233971644817,1.7041265258317386,1.4655176027311194,-4.685965581677712,-7.841525171814531,-7.475157553172062,-4.86451386917365,-1.2382145979593044,4.630607685047433,-6.442252398233913,-0.5363151052451471,1.9517800637585851
4248,,-0.5667174006614033,-2.276587746231707,-4.930744165974545,3.519656061634779,-1.0524842921266735,-4.636953202524381,-5.694614795983367,-6.78413997908015,-6.547034313610985,-0.0429079829544151,5.540264203387122,-7.128933167558377,1.637049346941217,3.970120188850648
4498,,-1.14474048982501,1.203770672610352,-6.12751964745304,7.330291232953265,-1.2944857705801205,-4.783226465914283,-4.727460986856372,-5.237488139478749,-7.759109324770447,1.8402082669473936,1.0616271935461428,-6.801587092100777,4.922318182613045,3.7289300567064183
4748,,-5.50283024294713,4.161126378392327,-4.742642722602403,6.646600645156763,0.1803450178076885,-4.093847869282767,-6.548145396249713,-4.590897496194952,-4.299565480416914,-0.0900643127345389,1.1864723491557525,-5.38841426933216,2.175138619804017,3.133513426095024
4998,,-3.295879008093584,1.7612635372686598,-5.57619158626892,3.176515002077804,0.50541596032073,-3.937521813131374,-7.2193904375179585,-8.31139621801866,-3.998094476768954,-6.00966745187248,2.022101458740045,-6.973973095818161,-1.6576286376861646,3.283245971898502
5247,,-2.96583345636768,0.3163185154384632,-6.111045285468228,2.020425216056317,-1.174157957989295,-5.034041078069892,-6.017392484133217,-10.176141805872344,-5.1988272470092936,-6.286264069213306,1.8947170818777284,-6.339838401386391,-1.1722995453406189,3.3796569087530868
5497,,-0.7831212486644397,0.3554679171104379,-4.437142346586295,2.1593464566901988,-2.099504226212937,-5.956675526195876,-4.804904869488102,-8.175889293452395,-4.728608969520511,-1.8875378967808465,2.523711087682736,-4.423786728566944,-1.5090163012554951,4.4088274829599
5747,,-0.6450283358483315,2.8053439685409254,-8.057840419840778,2.760079851911643,0.9887083764613304,-5.6668330051235225,-2.215617909088248,-5.772575184232316,-2.744641126081888,-0.5196395403406274,2.523998000841714,-4.418492389089788,-3.2361182360615186,1.8988638464944232
5997,,-3.895621443922959,0.7705274418272963,-9.280202101631556,2.347674054650509,0.7825287993121461,-4.433831780275751,2.299166496889225,-3.100494056880765,-1.362557240598166,-2.2449327611066305,0.7007167700940399,-9.004891713671874,-1.3693288729599162,0.0259551463669968
6247,,-2.8034857320823683,2.3354883117912486,-9.089458765670486,4.233305227588466,-0.5554333609035319,-4.207342223955151,-1.0346304159975923,-2.1518692343088803,-3.567624820801377,-4.3827668456869375,1.3133116584223443,-9.276607644608053,-0.7812750411361604,-1.6844103416135936
6497,,-1.8585557381167883,4.126027644482126,-5.612518101476496,5.260188522272708,-0.1690682969094617,-2.0446893667108164,-1.5368645105775538,-2.9077493129401653,-3.398747997006688,-2.7886998436591157,2.4055207664562284,-4.145476849593851,0.3325933363067134,1.1681000715399947
6747,,-4.908404132603396,0.8364112750353003,-6.096998860141368,3.210478332083217,1.698420691140754,-2.6686637946106173,0.3334893333009174,-4.444429288040849,-2.6362527770213817,0.4530575665510782,4.620168326415391,-4.054471084901445,0.2768846733138853,3.6980590573131247
6997,,-5.768304709428502,-4.9202159032397415,-8.73213293753104,2.7139951978647705,1.233708933812624,-4.739999708687378,-0.863376055638265,-3.369499135222741,-2.678027133658781,-0.2825152006755477,4.934791583574868,-8.878850269493869,0.2142623146672853,2.131366773070112
7246,,-6.6319796981794985,-6.0544777515296175,-6.76504179269247,2.84006794721689,-1.2752690123774224,-4.453130273941427,-1.664389763909523,-3.88756871784829,-2.6598918269222422,0.2240291328834476,0.4139990885632046,-6.875976640072264,-1.5992648511053815,2.837071275854425
7496,,-7.082961693986768,-4.461893229413279,-6.664175727446144,0.6243731710222691,-3.4809949551955643,-4.185458745026022,-1.2551746324746282,-5.862584135628172,-5.625327788590377,2.186021563487305,1.5400655447829743,-7.988244692292218,-0.1871137843317196,3.735885891805207
7746,,-5.382559026404263,-4.224909919946041,-7.298572781985153,-0.9636291848907016,-2.0011468886609265,-5.335416575834483,-3.809434814093499,-8.570434269317557,-4.948091664973765,1.3133826427752415,2.728829625472169,-7.749274186087072,0.3866154562310364,0.9529178911099644
7996,,-4.686604461702796,-1.650233295124259,-8.708150759214806,-3.326286509379366,-1.726017175080492,-6.257821116819792,-5.963200750982535,-9.110809468488872,-3.811408152025866,-0.4377539713305691,1.5352418585235,-7.987134540719038,-2.4634191888247345,-0.9564939192678162
8246,,-2.4939590790371,0.0519822301989456,-9.513580798821858,0.450300943438393,-1.97951528794876,-7.453309173032717,-2.3824688567166503,-8.212408533078676,-6.242510972093162,-2.562890686533424,1.7557338765091612,-8.549032918708807,-1.8889028468408569,1.3045201467009573
8496,,-2.662697681136115,-4.361506028283752,-7.1369426655996,1.280298584545444,0.1114959264881688,-6.695294049541419,-3.894417225166147,-7.504117401284047,-7.858446074218302,-5.466435870591788,2.540601320407647,-8.124986110855634,0.7805440763338354,4.292275608606482
8746,,-1.1754409371516965,0.056058951013904,-6.236120067654339,1.24657445611052,2.3593526219932235,-4.317004232189071,-4.188136940732608,-5.457673097896527,-5.400495806559801,-5.061683684283417,-2.532693069447041,-6.8251894280290335,2.0991693464630656,6.685694248580434
8996,,-2.2197184998076613,2.9819064584359207,-3.8971299801980352,0.3677314824800127,1.2847719783723068,-5.131496795454121,-4.725634326681564,-6.774231856114797,-6.518184719778514,-3.1645941637156265,-0.5004168647408131,-8.94020735658068,4.396576013288421,4.290073302034683
9245,,-3.671010603830296,-0.1774302602210409,-4.3297587373589765,2.371648386524871,-1.3910125521119143,-4.247134205064159,-4.367004522405281,-5.090040078400701,-1.6941537593496254,-1.5780519398209822,2.8479625951410275,-5.54250993290599,2.811067243571108,3.3075856660538925
9495,,-5.7659850041464935,-1.4168479697315526,-8.028063724097589,3.9308489667882007,-3.4759838109207264,-3.2870688604913267,-5.397706332558999,-3.964132212514314,-0.3749990733546507,-2.311168424727641,3.449554017050092,-3.747844331704648,0.8524092287026015,3.1578779955990077
9745,,-7.808356774320825,-1.741324482269776,-7.701507859878123,4.029195130274857,-3.5504189352261912,-2.904818352830069,-3.3188777957036404,-5.1448769378886965,-3.4331188197287204,-1.9189440275328915,0.6222668710849008,-6.299301477971842,2.22468808545088,2.17482813944432
9995,,-7.761798022921463,-3.5808313947868387,-5.141974652212338,1.9310862140327636,-0.938689656830983,-4.82330764224399,-4.870005563128354,-3.1468700508238383,-5.645242047047141,-0.7983832598110405,-1.263978247071679,-5.375793306859449,3.564600884174812,1.7084945448573996
10245,,-3.931002686575872,-6.120219648582967,-6.6005747966914665,1.3990862047704289,0.730626122941631,-6.708866208422321,-3.896627701744588,-5.077308958407556,-4.940323464617595,-1.837370409992542,-1.935008852066919,-4.602828905234422,2.1352223072287564,-0.3965323288334533
10495,,-5.613790065149925,-4.678311279206323,-9.011235437215346,4.7616248001234425,0.6674248514348263,-6.083178316868998,-5.5540082079690425,-6.854004591732287,-1.2409967116159355,-1.2583617528397586,1.3958454114506444,-4.058766593466771,1.915073542597904,2.176898185261496
10745,,-7.110305168871918,-0.7215071005114064,-9.10317616382427,6.229278659495691,0.1497090583392228,-6.878457175712772,-5.507123974656429,-6.334798599041738,-2.9374666522481387,-3.533896519122272,3.985269767956595,-5.445690476543394,0.6412601034499444,4.274442586779754
10995,,-6.653337439382651,1.7430739230518904,-9.17520571808968,3.0141973984022536,0.2138984279473543,-6.354959606473547,-4.942317622459968,-7.616982685537764,-6.178907268449665,-2.787007604972075,6.640742396786676,-8.14492983248495,-0.0930524167276689,4.631197458437415
11244,,-3.003137075029781,3.7061061675723272,-9.07692837948245,6.376560066919184,-1.335918400821778,-6.9451007465217565,-2.603357032633576,-4.3014977076832,-2.335516274220821,-1.3956563382671865,4.260866038886392,-6.5683387589749085,-2.577674312758586,3.689048188780705
11494,,-1.624913208996909,2.963749390901919,-4.952214297997857,8.132760674530942,-2.376488802294189,-4.548241837909677,-4.193416976108143,-7.320143966058248,-2.0530499381824683,-0.5476371173688648,3.885980050761772,-0.9662022520371985,-1.94117566911716,8.05109573561956
11744,,-4.904946987574574,3.975572647747265,-4.16606070953235,8.266818969560479,-0.528589572599824,-1.7947783535722917,-4.775465615775182,-4.038088455270017,-2.4925813357585227,-2.02016172842618,5.517023337836642,-0.7778328567914399,0.0213263260369402,7.281255331136219
11994,,-4.3822899874905366,4.608118251437958,-5.932135261790965,7.398236786343601,1.5241291545511062,-2.796696150488299,-1.2601000273832144,-1.6528724055612014,0.4362486849955309,-1.0722184226945124,4.194949564884346,-4.05409777188569,2.005180475463816,4.511401521310392
12244,,-0.9997860609077448,2.7873558897374378,-3.924886872120807,6.251512548181189,2.4446985816519224,-1.7773290262728976,-3.030250985500374,-5.7582379266482935,-0.7769880239494587,-1.7407318437357222,4.887784491149593,-2.1132971350302654,2.2865986755417382,8.223304777274416
12494,,0.5239684124071418,2.745008926522279,-3.56356236117698,6.674907848457679,1.667563249074563,-0.8624098877715778,-6.34105099763111,-6.569435128871505,-1.6409283134882855,-1.54620640820164,4.676904510341837,-2.250805086872089,-0.3700517239820223,7.254611801879078
12744,,1.2026463901370812,2.5043051876366365,-3.104210002295943,7.945593088327376,-0.5495759403846063,-1.8856197849805936,-6.82259796208709,-7.893851862515389,-2.6491027260992883,-0.5176527695612901,5.625909061113443,-6.771103008033919,2.0582555862050222,1.6846309962103545
12994,,1.919356374531871,3.5575883886764426,-5.126851501710208,7.417327240871843,-1.2950064459216883,-5.362561744322179,-6.634845196846911,-10.244721808906954,-4.973229134881726,0.2703119752849076,5.260835680537009,-9.483275387980044,1.998232558255164,1.9924958706728764
13243,,-0.4602152119810971,2.888794471987272,-5.758328069684383,7.1355274221305525,-0.2321454770629262,-3.0792664183222715,-4.852190937640962,-6.729980777747403,-8.29487237078903,-2.5166339651400134,6.1894881488907005,-10.99983796804858,1.84848768248738,3.955430605771544
13493,,-2.9224199922130816,4.632238620906293,-5.682646633502832,7.108122716701429,-3.2431349501790936,-1.6887397937683413,-4.080080376245655,-3.568698083588284,-8.136300218455695,-6.164877882737115,3.541348084777166,-8.47384500323943,1.612904576474841,2.8437592258432542
13743,,-0.5688791872613307,5.642848901627735,-6.709596984221777,4.671873341462822,-4.842417444046906,-4.959080993923505,-5.546140424965827,-7.841366438218124,-6.313916268133387,-4.176877479556588,0.5860844757426882,-12.536652853857568,0.9509031058021848,3.3909510412428947
13993,,0.3148028079169018,3.979193257039309,-7.833574987812335,6.748951625727501,-1.3783108444696657,-4.3114867013857205,-4.506207131879471,-4.8700651756277535,-6.036897975655742,-3.879556177986012,4.388991913890248,-9.294835474283571,4.466423507014658,6.600391728844961
14243,,0.2020572960062152,2.8935152310603014,-7.951711490405375,7.095757900678588,0.3124403844041136,-2.9505988476050304,-6.071424744174743,-2.830314486315093,-7.666464992213488,-2.840646590007933,6.105514915205065,-8.825694749622935,3.4582784339608463,5.742400764316573
14493,,1.431721340266835,4.11892051900278,-7.309277978140862,4.959982559343919,0.0468724508704731,-5.669432791767517,-3.677052544625364,-3.587003832518371,-4.995679478808854,-3.599838245460365,4.556731741803377,-8.650975760574832,-1.3568596374369477,6.026786505122079
14743,,-1.0654105235845377,3.5955535259735245,-5.433681331783747,5.778493938886838,-2.594470388629073,-6.323452225481155,-5.444107955836488,-4.798001362922712,-4.381736187679632,-4.291139367295511,6.16453659986989,-6.3824209441684125,-0.7643552120368918,3.225760971094908
14993,,-2.2016474968193407,4.155604562545344,-2.5392188066435994,5.766101579925812,1.0385578484276416,-5.011727079441647,-7.441478134917181,-5.302211543042769,-3.676077487200376,-4.999333961983342,7.073379543376687,-4.16726952988371,1.1241440635723403,1.8088931831273476
15242,,-0.39305285866866,1.5536134859561923,-3.811003312280063,3.718961089293332,1.7117819097378124,-4.244159725693836,-5.459613018955265,-4.39379464189039,-1.8972586468182744,-2.4260938655888364,5.2951858659473565,-4.909820270781612,1.179246218739261,0.2794137278438686
15492,,-1.128810873693809,4.468384796091448,-5.224333821985092,4.378091620433668,1.3656774943181629,-4.071002291628728,-4.193494555997633,-5.878122533494105,-0.95446427559503,-1.7931864540688824,5.379513319466716,-4.550786736489333,0.2141706814911326,-0.1249548988367871
15742,,-2.3780730544998274,2.3798668005089514,-4.150706175448637,5.949159159608854,0.1264700864799738,-4.721998489573403,-6.053632904156316,-12.348231294299982,-4.249985130034188,-3.779179063462681,2.2262308872294856,-5.702859688531313,2.4080783954992824,-1.7193084131568048
15992,,-2.505161740105075,0.6309600036965969,-3.120543723428986,3.689667261959779,0.5892716868611628,-8.640208959693748,-4.690337907974906,-9.614765930814592,-8.60653276310243,-3.197341307066768,0.5272262871130412,-7.978194707262571,3.0250991684936817,0.4288485367198327
16242,,1.864802058713921,4.107840376815553,-5.959029562420778,6.428099453392154,1.7667866808264527,-7.841775753196202,-5.021871241509562,-6.164641976098679,-3.790258871915517,-3.380950276080547,1.4079149952498105,-4.6795674768579545,3.762428897166564,1.3846324664239391
16492,,4.918080638005248,7.189636455071526,-5.550154404951049,9.04032984777255,3.675259367593085,-5.1521651966961794,-6.746239904899155,-5.024229108171285,-2.170173122790304,0.0207225910160443,3.89517764899328,-2.88527666170813,2.5414254398953884,4.553723858898754
16742,,2.7349482189922982,3.422717234276053,-0.7632818160596784,5.767820212267552,2.579656107054094,-3.454765658384176,-6.907086570471988,-6.121061059194036,-2.6973898161738976,1.2579046111557834,6.37491053726917,-3.5590734787178704,1.518219981081781,5.704054048779469
16992,,-0.3954332024786699,-0.5146627220586931,-0.2252915570290155,5.165969396132263,-0.2648635293224964,-4.22556306694655,-5.020571126862629,-5.3486996085542415,-1.0498474217152305,-1.3623790269928835,5.718159784676526,-3.1009343317409632,0.955076333165154,7.200589093727789
17241,,-1.1496044998968715,-3.355649891735541,-4.43711685139448,5.285512480500263,0.3841694311828903,-3.268987679534694,-2.9242990949041303,-4.08382816680669,0.9505945269677945,-0.5697841762360214,4.3308086373248695,-4.063863080054139,1.32005959398116,0.2806412155891431
17491,,-2.910174687564515,-5.25005153239672,-4.70568182630621,4.916706826464036,-1.6672058704411312,-4.19248546041661,-4.5566845848526345,-5.788389754592707,-1.6732924945074863,-0.304435294560896,5.7342917161798415,-5.746166931296125,2.6007992975449152,-0.4103434560777905
17741,,-2.009859344437597,-2.1592371049571213,-3.236275546504272,4.109721454012044,-0.0151106123445063,-5.348049981117708,0.840723759940438,-8.334395219893514,-8.20062492167582,-0.9905737562923288,6.981759592868155,-4.538483209363862,3.6906898947372246,-0.5743499383987527
17991,,-1.8263635834952676,-1.7919769077947572,-3.375488830140689,3.9132965252289575,-2.193478833502743,-5.96483432677628,1.1072225840959358,-7.306693712534386,-7.445201817722707,-2.640618669105594,1.5345720073388172,-4.602686015676934,2.287019694830396,1.4138575139509617
18241,,-2.3410058056533387,-1.0561913629242046,-5.039023369958279,2.757869082769933,1.4439285652167877,-3.410460311979743,-2.3832735978196324,-4.202587205146839,-2.546883904259661,-2.712428757715395,-0.3023546376675122,-7.577570065881618,-3.6156260970521887,2.67475121874401
18491,,-1.153033367251342,-2.906755990418976,-3.3566240781576138,4.192493124286284,1.0446565590643824,-4.502916317402367,-8.475752775268951,-2.8263381816376967,-1.5139200135923516,-1.4643078974181707,3.549696279596928,-6.635420229531591,-0.216347603156193,3.4545853824278216
18741,,-0.5165066234268835,-1.663148033299164,-2.8471516303548783,4.1252223795163045,-1.6309911456150696,-9.804120778225464,-10.88345899190858,-7.68643553982974,-4.570318822193912,-2.147335858336752,2.2891509749479546,-7.505974276832939,2.9908579305007854,1.9756814822414104
18991,,-3.0189791404178283,-1.0288418071721337,-5.174020761137905,7.297695447671946,-0.4157553400728241,-7.325331845853523,-7.718730343133512,-7.286664902425233,-5.106737794778214,-2.894168182000559,2.962212866368876,-7.767938993840056,3.117535010173353,-1.3070378969136762
19240,,-1.8219795437767343,0.7972303833310445,-6.513720823300747,4.300864657493769,0.4364921818355247,-7.642981374659065,-8.037382747600347,-5.567298113828897,-5.548544771608363,-0.8977176673106204,1.0410734273297697,-3.2547361135585966,3.377861787110363,2.351880940227473
19490,,1.2781752030697802,-0.8010352996235142,-5.541618612141322,4.36905843674121,2.431291441310783,-5.221776226012187,-7.7443991288276814,-7.130706291598305,-3.600600629566685,-3.743431628676524,1.4175640648407926,-4.062067616487162,2.0383215320003027,3.303320840086987
19740,,-0.5809225479113794,3.7200543010854914,-5.921549951357727,5.454898399240896,0.8520061337045233,-1.1402332692981525,-2.615998079722584,-7.729974284380638,-1.4429663594613216,-4.990593774412978,1.8990279209762777,-8.438538735225581,-1.2950810070653858,2.596688695629685
19990,,-2.505325598995409,4.050254910445508,-9.7928402220994,2.2170901168989587,-0.1477873573314469,-1.937984025245583,-4.062874940169158,-7.005956181227079,-1.6120906547688163,-4.040395885562101,3.6499019415170846,-6.293776749319752,-1.8582008303729016,1.418065109775778
20240,,-2.661385922373187,1.0096555374124416,-7.613045370684811,4.002335850097084,-2.0549514432596707,-6.089868073202085,-8.672784748623364,-6.218404684925956,-2.305337830777435,-3.947067983411955,3.209032401802407,-3.1544771263741174,1.8376839577074229,0.6127233527810387
20490,,-0.8017329981006309,3.812066736849564,-7.000520254486489,6.889041383820389,-1.3929466964871098,-5.037883404339798,-8.359518304396572,-5.578940280696019,0.2194635615131557,-2.8432857601347807,1.4514333464935716,-4.400519494129219,-0.1085550261609544,3.082083370454876
20740,,0.1245863663089896,5.253911713084229,-9.260719307994329,6.252144759435464,0.6282114508321245,-7.141300192975417,-5.6386706665026685,-4.529885186652498,-0.4288453197041922,-5.0302084310456285,3.5647054311686603,-4.930894877627805,-0.3811431451612996,1.0144611780853672
20990,,0.2649049904521702,5.245398619699209,-7.386790824307328,7.104148468125189,2.9023772734651736,-8.14778312609259,-3.1769578320904817,-3.6876228688077664,-2.960894967068276,-4.822864462971859,5.441909764089488,-2.4293595631107525,0.8740401587058767,-0.1445629982839718
21239,,-0.093342602277678,1.4023447050921611,-5.7551549157750825,5.561816005746079,1.567866292494144,-3.5939379892002465,-5.26681482669482,-5.595571385498936,-7.903226248905954,-1.490264025210772,5.402573136052378,-4.937048440242295,-0.3788011539681237,-1.6133557145569977
21489,,-2.846396903648803,-0.5944001154579908,-6.175376771090403,3.6819119021142113,0.3353642020281644,-0.6908249952264733,-8.1213183704671,-7.101953591249899,-4.376963835304191,0.5985998836553309,5.019182017456638,-6.290590809600014,2.4864860922814547,-2.1654379370213546
21739,,-1.071214542483602,-1.2376634981311876,-8.01348515044715,5.356482680043965,-0.4652835286249005,0.2276900239583897,-6.347563880917905,-6.107058537376803,-3.917408941879862,-0.5908186272664886,2.3967846381477824,-4.713146554616463,2.577089763389444,0.4447657062845675
21989,,-0.8665742274354569,1.3943468784039583,-6.8244733768543,7.063828988542218,-1.188854991471758,-3.2490461562426223,-6.1730238936624335,-5.3729662252420765,-3.760396646732996,-2.5681229747859877,-1.0787670984744475,-2.796976867340625,0.9186136738504892,2.137427276574318
22239,,-2.44325951179214,1.9227011123516329,-4.655861302654146,6.317638051322142,1.337645214158986,-5.271624216573034,-7.722005411697602,-6.072816112893657,-3.266275822635935,-4.162148493008845,2.868845061967811,-3.093506565311384,0.4024065768334745,5.507067576841493
22489,,-1.717125172197869,2.0762297379167496,-4.168477753093245,4.229608997048427,2.190414032532571,-0.8911036583654082,-10.753052085948882,-9.508544706295934,-4.6216387788618025,-2.156600084682136,4.992744259816301,-6.755601558508323,0.32071763380879,5.621446638237456
22739,,-1.6018797073061688,4.086508307560859,-2.975719645626063,1.5148387837488606,2.427881321248613,-1.6455813039326554,-8.824806825146924,-3.802842236561811,-2.307560108359928,-2.041438037148791,5.083963956794615,-12.419546457945842,1.0013861781960682,4.684529132864357
22989,,-3.819841132846189,3.163381060236547,-1.9950731720009152,5.555974672055176,4.008609929986561,-2.086070826739983,-4.851894725749112,-0.4154269683370592,-2.4050910733426867,-3.689495504743397,4.98733123834232,-6.34384934622447,0.5505064674118012,6.249319687964537
23238,,-7.827125634545547,2.2968021968686347,-2.617858745821473,7.620441156226425,3.2789772202042755,-2.6400152903346434,-5.290064424899059,-3.780319965651422,-5.80312760080991,-3.1208090303429072,0.7891181281605577,-2.670797865084154,1.0749056918007132,3.4445212043163425
23488,,-3.8501437035822006,-0.8161791909297139,-4.99519543820207,4.585724304450763,-0.8815330924373387,-1.1415598831287534,-3.1397043338146795,-7.742709544603953,-6.252400230223605,-2.350339764893831,1.722310489476566,-3.638071924942469,-3.3131722135128863,3.670343202530394
23738,,-3.094531573598576,-1.4666956298460443,-4.793269157603801,5.095276595143398,-5.249705944193176,-3.381494849940423,-0.4412720916417151,-4.6593323352051845,-5.353720556617181,-2.9354979162409456,1.4182326037901172,-5.974911563589036,-4.7056966020928055,2.802237727830887
23988,,-3.1943213889619813,1.09118570782574,-5.941716099460798,4.466133076080857,-1.3158471038827344,-6.289957991791964,-3.5844412599444397,-2.9555985799337825,-5.282268937156186,-0.8214800879699979,0.9419216692639908,-8.309479231733938,-0.267091139718547,-0.987656785772102
24238,,-2.7133550721777007,2.7840903836510598,-7.165192779868055,3.596459267007151,-0.9524457587227624,-4.752557975075864,-6.504372135661647,-4.113898681424625,-1.5697250129860032,-2.392709960315452,0.8014780432625861,-5.545115464958602,2.8033202927214456,-1.7688815013546544
24488,,-2.7918140903554294,5.34089227806036,-9.839499494622691,5.679384779974001,-4.513864344486383,-2.267095415233513,-4.340499611957322,-6.478946575377302,-3.610837415095753,-1.2227466094233843,1.7001075557888004,-4.950526237378576,1.5919723986827825,-0.7039065009567426
24738,,-4.088659643341387,3.541829764170786,-8.99029684783623,5.522817216265926,-1.0354632943511344,-3.1051679525255182,-6.034761647652809,-6.786119508022226,-2.921026408693291,-0.1027186856461591,3.456400380830567,-7.384126989228736,-0.7779805222373742,-3.857023374980799
24988,,-3.186377528918673,1.6814360718672663,-9.672920565915913,2.9933091023532388,-1.852219713354724,-3.554867894947648,-6.587668431067467,-4.809666147355959,-3.4962077238990137,1.1989640671790718,1.9604572016140744,-7.636373121707514,-1.295275182777463,-3.1280796460365257
25238,,-4.670509681866548,0.9630562431388836,-9.296699643233993,0.2956697260399515,-1.301821685556348,-5.776464733640609,-10.605412115538286,-4.808835851970863,-8.685387752798835,-1.0193663783337563,1.1966456301237829,-8.141920113638301,2.5525537837943006,-1.272101206105562
25487,,-3.5830152725957616,1.4607041105152874,-8.850857635700155,0.442939623286998,2.1823626355553096,-9.036225770172829,-3.182850976882788,-3.3157439096222725,-8.669623423784786,-3.5516745412031767,-0.6008351777204314,-9.501517979152007,1.8378541773384536,-0.4150614819583186
25737,,-0.3981933869673598,1.4390116238453476,-3.717721297548744,5.301003933926554,2.831746994361678,-4.031691251371753,-2.9341999599854947,-2.6508915942290905,-5.890942527034353,-5.1159714613942375,2.506155888323317,-6.575159039822845,3.5272003137799346,4.400930672616678
25987,,4.665140261198028,5.090394078613909,-2.337612092836804,7.796765353479681,1.5935787717075929,1.235842133720447,-5.434689956242137,-5.022601859733062,-4.626481164953491,-2.7487235191685904,5.1404753127015335,-2.7998866185505427,4.649616928467572,10.198589483516663
26237,,4.150813978668978,7.397359149783417,-1.590031791072691,8.78192902710539,1.8514359094479105,-0.9753633541447464,-5.065932435228598,-4.550227434387141,-1.4788923657582822,-0.5159459092727222,4.548533804264213,-5.541602813115263,4.867309637802329,10.786268398622273
26487,,2.323536393464484,3.795815474234863,-3.36155279668624,7.801975538529577,-0.3590361243395797,-5.121016203505825,-4.203376163003627,-7.687681159135421,-3.4079174293014667,-0.3346448442331431,5.255496215896053,-7.449159011440876,3.060408484236508,7.237856024686099
26737,,2.9988077904501336,0.0288850815589697,-3.820661507877899,8.690748781832854,1.7037103031019962,-4.660532627521662,-3.399312668203672,-6.419695502086653,-2.6774611524229304,-1.3320958535161314,4.302355172966623,-7.028353241275205,1.4417188100964728,3.627448335381845
26987,,0.4645138231876131,0.7670251839485234,-1.443409477349997,5.982721692458716,0.9357440215425366,-6.850868453508446,-6.371267713257338,-0.4753221842720573,0.1370479103231641,-1.439775112502573,3.333857043261709,-7.57110373936627,2.4831193555517905,1.5452382697165878
27237,,-0.7687494653118699,0.5632489258145411,-2.3277315431030754,1.972800320997237,-2.4824506351571505,-6.705005495464745,-6.884466355590727,2.427249628202692,-0.1815585076872046,0.1394246683077524,-2.0184003382452333,-5.951235595972937,2.100686984286096,0.3446580845994573
27486,,-1.1844309937037314,1.0390485534952263,-3.853644415933237,4.18360839267359,-3.76148404335615,-4.211332048747625,-4.883817240684338,-1.6754413329401152,-2.4146006926572925,-0.4313617734999291,-0.979190674159382,-5.672986009227333,-0.101824683996556,0.6783998273890358
27736,,-1.715490953162925,1.648572867789908,-3.2042751563275123,5.304752374901069,-2.470209659091097,-2.987692046619693,-2.396647936694489,-4.71039901178327,-1.9503943039362768,-0.3794788874533201,0.2677779158885664,-5.791599679749265,1.2025305026835171,2.8858573077316296
27986,,0.6015693144112041,0.101228675975965,-4.1451816334333085,3.96203436696764,-2.487998505985862,-3.73073187577416,-3.337938093440756,-3.683968369568137,-1.710390199426692,-0.3402158346541566,3.9736610859647032,-6.696070435383863,4.481817370253176,3.8527582966965728
28236,,-0.1428116150567774,1.507277815241983,-2.4839268189955708,3.752007302720977,-1.986835882277811,-0.9779672327843054,-3.771476305243709,-6.187653142384217,-3.4797794567574853,-1.2808664464974746,3.834956443861581,-8.137983836632253,2.9296163089133347,4.672660274398267
28486,,-1.551822775385989,1.2208628315044288,-6.957237670091077,4.70953933753756,-0.1730936720943121,-0.8862970944802231,-5.582733052233943,-7.524338923117647,-1.0809696558634805,-3.637330275761226,-2.461936698223826,-3.5961306913595865,2.045757315916199,2.8696335841187866
28736,,-1.2614062402489217,0.8112236018059429,-9.097605542065486,6.012994942123275,0.1039429698765958,-5.52429680770309,-7.08423020537872,-8.272316407666132,0.138544926853363,-4.140564082259478,1.506959729654164,-4.089332446309181,2.964541238859942,-1.8478818580095104
28986,,-0.0710377390555432,-1.0648242638233765,-7.107034058010509,3.696296076980893,0.03182326468271,-9.114172962282977,-3.087935982191163,-7.219082272898163,0.4200159050845846,-4.769862677085737,4.940782438592159,-7.567145240659584,3.977556712093681,0.2797776769626134
29236,,-2.3442263066324127,1.2106448923590938,-7.003717189441438,4.388111695609176,0.6139207853041527,-6.710138629697051,-1.037885273889258,-3.7841470792355567,-1.5250922549324843,-3.88335502812593,4.573741179321488,-5.904667645378804,4.342657882005064,1.7171642286123596
29485,,-3.82302930276738,1.0030103103644716,-5.026370218048345,3.236331296943104,2.243935003416362,-3.908649024149729,2.6177420895962547,-2.7346497886050107,-1.2876318733307788,0.9290808143597992,2.062241992385048,-5.996104243401497,0.2865428873795467,2.279846749841333
29735,,-5.868968467862845,-0.4361549613186616,-6.068529252812064,2.0495144850721267,1.5356012085958644,-6.410322966325495,-0.3665270188878354,-2.4135306781242787,-0.8937582195505379,-1.3319860388672888,0.377779668380735,-5.51351919438013,-2.1710743966094843,0.8179628397343698
29985,,-6.199328818090638,-3.0861632202204348,-4.85701004269133,2.766298659944584,-0.9244673223536964,-2.268233731033153,-5.649591016758303,-3.737906651716448,-6.155180708203051,-3.653760548502684,-0.5976942288439633,-2.6438212844094777,-3.1822858268654164,-3.221156303484631
30235,,-2.7796726712192408,0.6160302563802114,-6.268669251506946,2.630634690347568,3.2269066774781847,-0.8866319009636676,-5.459231714432399,-0.509001968991082,-3.500227556895432,-1.905734807953852,2.097969659094656,-4.085781998310502,-0.6807435411682219,-0.3760644532040086
30485,,-0.0595731841562065,4.558740024429348,-8.78143098288373,2.8331418153138315,4.151687368944257,-2.467088339402616,-4.944065222801274,-0.4528519625986946,-0.0245900171875659,-2.9862305242139566,5.252386929173873,-3.2586619770516507,0.4044996376626763,2.5006505568911805
30735,,-2.272277053501309,2.0263685175778705,-10.494894314158891,5.120675261496014,1.0780461758649085,-1.6267386518679574,-4.421347991442096,-5.19984419259385,-1.7295389117271371,-1.0226455862175374,8.774926614675678,-4.472033128049474,2.3010260392950643,7.158794622064653
30985,,-1.9515124685977436,-5.593419933893905,-8.615332062981166,5.532896890054172,0.3783218718958916,-0.8320928096388651,-5.140330444135178,-8.372916400666476,-3.091229828876729,-1.0799380868720396,7.574621744660891,-6.676779389661551,1.2354080582434792,5.397556364658907
31235,,1.3195752813457375,1.6746775316686004,-9.486328863574233,3.646314074173637,1.2291455444741546,-2.8862270266190064,-6.242400944945359,-9.33926806127183,-3.615817725184476,-3.686926575598598,4.455209604978147,-4.788480707770934,0.4314470162636291,-2.3500838842700467
31484,,-0.1877650815953127,2.5814533936292494,-9.796087887286866,4.212944548285434,-0.9348497810515972,-4.468269159957573,-6.104955874951861,-8.595423562594606,-5.616518676137482,-3.67615606532139,5.728267122064786,-5.69306034564929,1.812070318892224,1.0276221855765773
31734,,-2.051199024992175,2.495080829928788,-9.709712898933846,6.605721847845082,-1.3759315405486594,-4.122907231794439,-4.612570939524064,-6.837972540517777,-5.415835271059346,-3.7195844314813655,3.994765367368624,-6.244523326916552,0.7155930907171965,1.1749848854812273
31984,,-2.4950488727943987,1.6909257294672102,-6.596637469490279,4.820985889439799,-4.579410208561382,-6.558598612147777,-3.578327996142574,-7.163671065869448,-1.511770762214475,-2.1701246816990496,0.1564297806761394,-8.10811738632069,-0.2995263231428522,1.102786356114477
32234,,-2.359812333888573,-2.1044182364370028,-2.8184287879369503,3.86850766324586,-3.178507074817057,-8.055729477234454,-2.6388647326731345,-8.7032221224487,1.8990020354346349,-0.2881489455413988,-3.1162404734373346,-5.79305135037603,-0.2090388930532233,0.2368650050189448
32484,,-2.530994841772354,-4.23441673087672,-7.486708323971069,2.785833659303293,0.4445414462618147,-7.320063814334422,-4.553788201277707,-8.101670691030794,-1.9608392259721512,-2.05035931251597,-1.820792017305913,-3.502231854979123,-1.262006008788302,-3.023808907697556
32734,,-2.179006079731708,-0.0894549720778434,-10.460611077074764,4.124942070244705,1.931082263149965,-6.959731806036574,-8.616505445827444,-7.810666815727224,-4.367228649665671,-3.905844246330095,0.4081828949035665,-5.534798955578099,-0.2542436817391993,-2.503094709180984
32984,,-0.2760100172758152,2.1794425159838955,-11.432568067525269,2.3593669740075813,1.9370240937434584,-7.362753374185469,-4.520942161447998,-5.536672431958289,-2.62076128895444,2.1964154872231823,3.2710828705358126,-4.201927730815911,-2.041091019275692,-0.8066652574882249
33234,,-1.6804576465233456,4.299651241320551,-11.947487523463954,1.6018586507593813,0.3870170351874868,-3.674143229470817,-1.1431302983668838,-4.228865122139307,-6.224045687111323,2.298783920130068,3.0137695476070494,-4.437670923707252,-0.608962991817569,1.0231531579282014
33483,,-5.285692714903223,5.031556599957892,-7.560068502764862,3.849091076734801,0.5721827570608905,-3.629683092558799,-2.556040050764837,-5.13743672791035,-6.579611380911212,-2.04623428444,1.840178921873209,-5.815352780713566,2.101571641666134,0.3896089921270788
33733,,-3.5623431961002625,2.616854814865186,-5.522241791209418,3.1922911147679134,-3.7284117305313047,-4.563884559133334,-6.415942978297733,-5.60127954127484,-3.4761744883398538,-1.0544786515037083,3.064692051690814,-5.474645639744892,2.9524246618981898,-1.423373712414949
33983,,-2.5025554985989817,1.0548023478944333,-7.840995915308879,1.5619649839940266,-4.4978376182763045,-4.9664403135082775,-3.7332220304973895,-5.015407944139849,-3.415752490764905,-2.3048394029866213,2.942826463456249,-5.930609210036762,4.868986968783319,0.2351939182449734
34233,,0.1848047748833494,-0.0375091143412144,-8.322107644865707,2.629934997937199,-2.788252599576767,-4.043894324627184,-5.312255026939824,-5.7591079899569575,-2.304365135579717,-0.5539439715206365,0.402650488558364,-4.376416836198725,2.745603792804092,2.6511355123292546
34483,,-1.281983402071195,-0.9834884877393858,-11.6165345428827,7.088163450355575,-1.428966527803964,-3.8905036691639223,-6.761684963841984,-5.18851601300757,-2.6577280958472045,-0.7872806558433716,1.3668892018502867,-5.2049055131293445,1.541139088544443,2.2190045226857884
34733,,-3.3631303886832264,-1.7758794214273046,-12.015128368671723,3.354532849435954,-3.385040130354928,-3.6219073197443032,-5.090901573856923,-7.4474148661685025,-5.1459703270395805,-3.388519680291984,4.875290457090792,-6.98367544293114,2.6733884176670752,-0.0572140819352237
34983,,-1.5409044128623328,-1.079371876735709,-9.162399202855314,1.0831450648494223,-0.4520824262524814,-5.175149137383536,-5.089818722698668,-6.374048616657614,-3.622768971350399,-1.374832863903805,3.870661317251752,-5.9500747015078925,-2.579935220517692,0.5790821068883472
35233,,-1.615952083866503,0.2080587940448436,-4.697972869100675,5.385166597048561,-0.7637428006447591,-7.852319238399421,-6.76014239677981,-7.465080869166558,-6.30956373354945,-2.8033718942195254,1.2439208988883534,-8.552676609219331,-3.810381757101299,0.3463225821281021
35482,,-2.022443785342795,-1.3834866440293123,-4.8204245682799005,4.351039334640916,-3.567524136995939,-6.5047008730827365,-5.616603000427242,-6.657054402856351,-5.84248628363121,-5.063179623922739,0.751218491627724,-7.413313547537536,-2.3479049977879773,-0.2685268575976273
35732,,-1.275878330541154,0.0964979176839672,-1.9167652279626848,6.114653426808419,-2.3959267524710115,-6.868452798263226,-5.774879854919115,-7.604333867658987,-2.891640695978589,-2.939103531308267,1.6721601730897913,-7.332559795804312,-0.3082223769867483,-2.878021166702891
35982,,-3.4399491698823006,0.7053981107185916,-3.904973375163084,5.569446063524708,-2.740233329810163,-4.739832376225742,-3.1265309363167573,-4.418111451954266,-4.194446755327039,-1.5823672906234982,4.665224613248731,-6.630771985071664,1.5066329673482612,0.8029375364968733
36232,,-4.539110699139918,1.6897904369687744,-7.434540772499365,1.2334313152831198,-2.3447801963084496,-2.3408073438086885,-2.8186917184163347,0.4864165573880116,-4.998164751949024,0.8478288949366313,4.268410567433555,-3.3821722141007604,-1.7491455889964589,3.028067467952747
36482,,-0.381321743099772,-0.5649573723187691,-4.5725809723745385,0.3828178636176674,-1.4445951084249486,-0.795863350118974,-2.2962540507657963,-0.7579653173804477,-5.933714301861501,-1.8366350780934704,0.6251759357071606,-4.712208289526588,-1.4596192194765611,3.073293301284548
36732,,0.1767434276288842,-1.761948722548596,-3.2418568106933146,0.8779485120504599,-1.8954126144542256,-3.2739486653388794,-5.410248875483923,-6.166126757062486,-4.627084990441819,-2.6998386090921582,-0.1367065300575328,-10.3136299524308,-1.269330603299905,0.0046783840682925
36982,,-3.5119435498063507,-1.3024048764980805,-3.672211959705285,-0.0458176490790955,0.1452401015600441,-4.655137710476927,-7.653588512853668,-8.381942649358074,-1.0042807691579805,-1.363536640951283,-1.4346834812683082,-3.6652536576280017,3.08584133009977,-2.7932175896433717
37232,,-4.349928539543701,-2.320844731116743,-8.254983545781508,-0.9246694230903396,0.6904180853222368,-3.866241596145025,-6.6469182344433335,-8.279455148676483,-2.8471901355228373,-1.9232502373827451,-1.1994705608236558,-2.8469100176064948,0.7569283494186164,-1.4002817437526582
37481,,-2.409678218754828,-0.692225435726372,-11.012256777262005,1.3451158827403216,-0.4920046601705153,-3.2546760101072136,-7.491914007593408,-7.68415266247114,-3.790699147465968,-0.6917573075764539,1.248609354144527,-6.739348559395403,-4.128104978652241,-2.324952139405057
37731,,-1.9259362886184177,2.0184524175752023,-7.626803421778617,0.9962811616025036,-0.726146330116417,-2.5188289376454165,-4.816009748985427,-7.206851446631423,-4.000045512293471,-1.6473962474856183,1.767055515482367,-4.699837371113151,-0.2136886180036362,-0.2113295637253545
37981,R,0.0685971375978159,1.5654160418736232,-5.766799221033862,2.856963829199683,2.445532256876089,-3.1270877304921383,-6.920319320603242,-6.898669888477894,-2.5324699598115297,-7.628214856464355,3.166403950479624,-4.207435052948908,1.7058356436074766,-1.1601914775911384
38231,,1.698857026006554,0.8944885686211208,-4.112091674794605,2.570365233514341,1.3004991343078898,-5.2648200454670535,-3.789478934944421,-7.589212940639988,-4.154206381257676,-2.283007342582499,3.6650502672128,-2.990126538741859,2.7804301697511224,2.901205849072794
38481,,0.8982531418657156,1.370647086733754,-2.600109520104979,3.261737435780429,-2.5514702172503108,-3.5857582969937365,1.2726574224458205,-9.766682045804972,-0.4940336456199846,-1.2240505390962244,2.1228934744647705,-2.996978405542824,1.4041141666155208,4.716449297665855
38731,,0.8839779158243323,1.59382946671199,-5.345922866833195,4.436039424796524,-3.372842705577581,-3.198062024912323,-2.4801201720015555,-6.709586011916851,-0.7473972681946994,-0.2177916097563692,0.2466888651717155,-4.756436994455924,1.9676866467561585,6.91429952564854
38981,,-1.4283282938176671,2.4368463382447763,-8.456675070736699,2.446545829965538,-0.680532163264586,-2.1807965294486427,-6.556228584519966,-9.713583775016716,-4.549162534368052,0.1085766082256428,3.673185769849749,-4.972359880769593,-0.7273453412197326,6.491572559988443
39231,,-1.843417879681701,1.798905347886266,-7.730130106232269,1.8435819466298595,-0.8541339092615623,-3.116784189076705,-5.93342966818303,-10.866082499087808,-6.718223193551063,-0.7207167230323468,4.953685231388549,-3.9530522567652127,-0.9933437842098748,2.55600934487326
39480,,-0.438599219362551,0.6804920915443184,-9.50938407007629,5.573939120334734,0.5370510955284649,-0.8252411436499835,-6.8787705936332415,-5.9994763726982825,-3.5779461166547417,-1.2001595115481,4.191053323825862,-4.422511062231087,-0.6050701415081284,1.4251779194246268
39730,,-2.230878912246691,1.3854167595529758,-8.043607682763088,3.814844032005327,0.110365864184373,-3.53164452231448,-12.510194533050358,-4.560659387115381,-3.5464597440635792,-0.4708316741131522,1.3830070604558822,-7.315122805285799,-2.605451422017106,1.2923785514159316
39980,,-2.010608721218556,2.5701433382137022,-8.109848585791717,-0.5952616434607635,-2.573415245861656,-3.024915935407737,-10.405686835796535,-6.61592179279787,-7.887970019157253,-1.8337022355402988,-3.325507344168534,-6.619695091854037,-5.240582115892034,2.168030894101738
40230,,-2.0875094148088635,2.46663094361801,-7.553151147944259,-0.1372290872782453,-1.7064733576459477,-4.078907702057284,-4.670446793387221,-9.287092961228518,-10.265107698986052,-0.5479990434044318,-0.6157525095364866,-4.897135751941676,-6.824520386207521,3.7210080430532577
40480,,-2.5758966217714145,1.3489855587870891,-7.417801617011344,4.667298833575869,1.7597022095566204,-5.481974543661924,-5.619461376532776,-9.529652274866326,-3.262838825941824,-0.4711056176226612,0.3076762222727198,-7.427128473159501,-2.3391948723919294,2.842815407009238
40730,,-2.0588569418594265,0.7676546479264333,-4.683431822136028,6.234977355631862,0.5692233353598354,-7.598646528926456,-8.887015590798534,-8.805763924008055,1.1036645010311763,-1.840983942128226,2.2403006082268706,-5.754758627265025,-0.2574348129541876,2.0990228463791194
40980,,1.804118829260513,0.1928744661537103,-2.8100557983528,4.230491609149018,-0.0654056306540965,-10.764792150083249,-10.447738165445816,-8.399590646894406,-1.0966916832232922,-0.6624859737593013,1.5657540046793588,-5.20440584298989,0.5727975824063507,0.8486029921861271
41230,,1.488340234241012,-1.323472601816598,-3.172281436525295,-0.5308107668580565,1.34584929527576,-5.613890303381602,-7.593083199616588,-3.5096838272335145,-3.013359035360661,1.0907491775190652,0.2104992978887522,-6.623486474186392,-0.9056715466433696,2.034554313430255
41479,,-1.6077628868397404,0.1683575276987814,-9.51117417516212,-0.6155590161133844,0.0659321254010063,-2.2861445023654965,-6.393344268653101,-2.855562344310963,-2.5956889217733563,1.4134631596608809,-3.078017786715076,-5.789383616154211,0.7760150194225902,3.6321351460300417
41729,,-2.805120967323858,1.2476221032611632,-13.05593496504109,1.2122369380841862,-1.2787530158406235,-2.240082373711556,-0.0847403099722331,-6.007701745986641,-1.9919192249935125,-2.428931450426904,0.650331579139247,-7.43132226243606,-1.0452758193209806,-0.3477286418966832
41979,,-1.2000325948582644,1.9332659007090012,-7.88380426990832,0.4543651209370623,-1.0543578405928726,-2.7180637221316,0.7226957916064202,-5.729262344474836,-3.1043478858226505,-1.5745444700369635,1.9717122120237076,-9.075891944254836,-3.2517036715545595,-0.8069795089756115
42229,,-0.9365974940606138,0.4661796563702917,-6.901292096888821,-2.191986053030436,0.8091237646630057,-1.328788008599719,-7.037895455926842,-6.85211437116819,-4.595687438716863,-2.142949449237069,0.7373875932425955,-7.089144460767391,-0.6630193021182917,0.6471418407373744
42479,,-1.740291494174293,-0.1491175831150382,-10.64569686213371,2.592491493179905,-0.3547662366912095,-4.1293038008952285,-7.438900330883442,-5.473357905503905,-4.834002084938007,-1.3517861038958632,2.634715060479115,-5.4998708132908805,0.4363783933749663,0.2519339619039871
42729,,-0.8696801159163503,4.635007609299714,-11.707273650389467,5.356392959212915,-2.005603140658234,-5.354416120343943,-8.70316762944387,-5.454172406918967,-5.366180847184036,-2.277864930884852,1.116936320313325,-6.154431176591601,-1.7654687192708751,-1.5471026222180315
42979,,-3.789413519099829,4.31800833941442,-8.541023903980884,8.774716674541812,-0.7913418634145114,-4.491437573312533,-8.357900531477112,-7.002563038058145,-1.7329653933720566,-3.8074460475171312,0.8473939106777129,-4.863080794222589,-0.9437225230531724,-0.9015019575509672
43229,,-5.746975021014106,0.3919381273717826,-6.331943937033318,11.21621185909451,2.4700761274496514,-3.244317077267035,-5.863367211823617,-7.090817350883425,-1.664580312761865,-3.99223645197655,3.455883381099694,-5.613926376197695,1.2363333773749892,-2.083232348053304
43478,,-0.9927430557231448,3.569712841751061,-7.66049933909075,8.163510482428979,0.6894244473080238,-0.6036443037437119,-4.178180494659581,-4.254325224425366,-4.248599643205672,-2.4674876618526165,3.9604650672681343,-5.104795112278691,-0.6262396342245563,-3.788095302977616
43728,,-0.0645789731444839,1.8587611337745755,-6.383088250698209,2.497328412672534,-1.1401413113151342,-2.6848233554235112,-3.118426180937943,-3.776742879953212,-5.53393540008376,-0.0849565540251257,0.6202606920417679,-5.933634166859847,1.4786037000514505,-1.9352259279864303
43978,,-3.4684254172768245,-1.9377396383324463,-7.569133523525201,4.267092766926658,1.892893611730798,-4.306685748756365,-5.409879054443582,-7.097073632031707,-6.353329906685819,-0.9831071083903886,-1.4996895847398446,-7.872402046428663,3.050967458212623,0.7787684419658383
44228,,-3.42758737666221,-0.4355628247844692,-6.265202875048312,5.354570163937915,-0.2144946702808715,-4.357267175675572,-9.053992448722074,-4.276838380422643,-3.9947673798854,-0.6310027880105662,0.7683499922001003,-6.933295295468438,2.0624870400240245,0.1406218406922699
44478,,-0.8267682824648627,-4.808876636203997,-6.89273703485497,1.8938535645850991,-1.573993117755135,-3.884732534676626,-6.473865897072263,-4.183218855473045,-4.253941049367182,0.2186370198614836,1.9852273056523488,-6.1417849496352765,-0.0181100190142744,-1.0908780492664327
44728,,-0.8270913299983919,-0.9250467180549884,-5.001887237878474,1.167848060504097,-2.216630583281478,-5.910979439031275,-5.917580946883724,-3.273129500825537,-3.2200302750608807,-1.986854716363628,2.6194662020328456,-5.4851740944437966,-1.8359953453291071,-1.4168102721945912
44978,,-0.3280852306782397,-0.0070471008970069,-4.454770364810885,4.590648568009503,-3.303474410453473,-3.05212997273854,-8.565628078686197,-3.5634416362387897,-3.8639346311578686,-2.3370246660996914,2.0396077695283763,-5.96859554202302,-1.6251192756844015,-3.4247012838002657
45228,,-0.602855776734256,-1.6282963791936882,-2.18619350122818,0.6666828532798355,0.8279831876959854,-1.7584301013785557,-5.735265565398904,-5.496088929362742,-6.029253452186829,-1.7326601693837198,5.502115598484155,-7.430299115863148,-0.9755164242204926,-4.441272116916208
45477,,-4.178281649401462,-3.4125948735134397,-5.081970446397466,-1.0755056111005712,1.031790065861396,-2.193981307584554,-7.074321572390021,-9.319092634088648,-6.592650601090336,-4.744294994804738,4.372203977788215,-6.652000936141769,-2.877786578522013,-0.6716296405948892
45727,,-2.981368102762928,-0.92822657832889,-5.360173265875984,1.248925460149647,0.4680845623867555,-4.016114055009772,-11.355954362370191,-6.189071998672175,-4.676879436094511,-3.1657529992958726,0.8820527803420547,-7.201998679492075,-3.079525842002846,1.5110997662502266
45977,,0.6077670535661707,0.5309615143298864,-6.156246527710647,3.207480646115903,0.3706231299250266,-4.347222538249768,-10.491616037069967,-5.188440092705269,-4.18203352819272,-2.367787012370393,-0.1114482044053215,-7.934798161504805,-3.5501903572066222,2.084970716015073
46227,,-2.235450521789765,0.167037639942787,-5.822922264315677,5.724081720719639,-0.1267383979999558,-4.714157479550736,-10.78542135604616,-8.626713662685088,-6.5600675729604045,-3.806851389912644,-0.4553659757810904,-7.475212252493183,-3.6847518325197743,-2.7209837438967104
46477,,-1.9617735970250267,2.473421465872527,-10.978795727185284,5.47059291829485,2.798182335085916,-4.137464419684951,-7.752416372181974,-13.332296065499548,-6.526260876676366,-1.7793268031510294,-1.860074899220144,-5.720754880663048,-4.641737965137691,-4.585504238551385
46727,,-2.140247018156676,0.6312693691722988,-9.555897189342314,3.606743765167992,1.5356411399727017,-4.339438010496628,-5.710004154464557,-12.617652872656771,-5.699505916393052,-3.184580168362372,3.53013180573899,-4.691208374849193,-3.2980594506667287,-1.2386149493955594
46977,,-2.5786193026152047,-1.0783173022836403,-5.883694312336029,-0.1899901552672043,-3.073916035169514,-4.746879279355646,-5.929307807782942,-7.842436712975677,-7.439322536232247,-1.0575134469411094,5.049567480997009,-3.967078011353867,2.2326342714263485,-0.9091407699146532
47227,,-1.9333403007918768,-2.913776021153324,-4.520644505494209,2.147140672237038,-0.8349916899251125,-5.861435145090067,-5.669933832122126,-6.165492599811177,-3.067398435199644,-1.741188284403711,1.2291240895311288,-9.142861359130809,0.678876464905823,3.583756863900878
47476,,-2.4376092227339385,-2.67091380898055,-2.917805014933601,3.011081089095706,-1.5005082948746142,-5.420655618528095,-4.479166895924124,-3.8400401244055327,-2.6145258771804487,-1.149072668448547,-3.503649754363698,-9.709507308738294,-2.110760369966575,3.192353683621313
47726,,-1.6862454470994146,-5.986596171477071,-5.783383212603578,0.9187340581001447,-4.263256588775677,-3.37704163283166,-3.2878528369512305,-5.000767053796605,-3.4208466385528413,-1.107595453321578,-3.1134484894080146,-6.675013439080159,-0.2903208242599317,-1.8344301070710591
47976,,0.1536129494648428,-5.361579058228822,-4.407562446835421,-0.038668682679326,0.4597481307625199,-5.387328993117412,-5.788821697938636,-10.01778542801514,-3.739082689476048,-3.5548117642422747,-2.335769717536099,-6.279232976528308,-0.8190222377418914,-4.154516021313807
48226,,-0.5130731231264025,-1.9380027747128632,-3.94501692847768,0.1567958875776729,0.6831217715253775,-6.8784230161656215,-4.972722325262891,-7.022895025784544,-5.281767185843854,-2.069534978014655,1.470811139029589,-8.576227806957688,-2.595013681097164,-1.3780403426653236
48476,,-0.3543043547933968,0.8245767435138129,-4.82628613332306,0.1024925322812196,-0.1346318200471566,-3.488624526757109,-3.55136823597846,-4.87442383515813,-3.3920380352946444,-3.5167559542375364,5.693576811534013,-5.942302183434135,-2.131673515776234,-0.6790751730217237
48726,,-0.6284113464311414,3.7063213039009217,-8.690872248091118,3.409714460281876,0.5227800056406872,-4.196219881230897,-6.983921817115628,-8.951522500926814,-3.664445384111506,-3.545108521727754,3.4483185897580526,-7.481633164886211,-0.8778799746540232,2.695684317500262
48976,,2.101337197619032,4.851135002987107,-4.25831577631424,7.709174229206164,1.385379902827974,-5.233254704771323,-8.464648901581292,-6.328528564290341,-1.8060452766546025,-5.313858985643599,2.280424621742699,-7.901907262404704,1.7880250005447251,8.183872361799851
49226,,0.9377077342253342,5.970331514417618,-1.8243093377698691,6.843698636328522,-0.7622684247731952,-4.18618691442652,-10.212588369897803,-5.249756661325014,-0.8763075938846165,-4.803855701494379,4.45060484429649,-6.210269652342424,3.5098882741644504,5.793655646127243
49475,,-1.835350012010386,5.533767566136818,-2.9159311066834555,5.564473790289892,-0.6537731287753215,-1.8485007497020105,-8.099737867350417,-6.363312922059602,-1.188755537725021,0.5375399907141958,5.3305971825703455,-5.867826805446357,2.85433573621995,2.9056004274721863
49725,,-1.0998475214318624,4.467543664591665,-4.050683869695451,4.586767108429059,2.262247848836829,-2.101437687073724,-7.792109670835786,-4.676827471058208,-0.383550461642512,-0.145188455913528,4.180080277694019,-5.84759669303824,-1.1915151496700764,3.204303222049782
49975,,-1.7630062642332345,3.035026403970076,-7.292128435741933,3.116962821040524,1.2214217939544352,-3.381190729277907,-4.097486547160401,-4.181734721601713,-3.3891109934568595,-1.9766601635997745,0.6048913725573366,-8.346721489572618,-0.7403548308737531,0.2417920452305902
50225,,-4.445654776683581,2.784173133453996,-7.143784432897959,5.832929984111946,-0.8149392970526192,-4.626769399715359,-3.4105913180263854,-7.654679640298369,-5.395725178743966,-3.2647769506341886,2.592343392497107,-6.103016537493728,0.0666443018370863,-2.559809854629107
50475,,-3.724099007501498,-0.1417372036190159,-4.94073252048541,4.150766958366706,-4.048599760533111,-6.363913400834777,-4.665645763221679,-8.986164158776035,-3.7908899141294814,-3.6234596116681534,5.106540219329219,-4.698095447156514,0.0472689784762021,-1.3267491182382043
50725,,-8.319731960296657,1.2924183223172712,-5.627519513115086,2.006740660933582,-2.997606249651048,-5.978800417515133,-3.232188380209461,-9.506348915798062,-1.027942839736424,-4.38377179417383,4.713560309087291,-4.160534772124798,-0.0077304912560055,-1.9802693244276373
50975,,-3.8787620395000486,1.141243405118355,-6.175417977847451,3.699559996075859,-3.1757238790443165,-5.377374472313442,-5.184034991727215,-9.105137210874195,-4.86435915683005,-4.605755872999735,1.8626075178032035,-5.62231997615142,0.606576733313176,-3.63437332429652
51225,,-0.9492408662242352,1.1411427309537436,-7.820351813565358,4.694451492785902,-0.572231999637929,-4.608872292505319,-4.885249625745533,-5.525565286018592,-3.072971021841981,-3.646670129647625,2.697787790019295,-5.913224175213817,-2.6023650989501705,-1.2098674975742845
51475,,-1.5760919179123924,2.811498073496913,-9.003296054933477,5.183372127810949,0.4691709348130541,-5.398793409545148,-4.22675808136038,-8.085835667868237,-0.4556600520419442,-4.499497130246405,2.824657379206036,-5.374646892068567,-0.2259138829937594,0.1146245143841395
51724,,-0.9966770140072814,0.5572080559356731,-10.19702195470861,3.8476917354514657,0.7689334868057296,-5.176694811832108,-7.0171784050762,-11.086074759508351,-2.650269451063897,-4.541811700015563,-2.021477130151702,-5.740487448122682,1.729172924551157,-0.3172222701763783
51974,,-0.1833970328993924,-0.2335500774543408,-10.718905225440349,-0.3009305072009264,1.2268944032910458,-4.422838649792004,-6.726784208312292,-6.58197823215573,-5.308603963763463,-2.973463422919245,-4.6856360727095625,-6.983687688235758,0.6472211232929264,1.0745048812757925
52224,,0.9438274648148294,-0.1985351634297936,-8.929558615917724,-0.188605420875622,1.0350756344676924,-4.962433144407692,-6.758355547832594,-5.550109527010089,-7.198549221263358,-2.790060744024501,-4.897009613889212,-9.87293792083275,-4.056354400982805,-0.5406024230915678
52474,,0.192701206775931,-1.0977363206849946,-5.700004864933206,-0.0694214832234677,-1.1049726124682593,-4.385122096270124,-7.246489180130958,-7.657498213456223,-4.87060850877706,-1.8102899048258705,-2.169771357676149,-8.696639795208517,-4.785023951241667,-1.2399197795163934
52724,,-2.380833858950407,0.9447595321608128,-6.697077602771725,-0.1659788720244224,1.935322692093848,-3.5424626366160474,-2.3947160053670618,-7.454462624249336,-8.38380920879944,-1.96015138759784,1.0704092864812067,-7.10050066779341,-3.8365272991052985,1.610269244175976
52974,,-3.195987421586757,1.0325107584430355,-6.28596377837935,0.4079071326990765,2.532967041998384,-4.496463111208387,-2.28484238102499,-5.021681930656047,-7.632816941789326,-1.9523574134996124,-0.9994906475544836,-5.568462709605761,-0.3276522698007649,0.9651110923743644
53224,,-3.982220556253439,0.1262256146682491,-6.352740617967811,1.4108288326706284,2.2783094992632287,-2.450179839303586,-1.162800929727068,-4.370796642039149,-2.597545397627048,-1.9830967577626288,2.6214953791102684,-5.616022370718432,2.392187092432496,0.8030403944064234
53474,,-2.3655652140674426,-4.338827150364583,-4.044779215786348,4.887467322078065,0.276907020675699,-3.583582631973905,-3.594478625688171,-5.282819191947036,-1.7890954557278005,-1.9993593535099463,4.422895999087858,-4.476614487988829,-0.2031051146566834,0.6729445282658654
53723,,-1.295387615995661,-3.054557136436479,-5.647174950205791,4.519327198611132,0.2806342043438218,-3.109310093291941,-7.762241287848315,-7.393677108021009,-5.402722049823199,-1.8208982770041957,3.2997915285657493,-5.292107038166227,-1.8745017513479036,-0.531886592073773
53973,,-2.1184312538570023,-3.623325931678517,-8.864721872589081,2.2104931209225485,0.3364737701600429,-4.305007602053924,-8.258360088288052,-5.984632197023694,-6.474748361083799,-1.1245445861895786,2.17212123625089,-5.0230948133455655,-0.5759893652663559,-3.392918941972602
54223,,-0.4264663399927582,0.3004558483290852,-8.429726852353305,-1.3261659066725182,-2.0619420308892544,-7.028445314365259,-5.557587002656268,-3.5730501895535944,-3.2703803113576857,-5.151843656126045,2.740078740305933,-4.962324386020133,0.0014918620171447,0.9932525083904552
54473,,-2.3503793980109293,-1.0571162838705217,-8.641512823712299,-0.1902130097130238,-0.0253262357130826,-3.1897335362020773,-4.452846819116234,-4.890054093180024,-2.056450339594189,-3.7389839722023055,1.8760041174273845,-4.804916205165918,-1.6118337453407765,1.7210076349344543
54723,,-2.160212721775113,-3.2654501493553925,-9.394140726329876,3.3075090793762763,0.6093285351785056,-3.6331167933021415,-4.073812266401132,-6.90680399737704,-7.011927681738312,-2.3946788733295783,4.9894237669792405,-9.5057438820795,-3.519432639902732,-1.6428378864878588
54973,,-2.7903667407077943,-0.8446205004445572,-6.36948518075773,2.3411622207551326,-1.0690421576228666,-3.993120030134448,-5.550863282601791,-7.583746428411063,-7.970273739835178,-2.0713903033473877,0.3695355552288506,-10.177860204168248,0.032521989756645,-1.0720733672613354
55223,,-1.8770732631846527,2.015956905610094,-5.026923972039096,1.6982385886634523,-1.915137293553697,-2.723968078831192,-5.367439091342801,-12.117027765526752,-5.459282313314546,-0.7673838505791485,-1.7216293595923609,-8.392963888465239,4.702487272987834,-2.255651748880608
55473,,-1.9304355260300727,-0.1179454733846529,-7.026660822636568,-1.7804703602659122,0.7465085638300983,-5.5648351405059575,-6.039517658625126,-9.71390216499412,-4.453001745843244,-2.114630301941447,2.3318925325443427,-9.259367670532717,2.6980905568376783,-3.884736609852
55722,,-4.764604459634043,-3.2700941489583024,-8.102505421318236,0.2508732494358895,2.0584554122789123,-5.955294166179993,-6.557124024216039,-8.053260328154114,-4.378493070450609,-5.781488784332888,3.6394730642344806,-7.147547288192823,0.0054801230754851,-3.9179484639096462
55972,,-5.380141308328467,-2.3842084282294698,-12.284616798915463,3.4914864109222536,-1.0030319826030512,-4.113477037644587,-2.4214792656507416,-8.390349470845424,-3.381599934005421,-2.7376706630046126,0.661139185666564,-7.099974473979661,0.254815366541941,-5.878410842067535
56222,,-3.92900402652134,-2.155125645690603,-10.05652522426718,2.4319098425024417,-0.1879207744605038,-1.5731613530405673,-1.3269231727920696,-9.301343280597658,-4.785588326671786,-4.139983577852606,2.045733862907987,-8.141564668006463,-1.388808741530886,-6.66309999835113
56472,,-3.75089310352342,-2.1996647594930336,-7.578201372587074,3.679724346617311,1.565923855843487,-3.1840995071571783,-3.533413959676741,-9.930648930514302,-6.66463143646348,-2.8985644804986963,3.774128396859586,-8.047826762618065,-3.0913832638963,-4.61204576987819
56722,,-2.523141278654552,0.9915631035113792,-9.720604959067614,5.336228342955733,-0.2983683834200332,-3.7073083596184246,-5.147228762556951,-8.348754845589067,-2.507417201277951,0.4069296482119371,2.2668929933267767,-6.459189724203814,-2.7546596409740927,-0.1695999484458782
56972,,0.0423642695097065,4.027273530977331,-8.119131861867439,2.6201477992836235,0.446955741375148,-3.409232017948724,-6.194413594710774,-5.817891370347409,-1.987574132994938,-0.681198727238794,-1.362969381889115,-3.725424956834138,0.4509570909676785,2.5079763428748403
57222,,-0.1622246213183483,3.597884794583826,-5.867670880853896,3.032462775473265,-1.1390027012507582,-7.076451318480772,-8.013626123689168,-6.527747214073738,-5.0099979211891945,-1.385662358787153,0.793577671647794,-4.5471079982921,1.7465583607385202,0.1764672982534077
57472,,0.0705465876444813,0.1518687532022264,-6.463406316017661,2.083344874109023,-3.628089363640758,-7.550009964184636,-5.085233891496897,-6.592585041781334,-2.699420781019128,-3.515103800574205,3.1675957708928597,-7.668679713372578,-2.6823696569080235,0.4872481152721439
57721,,-0.3862016791137121,3.022320837866142,-6.026452371740163,-0.2224545864133324,0.1501567529942314,-7.92093711683937,-7.1908748980949,-7.465797921925773,-2.9679196129774947,-3.077134902165277,2.6978369806511755,-6.515718756741683,-6.241729079796245,0.903597967946962
57971,,-3.4573523818355225,-0.6730968431817608,-6.665300846658119,3.4755170917566085,1.4087518553537874,-7.625525779860778,-4.113222192568276,-4.791362773263415,-1.7240994200911253,-0.8306283933453941,-0.3785723498545811,-4.339902041769324,-1.4338240647877585,0.1721821724062077
58221,,-0.4798745345858963,-1.5449429611148668,-5.482668823548477,1.6672835982423162,-1.3176801543855756,-6.457605026146789,-3.150767558876026,-4.694095136272882,-4.524490409143887,-1.8188800881764864,-2.070906459301168,-3.959951813530073,-0.450774161020242,0.356677013892736
58471,,-0.4298285138484629,-3.937262621143658,-1.8689943830665767,0.4874505619847105,-2.484348306703378,-6.051418055577535,-6.933537987859531,-4.922317207701022,-5.757169933303246,-2.397381870101491,0.8195463670074294,-4.019657909404512,-0.2772731055844173,-0.942132589390972
58721,,-4.763475290200715,-0.6224502042398062,-2.815579297933249,4.360184020148779,-0.8111737719444736,-6.164413510116997,-6.318226500987195,-4.984081416997558,-5.4885283021028375,-2.892419128538971,2.90541283910102,-6.744200966006381,0.4695031942281692,1.6365922558909218
58971,,-1.8330605395292692,2.594299434782544,-6.510348070183268,5.263837593944918,-1.4184096613939317,-6.519073516633325,-5.679420767204313,-8.241509140325062,-4.587778572814194,-2.2039505260233865,3.1775463765414576,-7.531108466506909,1.1487162157293065,0.760971808307707
59221,,-2.5564890992614675,3.4874297371383656,-5.484209767148278,3.832332414406736,-2.112579680549941,-10.380093976992452,-7.447361968874694,-6.278843362407407,-5.00784756510245,-2.2840120627566933,2.531392043548715,-4.793433647702553,-2.6780796943829954,0.6712004028621309
59471,,-1.9560379481140804,2.7565572204964486,-6.129503614773766,4.266135883523783,-0.1175323932875432,-6.375299794862195,-6.112148404844488,-4.234764777285164,-7.539675454999728,-4.61423308278756,3.613969778720758,-4.460479408301947,0.57893894415809,1.4736650227531114
59720,,-1.95401473436188,-2.1605995658259847,-6.374110663149945,3.012216433831733,-0.250501364087092,-5.375094857591973,-5.416710114788703,-5.776695948859414,-5.542871033463412,-3.171643113003049,0.8588637844823523,-5.969884070151509,0.9664528232911772,1.2785740959794387
59970,,-1.4912043926645966,-4.12688521257423,-4.34447612393207,5.196590716048043,-1.5216651310139897,-7.623132200881717,-4.805772279964594,-5.239336796598178,-3.766423294314105,-1.3926366373693355,3.0025459348614225,-4.2286988195411706,1.0069024434771336,0.6828250155665103
60220,,-1.635442625719385,0.1943216078559272,-1.890229027612798,5.783689391603263,-0.0878943200513804,-5.5334341674474405,-4.00844868569299,-7.170758923369254,-3.4728251993278136,-0.3702858817655669,4.125752282980982,-4.237583955289997,1.1172381988217444,2.999420872662639
60470,,-1.887212653978128,0.9583835733910424,-2.780992598792536,6.843865516307903,0.2460981506710485,-4.527820109340247,-5.7016284153072885,-6.000747514646582,-3.669210839637931,-0.2258224616342017,0.3966722684567243,-3.478972303913931,1.0176601132315928,2.55907033965931
60720,,-2.694092256639613,0.9704320536991912,-8.022416872407963,3.927987756138256,-0.8496656764159807,-5.991069134675967,-6.942780421311773,-6.4638137783231375,-4.585773332375755,-2.2532964405228557,-1.9051288059225449,-8.322208883954897,1.2986903682110214,0.3224518609387738
60970,,-2.9540941374007024,2.320712577081532,-6.857864647205134,4.782048373398697,-0.0400608021074293,-2.4174326090791736,-8.499975356359327,-7.781717492443145,-2.774108439591644,-6.314044666161555,-1.1155896355390675,-9.680460564566149,-0.4657939645680881,-4.289922576772892
61220,,-4.570723433090544,-0.8853738449263092,-5.345934578546945,6.521297975805905,0.1875794668026595,-1.6328782951610246,-7.238758476046362,-14.159489229584,-5.29976547401462,-7.613914373921996,-0.8360786077813359,-9.473606003902164,-0.452177242813181,-3.76115676294436
61470,,-3.813892532767232,0.416031061050304,-5.762184814805376,7.026782196438206,0.5089695876451368,-3.309482743451549,-3.803039735573628,-11.398740644506251,-7.431249344393391,-4.259953472973482,2.5923393649274096,-9.595138485396244,-2.015409885864755,-2.438190720973944
61719,,-6.229089804449539,-2.05468937718601,-3.7811763399920673,5.974870837861637,1.946207047071697,-5.257357451829925,-4.411433583800476,-9.839851036155771,-7.005819315616816,-4.532290756315959,2.7635050352567743,-5.769644147097612,-2.097771121384871,3.739493564699039
61969,,-6.65874641578657,-2.323731367977451,-7.959342796564217,5.422056816968581,1.888077531392736,-2.709743870562647,-4.055466542313947,-9.09130939407159,-8.182532197580777,-4.117949532011622,5.404624546000829,-8.444542968342963,-5.290763663393131,1.592326304306564
62219,,-2.982437514457843,0.4603066181909526,-9.504169323505549,5.420221376022067,3.7330440336176154,-3.292854801333569,-5.489830313417501,-2.832222440647145,-5.475375241033598,-2.303117520543159,6.420478434274757,-10.025486834127904,-2.7538359604009037,2.0292622109730933
62469,,-1.802701984840308,2.5114860424633125,-6.691964124625511,2.5167443379249868,3.342711462604184,-4.74865678088871,-5.562647803817868,-2.8408217416855552,-5.355312310413773,-1.3742867203193363,4.496671084446598,-5.942440505636901,0.3704387377519962,3.795635544729032
62719,,-3.6015439892667143,2.684867438349216,-7.656374864476103,3.034241735684309,-0.7034373723865712,-5.748489209773034,-1.6667028560286277,-7.404846000559858,-6.514739889008516,-2.326834047249771,0.94587020846848,-4.477428192536991,-0.0704927299076571,3.394374578438549
62969,,-1.3138689852314926,0.0728401198606555,-10.047949756317063,3.392359980372447,-0.8933524266772055,-3.528631004278693,-2.7853254481122387,-7.671532982495124,-4.823507012996218,-1.2825043861755687,-2.2718545308849016,-3.149959106043632,-0.7614864748354782,2.7272983109431586
63219,,0.4163312475535609,-1.4166637394481587,-11.535901824444483,2.087654015519974,0.5583594248287692,-1.5622466632901282,-6.76061752061284,-8.558542307299206,-4.860751963531574,-1.525091239064379,-0.1353617960875041,-5.116152045340878,-1.1122042512029386,0.5552616534161143
63469,,0.2807101924319091,0.7205427808095031,-9.922449092089058,2.217555369621205,0.1896278282180081,-3.564223993467168,-7.6342252516347475,-6.685593347144067,-6.776350704043093,-2.645546484468026,3.887878644753957,-8.57250203090332,1.4450888505716732,0.1199399456246599
63718,,-1.0996971168961007,0.9742378961242814,-6.17588125217314,3.1715934005329856,-2.463278835894899,-5.536362521279332,-8.26432586042672,-4.767266250862242,-8.970358758743464,-3.078338613715619,6.15603345640679,-4.522749121235686,-0.1275418456017383,2.214603929501126
63968,,-2.413660849709917,-1.3579364719779758,-4.199018273433152,2.445012245629474,-2.3123767278895184,-6.534311845302007,-6.369895234991416,-4.157695143489618,-3.123221180507461,-2.248450147257328,3.952906991050284,-4.19810306350627,-1.44209336438816,2.171798935242481
64218,,0.1712342680141693,-0.8101207096319691,-6.099270236800977,1.4197817870202567,-2.066977416852562,-2.564585878345912,-4.492903002519896,-3.619528074463274,-2.339985498328414,0.952339967146894,1.1312422472788848,-3.723677865401164,-2.648816345333133,2.7092494753389937
64468,,0.5550592735207401,-1.461574189671092,-5.2856253872128365,1.9199054075730413,-3.84618494050992,-3.45062513103021,-5.629387462928469,-6.1299724542622025,-2.708400456712216,-0.4641490601481345,0.227920249734849,-3.5326940428965226,-0.8663828645780081,3.4751018032925005
64718,,-1.4716167227170378,0.5686546312130167,-6.278009019926413,1.6003205754934724,-2.0100852489561936,-7.417139660437474,-6.221593229343698,-6.944667444031989,-4.648152532539664,-2.442894770576188,0.6803142109348308,-5.305514425618893,-0.6168359649020811,2.897477235892992
64968,,-3.461255658225792,-0.2237396561032466,-9.669921630587888,0.9891407405364864,1.346495422682059,-4.619280330735917,-8.075875726098836,-5.067834866343105,-5.174884498720324,-2.873646907978378,-3.124568604571349,-5.0850270905805335,-1.1418590082286582,-0.4604106454512385
65218,,-2.019818105738888,-2.670037046684583,-6.739577372771071,0.4334428682876437,1.2036178192240397,-3.121374865431698,-9.814739114795543,-6.085440013052295,-7.196267181560288,-3.518813310190117,4.336215678303396,-4.538969985894662,-0.0052097746832165,1.1862069106270934
65468,,-1.5930460014196048,0.1758319641735029,-5.749374600727666,-0.418858036244553,2.297367033621724,-4.865950247145417,-8.468488549965867,-9.016243647255424,-9.254771150262616,-0.9351599804219668,6.409586375521535,-5.150934590346771,-1.0058931363755568,1.326181603305515
65717,,-5.76544998515336,2.709585901035312,-3.650995627228688,-0.3392528419434308,1.0248837961542117,-5.223561973013679,-6.860786610326367,-5.680723981149991,-7.101846487255274,-1.2554602248828477,3.803871254416878,-5.421828813025089,-0.8822164378542781,-0.082875596833849
65967,,-5.527912141852765,-0.6370552863320831,-3.257127342700208,3.3456597686219647,-0.8934441421219291,-6.082271707607555,-9.842759766731213,-6.195712402466987,-5.884594844015565,-0.4704003232005427,0.5068333507076543,-5.452379070572637,-1.440187727551972,0.330118704132995
66217,,-3.635652109905656,-2.6432559739547514,-3.753064391310649,3.405726162820004,-3.428431710144454,-5.25655557576426,-8.131488309572307,-4.672292645807339,-9.39949810182483,-1.2990093787211814,1.7788874086134792,-5.977355536670455,-1.3682137730503516,1.6773759238095634
66467,,-2.184791306437771,-3.4054912903754357,-6.385818911952221,3.5263211896568194,-0.6039987283161278,-4.110936100879797,-6.84302955872182,-6.334910848824402,-8.65309907327864,-0.3222408663866261,1.738562091575909,-4.311004682320255,-0.2517523424465742,0.495959427708278
66717,,-3.228023239548953,-4.541690642385638,-5.266586886306071,5.627241584623142,-0.4465803491704368,-6.038078250116054,-8.152630249632322,-8.687878351287013,-7.536386289184116,1.3221182623545569,0.5220932303813453,-6.3502490708839385,0.1139471748707266,-0.747729133126904
66967,,-0.520308779844378,-3.2619635876793778,-5.5210989414475895,3.253211079854773,-0.4302407697750346,-6.217561760383356,-8.560362649488468,-8.299324960080943,-7.937163801507753,-0.6696511417229783,2.225263692430841,-7.333211131069469,-1.8486285796560764,0.8158420697458547
67217,,0.024955602117862,-1.970462665757051,-7.598062589133249,1.1803609727051811,-0.8670738371361263,-3.5774707631759464,-8.059028320188183,-7.292766872859369,-4.2699056177014265,-4.7328968413751,2.6977923894504467,-4.656203024398976,1.8463468413392736,3.531905486631102
67467,,0.9841378561690368,-0.8731445258598141,-8.921039104471266,2.3865501697935625,-1.098789538419326,-2.5598525285544884,-6.80822010745916,-7.574782049049671,-3.0888745088983245,0.2953828783089066,2.898742798997501,-4.348065381453887,3.011069455007766,3.049115856198501
67716,,0.13703228310176,-0.602801454106241,-10.010070158188425,3.6983160565342015,1.3694910301557808,-2.4296106332608627,-6.143323122507703,-6.071899948662401,-2.1476148252587146,1.197968166776472,3.7099112892304738,-6.8445428097609256,2.6854687080931807,1.3212045703659716
67966,,-4.499573489131027,-1.2095726755535727,-7.883106589941065,1.0950485590631915,-0.8489244489960402,-2.2644338198259897,-4.39504408492739,-6.566565960808839,-2.546616467410612,-1.1013255748336863,3.0826925631387416,-5.223383602413208,3.453772468648177,2.101661578958108
68216,,-4.687808737376096,-0.8779340175083958,-7.229509970043728,0.8043599435291638,0.2307204445952835,-2.2000910577995394,-4.967148405020323,-5.487827583310359,-6.717081465335662,-2.586746352434874,1.85945222719516,-7.700032121908521,4.021463811177885,1.351123439296774
68466,,-4.485685604045702,-1.3957526973211123,-9.888688846603513,2.848936152831969,0.6493346083193691,-3.686228474531603,-5.224068390580259,-7.316494355572944,-9.25917423671312,-3.088380101006185,3.4615879205123723,-8.960862306243614,3.092809467672593,1.731574692208728
68716,,-9.176765343776289,1.1266546818025611,-8.675802082569751,1.867398633618488,0.5116357627006591,-5.742854306827915,-6.446061875696839,-8.053414446102506,-6.462000141770632,-3.071661263828904,0.9135239273342238,-8.045394293040054,2.4184029835369074,1.1617835014882494
68966,,-5.591966732944829,2.5078703824204,-8.645295106064259,-3.243116826850313,2.3579806071412457,-5.420918582219,-4.209485666438917,-6.841718461856341,-5.383208226277595,-0.4051105864078396,0.0199708697588993,-5.5866172026538425,-0.1832759259846132,-1.756815195130928
69216,,-3.233652049126224,2.4164813911183614,-7.391834312509316,0.281691701325736,-1.0820030799332123,-4.772979494482832,-5.225532937216739,-4.077325504419692,-2.3356633502424717,-0.6397179574347661,0.2742114359895579,-4.831170333045908,-2.05511437897023,-2.387143185966554
69466,,-2.9922044711463727,1.8698581062363595,-6.6368865397918855,2.4294447986216747,-2.302608411148941,-2.1817301850362747,-6.021089015281937,-5.970869740924676,-1.2164832412604056,-2.919829362341847,2.7799165282599136,-6.034603038793626,1.0116030904706843,-0.8140930324315796
69715,,-3.827307786279397,-1.9681555031846167,-7.478804276754022,2.544517290358491,1.8560895749940505,-2.5658675414677474,-4.341186245453912,-7.72193701248333,-2.3709064358976555,-5.724166722839128,3.2977266042802578,-5.40003236347536,3.0667676063262226,-1.1703232224899516
69965,,-4.391426228492814,-1.5735737766356392,-8.744777633518119,2.625031818173376,0.685529588133188,-4.3071337917373125,-4.521291285648313,-2.2216232105932123,-8.364272209313405,-4.512663651508469,1.2314660355646827,-4.995008669746584,1.757610279507166,-4.047939051058642
70215,,-0.7952380550768939,-0.1958493914409519,-5.334356410888994,1.831498102929121,-1.1691401139278097,-2.0148822656004177,-7.856063202598938,-2.376214538509061,-4.723749213949268,-4.161456024898772,3.812254661012155,-7.721457763221489,-0.0814175552273989,-3.514180916058658
70465,,0.0435302561576464,-1.048858273850049,-6.821727751405884,3.3281443417414307,-0.2029959132545674,-1.6612859779060432,-8.622073494194623,-6.860965995817766,-4.01309615321276,-0.0453574275777021,2.6293919769539857,-6.785596347344882,-0.0752350411694749,-4.269234545197067
70715,,-0.3942116696165301,-0.0625130128627326,-11.14893260176818,5.152714206723409,-1.508214356515164,-3.4960045267529125,-6.505668926980327,-6.101840471622378,-4.814939265063539,0.3760937129037442,3.9321030749635,-3.209193546024198,0.7626526460574784,-3.5145920553084835
70965,,-2.004108225702613,2.843061951653908,-10.630664889626152,2.2275957787471152,-0.1740316360364004,-3.2664063701928248,-2.2522758584395177,-3.991894960394236,-4.708691419999703,0.1657329786694003,1.186123337270954,-6.446551026309509,2.3301957663465043,-0.9418071638893738
71215,,-4.920582168211479,2.7709060597152084,-8.959125566957455,4.574354417163143,3.7196518382529007,-2.9973710242051594,-0.5660409590400626,-2.734510045571513,-2.4128009660928864,-0.108103469079366,3.195053337843815,-4.937627623035057,0.4251074154202336,2.649129674648311
71465,,-5.219332697818647,4.9865973228301215,-6.296584328621452,7.387994146825578,2.5876095104226904,-2.8075278323382524,-1.6194728886161471,-1.2806281233562156,-0.6663980183206679,-2.0303459020090333,3.58559734104378,-3.3297355222136438,-0.7940057448453375,4.545412756260962
71714,,-7.227204573798894,4.343736511601383,-3.549785857410001,10.864804452309238,1.280960043557168,-4.961158472166606,-4.356544680534417,-2.436039205263022,-2.3438672299872256,-3.492675714738151,4.872472354714736,-2.857041509180293,0.7488549266658013,-0.0715439971036924
71964,,-6.308417177807901,-0.9956853439359488,-5.138101546295948,8.45031836936422,1.4670019931060885,-4.548609601755306,-5.333204954814742,-8.451740439096792,-3.871009854519421,-2.442811533540878,6.521298107774609,-3.643180032924527,1.5073967095248824,-2.8107712211712927
72214,,-2.2001810625522698,-1.327649829227152,-9.353042506181144,4.447024912830887,0.5565475050770715,-3.126119878170722,-6.663223414392587,-12.848511082407155,-4.509503603833473,-2.288484705894376,4.818103076335878,-10.833104122867208,0.7673577524769504,-2.3667817488417
72464,,-3.0392190336449163,-0.1770053441759425,-9.96218385032174,2.5860014526934694,0.1538119168714271,-4.480417077753194,-7.514666207569637,-11.89578379069106,-5.049661321198615,-0.138836378853101,4.738077116374634,-9.087378305781586,-0.7332530104753582,0.9545421835895952
72714,,-4.092986017402918,-1.3284333586132593,-8.901454167703998,2.2327047314984685,-1.5227300310460494,-7.857932910432227,-3.6445180507929424,-11.02398875701774,-3.2898829128455027,-0.3810417765479596,1.4583848248796212,-5.433778184964352,-3.712702687689289,0.550179706290167
72964,,-4.793363864649426,0.723606562000748,-4.855273535581478,1.0865187134147212,-0.949667872605684,-7.913523404009797,-3.8882386358122463,-10.531943467497396,-3.859991840399881,-2.5530349874535405,0.1565978456357285,-2.9960426107444964,0.3415837607789552,1.0625746277767227
73214,,-2.638558347209074,-0.8085759135984734,-3.079422008202134,0.5582441624279385,-1.5326436869114666,-3.679285407344501,-6.941120735651667,-8.127385265927288,-6.925724199508075,-0.5123502924786567,-1.1133535408736048,-3.4337680417169203,0.0641933942221381,-2.7521291646173607
73464,,-3.7820153151675058,-0.5192403034864487,-4.989563433787488,-1.9702913051925923,-2.436945432547013,-1.852302869921492,-4.827705005335508,-4.52347302179387,-2.744855946548671,-4.081328584593688,-1.767690866960952,-6.540363625919111,-4.418588353609421,-6.88814513251761
73713,,-0.2149328548609923,-0.6819817845709908,-5.183647889807668,-0.1641461091361465,0.4545134855244969,-3.260456719434586,-6.250911864062455,-6.507089255916929,-2.560207467309872,-5.008983827243078,-2.31741640188662,-8.06093608166716,-3.3246294721762504,-0.6609795165084096
73963,,0.6954576106730127,-0.7138440770729315,-6.550864722160551,2.275009424203684,-0.7933971885055008,-4.647730374186729,-3.249419701413784,-8.619475843668052,-6.113668364725251,-2.2664575402562823,-2.811682479583596,-7.615072359876718,-4.048571119310143,2.146280946945775
74213,,-1.540858257748559,0.0034212490848369,-8.429771425066527,7.68940099262543,-2.27462816875552,-5.6229366039644,-1.4675595432848698,-8.280998501395088,-7.216116463211174,-3.337734662233664,-1.1082885145105157,-7.743155722337727,-4.064330779843742,2.995771990083933
74463,,-3.422763146092349,4.881182438792137,-7.564215605724499,10.129046330169638,-4.15468873399514,-1.951000732811912,-3.3794475110636943,-6.095320793411911,-6.227391381688125,-3.8736880666933753,-1.601846225398741,-8.041984547931424,-0.8672054702887823,6.241614531857527
74713,,-2.246276758412725,3.4278389930228865,-6.667133610515895,8.899544072188188,-5.643011355319274,-2.778302146927633,-3.1488506893723818,-6.7658785906618135,-5.154642363759737,-0.8902609870111502,1.2540274512291705,-7.749819002904626,1.6496770877948976,4.3300772128848095
74963,,-0.7492983197848341,-0.5190463694161562,-5.8616550423919325,5.347046621123264,-2.9658906588274365,-5.320588455659837,-4.635485856131634,-6.82990422567298,-1.6919133259008392,0.414577542152907,3.164069727949336,-7.936073740769891,3.4022338795833287,-0.3624052730781713
75213,,-1.9422192012099424,-0.4230717745819903,-9.365485943049285,3.781407759094134,-1.119670520132572,-3.9210252838026594,-4.069648016427745,-6.931851518126755,-1.2976000275118085,-1.6117597418830472,2.2730386543169048,-6.3447609002147,4.3460751341169885,-0.1975459067330246
75463,,-0.6483782702617978,0.3763199286557922,-8.294495824780755,2.8653665371389927,0.4598289554226992,-5.013364406899528,-4.189254422244224,-6.136464072358091,-2.669331850577125,-2.166292342448401,2.6089893693870536,-8.869939380518245,-0.634775495729301,-0.6518394568276735
75713,,-0.8779234281263354,2.15308321522447,-7.131864996939779,3.081454526273969,0.0761276092158576,-2.964119693742104,-5.313370697487601,-4.055459928324078,-3.558101560943596,-3.744708495193464,3.200103303863708,-7.263680207974556,-4.591576736549717,1.0238014835704865
75962,,-4.661003261607583,-1.534531798753087,-7.396642324876348,3.664753382113002,-1.244693961448448,-3.887737066488144,-7.805247527249385,-1.3360341764281178,-4.407893511451796,-0.8882304859740151,5.697087534651911,-5.870696287500491,0.1973328873264591,2.610964832082765
76212,,-3.2024148013338567,1.0890030986448966,-6.941662020753958,4.570302232195648,0.9757833607799562,-2.003220699286488,-6.988077983785138,-3.5615108337968064,-6.353352941181186,-2.0246024291119795,5.517022537432799,-6.190702295174488,1.151806662425986,-2.285351283485749
76462,,-4.153896682403322,1.4693206268189285,-6.551903005387602,6.530817828165583,2.4567348684903667,-1.8200587747508084,-4.1921207248393415,-5.651645564711907,-3.7458275749055927,-0.6764125422412005,1.1287368037964225,-6.735113240326873,-0.2622667943630106,-2.579323384216443
76712,,-1.880429424525688,1.2321067143394084,-5.105665998038029,3.388502457697132,0.5970122641869229,-1.905723778731192,-3.461565072857593,-4.8953411634435415,-3.174870079804317,-3.3506042373101814,2.04554907215997,-5.130224029881308,-2.474324365610715,-3.62334112784556
76962,,-3.627620478116388,3.5710333039416167,-6.7425371185551,2.984884637670164,0.5273957750710538,-3.1863689495371075,-7.102117616271811,-4.561708246066699,-1.6240897340887517,-5.401371520040219,3.324106321259805,-4.850446662363794,1.076497106762571,2.6226392792555253
77212,,-4.629784187172403,3.1564626310176,-5.237462882460263,5.353183797697385,0.4615771322064614,-3.4938059096384766,-4.522561789454244,-4.010301143520911,-1.7082182857088035,-3.050201504358573,2.4169462171489298,-2.925489530344888,3.9764491493525393,3.3278179420956526
77462,,-2.6902073492282703,-2.256571647164217,-7.018728050824523,2.5348704356762584,-0.1848898320789147,-3.685649561934987,-3.416904671767851,-6.822908708670239,-4.7816604430835525,-1.950583804437815,1.0764579999760258,-3.6631344751906423,3.303891169614034,3.426695864106011
77712,,-1.7291167056776515,-2.809207826774914,-10.388719574923876,0.8770032025208558,-2.16521691652727,-4.96161942886585,-6.310919278535661,-7.645154573575236,-3.033852622525357,-2.883078541548115,4.8664046396937,-5.0405089082363705,2.7803516451542154,4.740634355431782
77961,,-1.9144815764963568,-1.9296312098156485,-9.505299927838012,0.2224650887931832,-3.836135218025314,-6.285726081512582,-5.470656100615243,-6.547324006725567,-4.0018801307620375,0.9323661827919018,6.828944337969847,-4.615852979721215,0.4511694677236929,4.891489695439618
78211,,-1.9904013682275712,-3.142568969489865,-8.915445783338829,0.967406714161654,-1.8605231153763973,-5.380483204015802,-2.681778352005828,-7.825158883384413,-3.188447674066428,-2.2854488264375066,1.8309114258704728,-5.972637312935975,0.3975668736752311,1.9933331473526823
78461,,-4.356178058816976,0.6106971428323587,-8.140476604738978,2.569493748583398,-1.7472236259533125,-3.2837919404918186,-4.012156931387271,-6.264964386123873,-2.040457837467343,-3.757295121475268,-0.4895708029365284,-3.677189998602064,1.9108672332332897,2.0477540912250785
78711,,-0.9975232853334836,0.773989206151464,-8.802358064010585,1.312671387390777,-0.9207287600550595,-2.6525698553076005,-4.707930241351217,-5.104507106092253,-4.534805922361066,-0.9237648262313056,0.5240843732927201,-6.198319853654128,2.02421754650758,0.8429719631498969
78961,,-1.9732162423587447,-3.0712237813091554,-6.306241203988386,-0.0520801079999203,-2.507802554540301,-4.641798425362513,-5.464863078797483,-4.688885733718564,-4.828826219122911,-2.2377739528158576,0.1892228742871522,-9.150908162917496,0.7698856857126439,0.2899604813348734
79211,,-0.4911418192773449,-1.580746567050573,-7.694106269065833,-0.9014961055728152,-4.452128671559711,-2.603908493731396,-4.763925728025635,-4.7389379138702346,-3.9741412620757366,-3.5081496357848985,-2.8799266195268096,-8.006310325998125,-1.6766840037612032,-2.772109134161326
79461,,0.3310948390184158,0.9648440570450644,-8.044500083354706,0.8744763942145879,-4.626302895217116,-1.5159427596468116,-3.490625731396705,-3.5291355270787808,-4.1467778392491885,-4.487088894544791,-4.448783243949887,-5.946504305894993,-3.460695959626798,0.9035964393603428
79711,,-1.145120605706192,0.2919085757018481,-6.840043728777758,2.49414004221836,-2.843701978478353,-5.459068056381772,-4.064573889882102,-4.72842146191693,-4.075129120438867,-3.959965776442625,-2.400921632640491,-6.723415878538694,-0.4315982627613758,2.970372680093511
79960,,-2.6511312580241704,2.8156472581857868,-6.443057020944394,6.7173800772296826,0.5952570212789274,-7.577488122964262,-3.3610863796659545,-7.333380174719684,-5.905726702318837,-1.1605324146058302,0.315033416151547,-5.209478788374389,0.1727336045480626,3.087594118107828
80210,,-6.280665365415514,-0.0440540268375602,-6.552841479618062,5.512195754962295,-1.072453767884492,-4.380788226200959,0.1125088777313499,-9.20222944317199,-7.318465274891416,-0.7599201952048201,-1.734995602743331,-4.129808633089612,-0.4062988012873742,1.8042510478547995
80460,,-1.4491427999265925,0.5256271338986028,-5.258909755626085,1.2939200643937432,1.6109474137619737,-3.096988176905465,-3.2619235413668908,-10.435229942176305,-6.595297358686421,-1.034163061787868,-0.2617042192396513,-5.154312753892523,0.5701233937350167,0.6056373252046181
80710,,0.2345703957827862,0.8334770268174838,-6.604470373810397,1.6232061050809912,5.210752139700494,-2.3601144030208103,-7.651376741426085,-7.588967443895599,-5.27010653132312,-1.5457033374611893,2.335426705338428,-7.957202234244717,0.0587593590663727,-0.316481739936612
80960,,-1.2353561980945011,2.733215609872473,-7.543023696258265,-0.2910936890739872,1.6794482844208305,-2.4618532034948903,-6.979022996316706,-6.856065824134352,-3.879506413609671,-3.7558440459085785,2.299379232850362,-8.05231682845054,0.2311561213064753,-2.3117242470584745
81210,,-2.746703928287712,4.019096328099847,-7.458461964117768,1.1376257730659716,-1.2494875966473429,-1.86241838190854,-7.259658568784056,-5.341116420368771,-4.400636520660628,0.6038735354039597,-0.2557025987875373,-5.400456406194798,0.2494859631454851,0.9313173492238364
81460,,-5.054652447400237,0.0852135105718344,-8.324753535616088,3.294066554217924,-2.594692124236278,-3.2918500482897377,-6.197396091360466,-6.485204420100303,-1.997300407403056,-0.1064818710674995,-1.2128392351511366,-7.056568764099901,-0.5398438918140518,-0.5580698244675227
81710,,-6.156717489745188,1.2206648844048535,-8.005671039790414,6.208667141452363,-1.38314103772925,-5.443495036983331,-5.056868253582843,-7.1550738192348415,-2.5701300352335115,-1.130564150601517,-1.9854640509262227,-6.211309851420439,0.1846869591368162,-0.6716301499723412
81959,,-9.589830530627353,-0.5569973325073869,-9.331985942394018,5.453657613605374,-0.1477243919399043,-8.948789541249628,-4.889606120718407,-6.201398146285416,-5.414651700615193,-1.5552793086765666,-5.195016161407828,-3.994009993439132,0.5154526658397612,0.2744083947009628
82209,,-5.0678684477096105,-3.887004886154969,-5.996311851288071,3.135957467429967,-0.3913947590230909,-6.363928579609565,-5.707025824743552,-8.327392701315892,-8.797790906894814,-1.5328704042965449,0.9982543324753264,-6.128101151568421,-2.6972610396901384,-4.077429261469828
82459,,-3.624464269535779,-1.1170159433548197,-4.450587125463908,6.18852320400853,-1.5467284563397663,-5.176242404752497,-4.746828115427267,-10.46981800391245,-9.517782950446763,0.4431527317336419,4.198423401971503,-7.325018940017914,-0.2586669221412777,-1.411900339975548
82709,,-3.9239858631114615,3.0508201914623463,-8.002393615499555,5.9858054334458615,-5.558087862845023,-5.550619702052896,-5.122562610064305,-5.179040575499031,-7.032047885333879,-0.1829012476402632,3.30422121878639,-4.885723184294067,1.3165228832527676,-1.8919848413992455
82959,,-2.228245449194163,2.684126647621779,-4.75249862480595,3.4562358904306114,-0.8033977507982054,-4.223006780122216,-5.857368893818034,-4.287939715044665,-6.389778334610792,-1.0950279722421332,2.604128047452771,-2.148736773486096,-2.148779149239876,-3.879484544041557
83209,,-1.4567383970858172,3.4201773285552832,-4.153705049906699,2.466142710636378,1.323003421321484,-3.348738866741268,-6.837665621649023,-8.069896158953602,-5.580502493759809,-2.191986297963444,2.1018318473982447,-4.017254010842185,0.6254983149088816,-1.6023011862580727
83459,,-5.239005159863606,2.529656836065418,-9.461000901974035,4.727418148722007,-0.1269107174029095,-0.5322994072244599,-6.315669343675877,-6.294084705231111,-5.780542975988105,-1.466483206340933,1.6052525601158103,-8.153850616491784,0.7364677347890293,-1.0527857412069876
83709,,-8.437851563513469,1.1830397069980143,-4.597455870970375,5.199396054004835,-3.005574656945576,0.2600658212653465,-4.717499268830423,-4.81537139741312,-4.739789277073076,0.5670418426823236,-0.4167766157477494,-4.935584579449191,0.5282268630125139,2.635033059450536
83958,,-8.148265566310979,4.234951999672258,-4.645145215541872,-0.5551465793404239,-0.1810810403398215,-1.2310071442073474,-6.092290992085879,-5.401052005567437,-5.389626746389618,0.0724789964936318,0.5423575433563061,-6.607625177346144,1.861918522924896,3.345741365068478
84208,,-7.7073384474013,4.348343787294984,-7.602128197511897,-0.5840113143141508,-1.8106543994778068,-4.603871909453931,-5.860012230989838,-4.942633166412963,-2.657285003687127,-2.1063068258699125,0.1381153311376278,-6.126962913479792,0.9277466604642084,1.5502346035094408
84458,,-5.110395388740191,1.610112031122824,-10.2681732551363,-0.0436902914979171,-3.078351102457626,-4.424879959433824,-8.861694938124687,-4.762162314197474,-2.709051871749045,-4.510032262516452,1.9522103171279672,-5.548564825463042,3.2286288296988497,-3.001998557546912
84708,,-1.6768825062898642,-2.447239035499789,-7.113607846219884,2.747110834750562,-2.426009802518774,-4.630328072474849,-7.952621365427854,-6.659497110538343,-5.175513890979899,-3.452686913820002,-0.8317353500761132,-4.320191157559671,0.9586222287331636,-1.8827213669715703
84958,,-4.385213472543647,-0.3826544266068705,-5.2435716808412085,4.148642800617405,0.665794908316084,-3.494503017292028,-3.6310058620656696,-6.482459093355776,-4.620623987334258,-3.559539163307047,-3.159037587129884,-8.053196463107716,-1.013118803396598,1.923000610178763
85208,,-3.302885883355915,0.6321210894209471,-7.815654679753841,0.6418411062782354,0.0703776884386444,-2.7150702622877505,-5.994375094491784,-7.681538019161936,-1.8472105419328693,-3.176295435654599,0.0593171232753881,-8.377331969659698,0.8853898467504315,0.9499872288337816
85458,,-4.120261312221852,-0.0936586288982163,-5.898178769751347,2.2709049742687526,0.0769961566074327,-2.754920197693272,-9.079232187945191,-11.327059690718928,-5.409424492976758,-3.2783196714395086,2.010935130442709,-4.7149636967357225,-0.2393584830938507,-2.132000123595401
85708,D,-4.043354789787418,-0.3990401560545348,-4.355866587757592,2.4362118041726872,0.8373255860354,-4.227378113185552,-7.586740733940982,-10.302279595278485,-5.101165415313305,-3.0401309200103284,3.127432625641213,-3.743880318983223,-1.269781857243704,-0.0927511946040056
85957,,-3.929498402956465,-0.4762340961743909,-4.381287972754086,-1.1118260384418237,-0.3037236899509574,-4.567511880798789,-7.324839177520515,-10.023110723369658,-5.171552238182056,0.2892447537286208,4.852212349452114,-6.709418187505131,-0.808372569785281,-0.3656810756690435
86207,,-1.443360943135694,2.761974125332196,-5.769723543024217,5.249223102681233,-0.1499314685210856,-2.9505017548670143,-7.7397444988805555,-7.753351836744749,0.3329830826691149,0.1715590411304705,2.9152379505750114,-8.070165414696147,1.9925238217645287,5.5953469832748
86457,,-1.950229071150356,1.9293153476034468,-6.162499137145008,6.145911168837995,-1.1003346341803928,-5.432393145947407,-5.182310581564559,-8.824043019123119,-0.3606553786263375,-3.854661009479453,0.0676633670082847,-2.189456039103898,2.1082762860655,4.122417085026735
86707,,-2.73240423284052,0.4391639349644304,-4.482439387399923,7.23154984443121,-1.720618184857055,-8.20841009594353,-5.961747009404239,-6.041087163304089,-4.944343976251864,-1.7914708164954876,2.5131692440601454,-3.6271595880409615,1.5879751963728153,0.3158367412005148
86957,,-1.7317767550517735,2.428045159489804,-5.958773448361622,8.536104274300044,-1.1372565003947124,-7.4108945510175985,-7.935713970079047,-7.784555531257039,-6.403905254847311,-0.9392792986873268,3.403548740144689,-4.94902786622479,-0.7037126224296715,0.4403926077696584
87207,,-1.2413788086382205,0.7737204335816644,-5.237793989553499,5.8866054803482815,-1.9378220790448288,-4.103484241302437,-2.229182196742859,-9.581234949154169,-6.471851572600481,-0.985097662589574,2.361594243349084,-3.896217469283289,-0.8537430993013844,-0.4850547723506942
87457,,0.033450655260726,-1.776125071558778,-6.1627300221545696,3.085149305439485,-3.71726321127448,-2.637266638830641,-0.617888719312522,-7.920893053478405,-5.068443601597007,-0.2748955913429898,3.542495870775329,-5.076183144318687,2.211614616005279,-1.420374061182085
87707,,-0.6608291376860477,-2.9548615355737304,-9.153531095093925,3.546849592773614,-1.0385906874467938,-3.803204544769395,-3.0844260223987496,-5.792916146187648,-5.843049061964745,-1.9353889230415988,1.1610088788666937,-5.961799849512198,-0.8210784315313115,1.1445138616878132
87956,,-0.6733490268010373,-2.436709875825464,-3.4291714045991246,5.000587811486184,1.505307118590431,-6.389781083474581,-5.219688220118943,-9.1890327699084,-4.401000788693546,-4.410883825994244,1.3499133233033582,-7.043930446671043,-2.91363611479879,1.0945476327102237
88206,,-2.5308493940634853,-1.4216046297912632,-4.664335759055179,4.0274770370656645,3.83149191301172,-5.143117681004052,-8.72214178780162,-10.481845599811168,-3.9847696007147855,-4.565952589606781,1.6409920843496215,-10.29828010447086,-1.0739103537380632,1.5683609139501171
88456,,-3.961423924296368,-0.0560207226317798,-6.542729063577241,3.719110900948242,-0.2489027487908145,-3.300715861805872,-7.530411632893969,-8.41876919422321,-4.243353375851635,-2.7436921562959267,3.88165154107642,-7.132396963996975,3.257067553550779,1.7396219380103808
88706,,-0.5515517006900816,-0.2440751314054681,-5.709640257143289,2.223318742519625,-0.3576716538208455,-5.3454824197272455,-5.795336668488433,-8.413254464010286,-3.632995994851304,-2.619728171603928,3.9891079946251127,-5.508995479106188,1.4840987907245222,2.6414690757104067
88956,,-1.1672444325702456,-1.6116502368370171,-3.6507251399660703,1.6818441262160038,2.466372269638593,-4.390554033431907,-4.804221524948169,-7.222118728434227,-3.965670784511628,-2.8011415806329683,0.6746182932731353,-7.610060997224775,0.4402730759664497,0.4105805238372285
89206,,-1.366158518174515,-0.6028794530699432,-4.7362850207298095,1.7629634632025748,1.1917279957563698,-3.6394335519479046,-3.771312468673332,-6.7735703090971775,-3.333118818020784,-3.1123653996147898,-0.660888046737409,-9.365688504980303,-2.2200165760746047,1.8810875110135428
89456,,-2.167012215723478,-0.3269295781450199,-7.012358398432108,1.8653819115905508,-0.952848627460202,-3.606750117023551,-6.066374063220229,-8.626832203138404,-4.063356356257557,-1.9119746898181544,-0.6199057454767778,-8.21972413488002,-1.78250548662365,1.9633232478783265
89706,,0.3426825619273613,0.2191392784510871,-7.360863189146695,3.018186326889281,-0.8475420142019879,-3.5544956151125047,-7.948805346764677,-8.579027079631086,-0.4903439382613264,-3.320049474893864,-1.299181732251407,-5.397574635997283,-0.5466058948989645,1.4886705560922533
89955,,2.3203796789953945,0.3837377416164653,-7.747720325680536,5.723936571648895,-0.9079194150340176,-4.611925139534022,-3.949583954217908,-6.5371656623999685,-0.8388600823748231,-1.6849019910954346,2.7965592055806505,-7.718219571907866,-0.1291472395712765,3.049238513065458
90205,,-0.1414385167987714,-0.3900823785640553,-5.3376739260434185,7.668153440946247,1.0027156767511864,-8.130033422766864,-3.231918583179964,-7.361448536733208,-7.1393809429975,-1.5227876388487194,4.272567834340276,-6.651520009813561,-0.3686068232462102,2.395403919442812
90455,,1.2079571458696934,1.1617279099979747,-2.943161978537065,9.420428877708376,1.268004595657604,-6.281308982068783,-2.846506597211176,-7.264048214512769,-5.129478023961268,-0.880319514091302,6.426636115429608,-5.4624651997665294,0.7487144482531163,4.186201821444273
90705,,-0.0550187979176807,5.129212521608918,-4.501835195908584,8.736204480258385,-1.6861275725417983,-3.418007534360739,-4.431752691122608,-5.370556944102207,-1.7987072513844538,0.598798634940876,5.974573030193554,-6.023881558670396,0.7212821980073856,5.706011843367641
90955,,-2.240355283870095,4.156893180598638,-3.122512312419391,6.128828750171891,-4.677129071247398,-5.174998000487242,-6.430235484430894,-6.811085169484402,-2.3743700553029874,0.9552336130125948,4.154340670296954,-4.381846626169601,2.1530478319652304,1.3153508112064225
91205,,-3.463806026254779,2.933182006857451,-3.4341161016646597,6.241500092521206,-1.9385340657232475,-4.427430379166446,-7.960128169313076,-9.503643265180408,-6.564694023304648,-1.0005948670227514,1.1108258911960474,-3.4142035660810404,-0.9752758238850836,-3.425524421283304
91455,,-2.29334847437557,1.5655159104869052,-4.290391336885714,5.4711854894709,-1.7660174109757305,-6.386418178976009,-4.267616792890848,-3.2024347771383126,-6.9536011934920685,-1.9091204382765852,-0.3560664240506558,-5.336194465110731,-1.3761001467460252,-4.005060467305147
91705,,-2.5753317699155494,-1.3725864747218084,-7.665723619129552,3.871730993967745,1.4699755187628725,-5.2189147812025976,-1.989169950928612,-2.383712802741665,-4.696846551375785,-1.2882171867677037,-1.2343103182410318,-6.2348125741589255,0.3284982322096007,-0.5550873151652409
91954,,-4.352830438580573,-3.033154415301552,-7.0235602094082825,4.277749731269473,-1.0868322474808965,-3.651853660471077,-4.11042278949187,-5.32229230492261,-2.67648816287274,-0.140324311380238,2.2913968458664864,-3.1528494858534835,2.008972577403321,-1.5064566632465313
92204,,-3.6620252881277167,0.4659114903107141,-5.620555454798617,5.191377681580367,-0.4538401644403882,-3.4822948095626645,-3.702605879630887,-6.564411038444841,-6.068110750970046,-0.2606667652389922,3.841136274957378,-3.4359461473750166,1.3298036225267138,-1.7725783208554502
92454,,-1.2390292485791468,1.2178977011609968,-7.417940966352503,4.356346553602073,0.030144772672809,-4.194113791869671,-3.9212400757231567,-3.99460142342725,-3.676333606631559,-1.9547545905291448,1.271307723711925,-7.418678812180356,0.5561775083068341,-2.4661882792172034
92704,,-1.0537371177255808,2.397494390716725,-8.396490599778584,3.11039829027969,0.335026702441687,-5.053982148166458,-4.5272509449163225,-2.400619396456799,-3.850300120305085,-1.7575673395601108,-0.5300146376669533,-7.517169649875005,-2.50527882138494,-3.339974516404551
92954,,-3.158914004107378,1.6311511236528125,-8.120721388100089,4.817174715992543,0.125475392794591,-2.569011509550112,-2.638442328185093,-5.089183258550615,-3.862290951297076,-1.5926003137174698,2.8949126827593084,-6.187988843985524,-3.0347312470099257,-4.420654277500305
93204,,-4.633115973063327,1.9236749683617624,-8.833054411920651,6.220889297227207,1.439477619411083,-3.4564553618969835,-3.886355916133071,-6.31515024900442,-4.245711123380206,-2.864566131034074,2.5800208757580427,-8.626491315023674,-3.306558798752554,0.8670153611466426
93454,,-2.1975946579830112,1.4045784628299949,-7.481638759262693,3.253881290029568,-0.0754427848510047,-7.085789202225211,-6.258266477115697,-6.76404217901212,-7.334865908243222,-2.281258496924137,0.763553091421501,-9.998759364686965,-1.029114198703686,0.8618303178436444
93704,,1.2736032023037769,1.0652324681779215,-7.511111072784873,4.3129363015820745,-1.03209708528613,-5.77108430280958,-7.33047087705505,-6.682025124611615,-7.036834048815431,-0.2793446243627908,4.982733766876005,-7.910226866246839,3.121781701350084,3.994763598512409
93953,,1.9322857682542387,0.2767418364362558,-4.1373319326520335,4.728769580556297,1.6087354031956806,-3.002216167379256,-7.240937908138367,-6.176528355144568,-4.667547378420396,-1.774346708479008,6.114080303743812,-5.956558616269759,2.2192358365518507,2.321093793137666
94203,,0.3572066127349113,-0.1746636726937058,-3.7384013991762375,6.250868442249469,3.663448485851683,-4.5261906981744735,-6.73171843249316,-4.597602816581518,-3.491887223592056,-0.9568875614581592,5.57088572074756,-5.458955524622319,1.3127716714525963,2.180022966674724
94453,,-1.9627049073787688,-1.3011665095700145,-5.916429894889284,5.386710201082162,0.6202841606623462,-4.045304732891601,-5.4339486061791975,-6.422918015197075,-4.731846965362736,-2.7230076682721758,6.177407256470485,-6.440571760881487,0.2859211743939771,3.562867763659228
94703,,-0.3476933684781135,-1.1660562859036596,-5.928689857684218,6.98665392173583,0.5184548170587809,-5.089180149427848,-6.571171194106913,-6.653737846490443,-4.287225193883706,-4.783845590364129,4.681257619371364,-6.857518381647845,-0.508840448297073,2.44674323965816
94953,,0.1360015934841723,0.7537376049275107,-6.565200718484684,5.587321907103617,-1.5334467486165002,-1.741135621938806,-5.954685453516605,-5.896276059254689,-2.5798872697680664,-2.221242833678623,3.780800802822669,-6.168724821114203,2.738299289627577,0.911331819920166
95203,,-2.923292845080468,1.0589801127380882,-6.186311730102227,4.408565871291682,0.0499063723235429,0.3400479148811871,-3.732016577209696,-6.146534404033982,-4.247890695168073,-1.3309001791690895,0.2638525319644389,-3.696058937885661,4.505983350508468,2.865181922579618
95453,,-1.6848786004116263,-1.091687662951658,-6.35066342150597,3.377214538906278,-0.5693965301537164,-2.623715695915939,-4.169770278758062,-4.621934241207531,-3.6156214933535735,-0.6369935905445578,1.0220868771442613,-6.800859799375235,2.6188751080498607,1.23115562029578
95703,,-3.696251085712514,-0.5545143450607,-7.681743880607583,1.3652601618553926,-0.9879503645592286,-4.723708615806295,-4.3482586777265055,-5.340333624218324,-3.8402641807594455,-2.668966110423984,1.6264846848041856,-8.561696108229045,2.874972118541281,0.6996414796615341
95952,,-6.439562560035195,2.115954421910591,-6.894069225664097,2.621829756510873,-1.8258091513103645,-4.455243763943866,-3.115668182789408,-6.176448869723116,-7.307931640451244,-1.8086894164484728,2.5989794336760443,-7.923732264107329,2.291850067521515,-0.3562622271008029
96202,,-2.146434201519182,-1.9490909957497404,-6.089203667442412,6.806777972159578,-3.960173283758997,-5.425880623547431,-3.5486176362491078,-6.163597060868355,-6.878795172748934,-0.7195089930588296,4.536836666535162,-6.671536965743496,-0.3683838661320057,-1.3024492411543904
96452,,-1.0863689433883137,-1.5855435173964685,-5.847047414790892,9.006227243750486,-1.7396273728376876,-2.441269003128132,-6.991836903529364,-5.2391571895561935,-4.945730216889684,-2.86912393294485,2.5984983879897734,-6.699374203460179,1.4672178742883288,3.111861941571393
96702,,-3.136750782893501,3.4967066558831874,-7.938208292668698,4.418912500184986,0.627841401622664,-3.2493486912511926,-4.895734553114945,-5.3770732130970975,-3.7009845401771,-4.566679529755521,4.755824804457012,-8.197058891264751,0.7890190640741797,5.232056298108426
96952,,-3.1836339761633337,3.1763566862700063,-9.944158700584358,3.453376587618642,0.9866696234140786,-3.987168604952106,-4.6282938505587925,-7.898996542248082,-5.290195942008729,-4.9767020508385285,6.868849511033451,-7.175424430129416,-1.729782922709019,4.70687718018344
97202,,-2.7645606003291863,0.7789265848821849,-8.220159805075568,4.185315358267159,0.7899514619567731,-5.775651847086168,3.2789522013355543,-7.967869763746858,-6.791390748157612,-2.665215153095746,2.539026203312368,-7.203941753414188,-0.5994394472268172,4.373870686589417
97452,,-0.4719171227836212,-1.139094985465021,-9.52139930038018,4.020624943968501,1.6431574626506642,-7.35108589044663,1.8931013677116344,-5.235254066595504,-5.807394939476499,-2.145156917239432,-0.0412849333728105,-5.137523470482897,0.1823122452071506,5.027913298658769
97702,,1.530291844294425,1.1795496915993455,-6.065933741921872,1.576632559998963,3.224373484399621,-3.3550558143159988,-4.707826988196966,-4.9329913377594,-5.066555144199302,-3.412798920176055,3.814346321214429,-6.042881449025792,0.9502791931837652,1.7148945019896944
97951,,0.2037866323292625,-0.5598807042380711,-5.8857661463614095,-1.960714083529325,1.527263544267935,-1.7579978606188966,-6.108137164948654,-3.984602171599098,-3.115723760884686,-3.379641687803421,3.1653192410384943,-8.308055841429647,-2.287413910279586,2.9365095805338237
98201,,1.2976926407891884,-0.1647170154355541,-6.7998617100689245,-0.4543733889463814,1.6970150901576588,-1.9050348508765524,-6.41546683323285,-3.59012944707588,-1.7985598008576005,-2.537789582372261,3.246893179756751,-7.169145518361695,0.9955303554472532,2.3603868974107574
98451,,-2.2327240060866616,1.087441248885212,-5.632209083000628,4.331266031577844,2.1724442096362284,-5.599124664766048,-7.099909718643595,-7.2179206103561055,-2.157273199318438,-3.035810885009669,1.9994818027678385,-5.92941632608495,1.5248167591358772,-0.6101750524145664
98701,,-0.4862888820850057,0.0516653684906379,-7.616719901420815,4.960956389587897,-1.5780369176498767,-6.633598267226478,-6.09194460779198,-8.469711602992879,-4.126670538751042,-3.772698847011808,1.457158325958843,-4.842087011187961,-1.0470872205760895,-1.5367212841764002
98951,,-0.5639084923859422,0.1494915327782043,-5.5781307143123895,3.256223876568665,-0.8280725742196802,-5.460638165821066,-5.8369325187294425,-7.287881274639364,-2.311109007848047,-0.371041183397943,0.7265464889694461,-4.842962096459029,1.158562473888106,-0.1949243382898139
99201,,-2.17195564858123,1.0168221592402902,-7.694995455654241,1.845954122483428,-1.2103678057407632,-5.548428130243179,-5.3168068075970805,-6.5901436368075474,-2.634804600403485,0.2906722397057557,2.157917165546494,-4.07278329025681,2.464924673070014,1.1971962732295027
99451,,-6.221848194551383,3.1479489230413504,-8.080117530335777,5.287203678369636,-1.537997900021789,-3.9541333777290815,-3.1000286409307103,-7.741860471811348,-4.008143163114219,-2.1189535729436013,-0.3606936620969151,-6.264606984082487,-2.3236031145845746,-0.8003623162685787
99701,,-3.438975166422191,2.466498387044116,-9.867778161268468,5.705015727201571,-4.58454863864254,-3.1089046076977,-2.443976039187038,-3.324697798882432,-4.826273163137991,-2.400419626384171,-4.695988534909908,-6.641087425154861,-2.0806895954951417,-0.7246979856940684
99951,,-0.8232358878811941,0.6903947989513491,-7.678159221977234,6.103097217670649,-1.2590914402789986,-1.4296088545553676,-4.861894684789599,-0.4066146868956263,-4.162688942335466,-0.2703066459267916,-1.3581021667611823,-6.636338429686354,2.0774763987524443,-3.080529991669094
100200,,-0.1455800659886772,0.7632941813782679,-8.462146559935713,4.0604095902634505,1.9291067631070424,-2.2086354530594865,-7.063201487220415,-2.878461812302312,-3.026444373621992,-2.004676990832293,1.4546887483148103,-7.876871494789813,3.751705260413974,0.4262590538202739
100450,,-1.5593666636586794,0.8850718213593978,-7.16504207216171,4.789558891908773,1.9514146891118564,-2.709316318044262,-3.200250380340518,-5.323273931234582,-3.5467019558269905,-6.76148156025095,-1.7223934631307627,-5.719729051359701,0.4507034748726681,2.013655135331448
100700,,-3.135140769294207,0.6874000477000309,-9.433741154755491,3.6533970893923655,-0.3111750782223949,-2.8932247864478797,-2.060048937724675,-5.274418929929023,-4.267359515630507,-8.361085672699605,-1.8138977394057505,-3.772953808924856,0.1484695484487258,0.4477347044686154
100950,,-2.1359545872522028,0.8637791520813869,-7.625221201354365,1.539314303707905,-0.8671446567349895,-5.167980515644921,-6.297062775425875,-5.35220926827273,-5.084843196791118,-1.7140236433171585,-1.815973447068757,-6.957509856576641,-0.5440688034975983,0.9798021813150896
101200,,-3.300202144710556,-0.053627510673048,-3.1935914831691714,1.4719158018739866,1.1002527688768469,-4.505157090793944,-8.930680672193176,-6.773297549872291,-4.961442913016878,-1.9341532819132607,-3.372864003344274,-3.613730155596995,-1.427352251551624,2.1202992590511065
101450,,-3.604517743222375,0.3513990464435872,1.2813573581716764,5.549376863098955,0.3290948224852061,-6.9756962377884975,-6.312191897245048,-5.292384211181611,-4.541143388715799,-5.81336402507273,-3.9355364660551206,-2.341338034256293,-0.8192134371716455,1.4423732050828493
101700,,-4.229835324652608,-2.901541753402083,1.922887855108419,2.5934174383834425,-2.633760938464028,-6.0923262990630285,-2.699605220075793,-4.54805012613251,-4.544001814151425,-6.935392626867118,-6.187694710819887,-3.470678031185364,-3.2712522527777868,0.8245807917802156
101950,,-3.030305867600541,-1.7369570209088934,-2.5563579998784847,0.9178005073745265,-1.3842928137846555,-6.998422993245208,-4.966878045384632,-4.113001730207051,-3.735087323616266,-6.471396463481028,-2.227806046784384,-4.089692970787433,-3.670283604877049,-0.7246702572954784
102199,,-0.8778008295100649,1.589456199992132,-5.978022943256257,3.667641876792227,-0.335546184706153,-7.315506282198862,-4.123410959301886,-5.814158142065207,-2.27942933638095,-3.509575854429266,0.8349014577354981,-5.424377476200623,-1.7145957598575114,1.7309004344838774
102449,,-0.2930753913310773,0.3708982762172724,-5.808955172075244,5.607436805009974,2.174189919371565,-4.271073895993202,-4.194590561380831,-7.239381138278807,-3.9260329304107926,-3.362713208354432,3.2629020312077484,-7.935263210983102,-2.19082501665467,2.7278653037363747
102699,,-1.8788920869140449,2.338798218221027,-5.499070623078599,6.043855692933726,3.807696197993177,-2.6485936133500925,-4.799829850394233,-7.192712139325073,-3.8653397807056193,-2.7032796340171505,3.128611877561249,-8.438104365251343,0.5947745803432481,-0.3223687502627657
102949,,-3.7721947858875855,-0.7312091634622262,-8.136194943126634,5.071722626743915,-1.2725821995682345,-5.871783039533868,-5.785150879745732,-7.3093518046359,-6.686044867484222,-0.7805147733687063,2.922781459478906,-7.211620423979733,-2.7300168671736507,-1.245161398446475
103199,,-1.9670804510863344,-1.916175471832033,-7.125007848370446,5.610188061590175,-1.462134073742317,-4.093997962589099,-7.025907817596471,-7.1015207352708565,-5.020280977561832,0.2638972296602555,0.6466175972324357,-4.746815522666516,1.1505451813723164,-0.8484468069850516
103449,,-1.2756346130488767,-4.08163631154907,-7.505560027137523,5.323611184959222,3.154466385920194,-3.6927557223843928,-3.9727123013282566,-6.660270889321351,-4.415393602897041,0.787311478138546,-3.850664513276593,-6.940389661771306,2.642297076443348,-2.186283493589705
103699,,-2.130293220751597,-2.755305436193576,-10.337680159705997,2.465610917878029,3.446781484514579,-4.55947404398731,-0.5441203172652203,-9.220784668612277,-8.353257821943963,-2.113752083688727,-1.8276879717729173,-8.83626783136603,1.5468938589611667,-3.5437453970293813
103949,,-4.976354323254151,-0.3976529255614613,-5.934496143627285,1.5368432218244086,-1.2802183514165164,-4.243564872314499,-1.5824835597175948,-8.985144562530301,-6.635781058307297,-5.5748745942189135,1.3972469901666005,-8.972943621958613,-2.399244949705515,-1.6768827975265868
104198,,-2.843783332330388,1.3032540161060937,-2.632438839059162,3.989559257964933,-0.7389274044769872,-3.309260367735489,-3.91414928247519,-5.904270920400259,-6.066885864488144,-2.246685315798021,2.128270712044821,-6.751463392843329,-2.449626429572588,-1.997439244468605
104448,,1.4131730327053598,-0.4997569096256343,-2.5132760986796985,4.399821410858088,0.4090305785638803,-3.1519830329620566,-3.886512705387605,-6.661892989794264,-4.609984451918825,-1.3667242289932928,4.189070447088063,-5.265057541909944,-2.3891003730770155,-2.7752560458430606
104698,,1.553376618607147,0.8910324390374642,-3.5758875335432845,4.021332090476278,1.9360706222964097,-3.7813538388553214,-6.218554351209564,-6.113633319076883,-3.4363806328370368,-5.279216153950279,3.894737353285018,-7.863064015616629,0.7169836064467149,1.1968067990849598
104948,,1.1709351854525942,4.017112102611775,0.8211706203794433,-0.4976556316969704,1.959517134077592,-3.411997418865236,-6.979915397358386,-4.885575430369818,-2.481523019476311,-3.315159477240708,2.0630682174624395,-7.05044341042885,0.3527668358590258,2.0593108884470985
105198,,-0.7396509664914898,2.399004622864356,-1.927492398501248,0.916131650856646,0.2888067456956071,-1.443120220629065,-8.18461931653241,-6.24466859049279,-0.5354686859562753,0.1154930371612202,0.7963191950743088,-9.289211643985304,1.3759091973590083,-0.846326855664913
105448,,-4.144684265177176,3.3922978839744813,-8.15276449143035,4.239528046888122,0.9694874039845938,-2.0856791008510123,-4.215481917067221,-4.522263155273452,-0.913091023619686,1.7711269512091632,3.1697985493283025,-6.625012304493669,0.5409685213929307,1.032855294085128
105698,,-3.171940226256847,2.4837007274366627,-5.005652020344435,4.122910017613778,1.5889385931763438,-8.848384374862482,-2.907766586372888,-6.439637268108161,-3.715522266977068,1.091056548793722,2.9341006797677056,-4.080801290945951,0.1668403884782942,2.001964471585251
105948,,-2.149917134431175,1.294244935739031,-5.284499096232295,3.934438134603368,0.9835120121473824,-4.71294375357575,-2.4930058093631677,-4.5580219058915645,-5.481483077351431,-2.9577775075704533,0.198848782570511,-2.6547404386484432,1.2411186326027226,-0.9220305573982106
106197,,-1.02038041964113,-0.182268169890116,-7.538111905694269,0.8642617691112854,0.2152475656181222,-3.857401800205502,-2.92859077000108,-6.275424842747262,-8.275606794650269,-9.023163516897611,1.1631619065162246,-4.051217162053012,0.8075448257883345,-3.91046800161192
106447,,-2.1702712418530923,-0.8387160669848548,-8.26069390229846,1.163780181022389,0.1175588332631884,-4.185006386426682,-2.7198705492030717,-8.339495981958002,-6.5780202012027935,-6.303376299153967,0.7308468317087402,-6.621321743744545,-1.071211486869024,0.7552185219083818
106697,,-2.4396620915282723,-0.1653756909802262,-6.812576844466728,4.7591230228931325,1.8580169355008704,-3.78499620531882,1.9260587245938805,-7.815951700978948,-5.25877592117502,-5.386825210895898,4.750492757809242,-6.815263348818061,-1.8781837848356424,1.9700507215143448
106947,,-1.1607704249387214,-3.4967622221978627,-7.082577723300711,6.714929569312702,-0.015437727102859,-1.3909761621778036,-0.2730877369783155,-5.183167702541126,-3.623909966462729,-1.47547930925383,4.708752976746398,-6.798265584388955,-2.379798401694904,-1.3124873924419258
107197,,1.2114899473796843,-4.353104028113997,-8.746398479642297,6.48780787236379,-3.758553104853487,-1.934961446959422,-0.9858397125542744,-4.283999263677848,-2.110801198731443,-1.316164678475099,3.333575079899388,-9.367262434332623,-3.3336929231337544,-1.0484843937892347
107447,,0.5195455406167979,-2.705468605556995,-8.395731368049132,3.102524291512276,-2.8143633130393426,-5.10520593912664,-1.5663541466664106,-6.617782643647127,-3.667808352146449,-1.643562706521874,1.3191237119960328,-8.426486024692926,-2.1470829915126504,2.4863210421939046
107697,,0.8099803023049699,-1.701331642928058,-12.016967322427195,2.182881694438875,0.3117856554052023,-5.9884776101602615,-5.622799545127149,-5.391812560159326,-4.68799331561778,-1.763778915632521,-1.36263435249405,-5.885768828524908,-0.3824307345862483,3.915580930664668
107947,,-1.3057183800541323,0.5898861795645525,-9.841141274117462,2.305471884706588,2.201249007397257,-8.506430393120906,-4.475449111873473,-5.4693780496082125,-3.0697768430935968,-2.0202102973871767,2.2755692253401447,-5.357279135939636,-0.8548420513673407,1.4731949895489729
108196,,-4.005510014898833,0.6778802749730151,-6.831729732831691,2.181934511857033,1.0388030448800174,-6.306797875960351,-8.657949961687248,-6.538302938001786,-3.0425516823039054,-2.147471962027137,4.132266760113267,-7.290540798157343,-1.5209031161597033,1.3642106174268671
108446,,-1.466878000639251,0.8847168965042729,-5.881827722835711,0.5261500844108193,0.9388566198365752,-3.229402964029404,-8.251954958048996,-7.413757595416397,-8.161530934664649,-2.6084806472530984,2.7503608608971097,-7.203887287723628,-0.0809651632299332,2.631314504780505
108696,,0.4103181731886646,-0.4185875113698388,-2.561299156822645,1.838745000081297,-1.5632603613845086,-3.79130450746175,-6.097335516871144,-4.48529200737977,-5.836106992892739,-3.060254587245713,2.0785562052354924,-3.5198296305760035,4.248786559127637,3.5828669956318864
108946,,1.0550071142137147,-2.0734586963365533,-0.3896145532129398,4.600670503234346,-2.233644858676942,-4.309406077699579,-7.069500763488836,-4.44454012788877,-4.501350549066027,-1.367237863389731,-2.7950071610287157,-3.035737716064421,1.8118599810114768,1.531876006141495
109196,,-1.1890407547292745,1.1795673744347326,-2.0676940924877254,1.1112022951995577,-2.862971264603817,-3.1455634124272973,-5.980405949655978,-6.683136421418744,-2.9335211548148137,-4.057782137382007,-4.88413443414326,-4.795601325113727,-2.8358872265946267,1.839627666895241
