timecode,event,eeg.af3,eeg.f7,eeg.f3,eeg.fc5,eeg.t7,eeg.p7,eeg.o1,eeg.o2,eeg.p8,eeg.t8,eeg.fc6,eeg.f4,eeg.f8,eeg.af4
0,,-5.971766511900035,6.145165102331998,-8.876945353891976,-0.8254767856918005,-6.335235896512118,-5.396602214922947,-2.090281578768545,-6.508371182001888,-6.4418368718287935,-8.544774581551536,-4.056431902850022,-10.876256248977116,1.958383900681082,-6.563110177462263
250,,-4.349608226724631,7.979485197674543,-9.308719132509651,1.2710023650401172,-3.431276491606252,-6.09813521402198,-0.8022395939593749,-2.870685186608895,-0.2224211676849826,-3.09149875048939,-3.1104375961568644,-9.772959152598844,3.286078427070152,-5.3073464813321785
500,,-1.7033220205213142,6.788817030980916,-5.101504649714955,2.596736634711256,-4.739925293217972,-6.270052797120598,-5.01279753661608,-3.9088980043503145,-1.015009515673406,-3.548343119959492,-5.995475585411548,-7.057985394658769,3.553843397145453,-5.6060720444713885
750,,-1.901902555317931,7.183566412581184,-3.794667549222427,7.105935374667607,-9.079172926936248,-2.135888490841314,-6.596032030528097,-5.9034463967387545,-4.402979445422424,-6.478117105829937,-7.039448115971335,-7.811776289591492,6.076884309619075,-6.300625680973675
1000,,-5.791918898306969,4.969251618536766,-8.796613913613994,4.727836859382962,-6.42636146087972,-1.8187988268333275,-10.921754136242503,-7.653754069665784,-4.303824546817755,-5.611235691054687,-3.2772127935966284,-8.818478188557298,3.25494951175157,-3.5565039498731683
1249,,-6.633320516885743,6.6712964033546935,-11.535295121170266,0.8314354948503522,-4.008843398723051,-6.37524981548884,-9.202576415789771,-6.475778152269975,-6.353330644851242,-10.91892600175507,-0.5117648407208168,-8.337289281233096,1.7864010710164884,-4.6009630363565766
1499,,-4.759507880866412,5.330747994007523,-8.542067000206616,-0.1017622403967269,-2.179560779977132,-6.716028017814083,-7.989208713268838,-5.220091732146548,-6.475681245596312,-12.70840681929381,-2.8335986469680385,-9.172298506541082,2.51439347039467,-7.4266738552820835
1749,,-5.023748257614664,0.9023548929723816,-7.848143227217479,-3.74685286282541,-2.2267317831276205,-1.384842445434519,-6.501379493463297,-9.025198329208369,-9.308529131744612,-7.64253983558961,-3.018726389738249,-10.807907799880883,0.5257362048973863,-3.750474484160388
1999,,-5.855529976325217,5.648870288853894,-10.10062540327816,-1.057393827893121,-3.421866629743753,-2.045441771716088,-5.9067481019373735,-13.403690237397331,-6.514247563274585,-5.94981380264394,-3.646315464764789,-10.643622572132802,2.346296194375666,-5.608350114334116
2249,,-4.457057392006522,6.389921870833798,-16.005709114220508,-1.5157422127723716,-5.246328928194004,-7.552925635524956,-5.753255593340303,-7.549381794850185,-1.3764836091007595,-2.8360579652570554,-2.720920195079948,-12.646069269309145,2.0038746755969856,-7.257340534496166
2499,,-3.4506184240338023,4.8511697392269575,-12.938886215378574,-2.0463204243142146,-2.956751105352825,-4.554634662285632,-3.56098863573678,-4.665367983548063,-1.973076592273304,-1.4382414020178436,-1.052682137792189,-8.117590207163092,2.125795623799717,-4.60428806245658
2749,,-1.581154729141148,5.8807044041000776,-9.087071167310455,-0.539634318846398,-1.5425051999207018,-0.6820161252649947,-2.069530361401632,-2.698108494404045,-3.4333994197396467,-3.956967295813441,2.291723492622433,-5.665375699651225,2.7504031609487334,-5.19071078820064
2999,,-1.0070708676651443,4.595278079288128,-7.306716704602757,-1.5162851680450715,-0.4473424164763862,-2.118276114771101,-2.274860231695356,-6.384915556347002,-6.02066791478527,-5.45717666532613,-0.9058221050369571,-5.433155610077026,3.83396567019847,-6.270127519339301
3248,,-1.5905585063800556,4.719465515239907,-9.165788366094368,-3.782206568348837,-3.2851489811626307,-10.384632687039222,-4.9374337644394375,-7.960978538520105,-7.3980239892272115,-4.493909865326804,-4.00269132690502,-6.71804566998502,6.425800875471067,-6.527080515130041
3498,,-4.866289084424781,5.606453537991007,-7.169603527121064,-3.093508429550566,-4.627342291305384,-13.319858825843676,-6.512153220919014,-9.264408489656203,-6.755015729919791,-6.311093513473328,-3.5690806584876658,-8.202672358007588,5.436401215189798,-5.545848633177075
3748,,-6.961076856806452,7.011167888405648,-6.668651006065898,0.2193371008253095,-2.234896173365181,-10.42299224978521,-6.350112232199356,-7.974620930826367,-6.357115793325496,-7.737666495423053,-3.350726675463929,-8.092411558565122,5.857427590274599,-9.0747364966721
3998,,-6.022235265610087,4.770218929993417,-8.491619853909025,-1.164119503836553,-4.428576022159817,-7.114503280685918,-6.07662143728486,-5.401728886385843,-4.586881441686006,-6.16951898829729,-4.615869229724411,-12.317026191038812,6.170356735693572,-9.565954149085572
4248,,-4.515855978609817,7.717569985232417,-11.85564497544422,-1.539741320516994,-2.501578626057041,-5.8781642502756295,-7.803212150322447,-4.983552862042031,-4.425545886732872,-5.87057699756974,-3.734974937932864,-12.531178891209152,2.757379023569242,-9.914024620915606
4498,,-2.302925219207193,7.719788449411311,-15.390049409195669,-1.0764698156839931,-0.8316308721112071,-4.337213379449716,-5.100029840134233,-6.553080858229691,-7.1216902091332095,-6.484694784598403,-4.953512027386558,-13.176116790831587,0.8952698145202314,-8.81317510979931
4748,,-4.902118192171346,5.358475464844615,-12.23199959500861,-0.3305064657248309,-3.9367675888157287,-3.75640508569696,-4.312563835819027,-5.648211740525374,-8.435957195071799,-7.664848474598588,-6.286742100104995,-12.750528029007294,3.3269184388167483,-6.910255820215385
4998,,-7.617813484256601,4.771913121653398,-11.886520652055667,-2.4050045829309723,-2.545777795999902,-7.1829207042873175,-7.680516338051486,-3.699251060632079,-3.913467060383164,-8.725205144772163,-6.341261778377337,-10.751238243969333,3.132797967097233,-5.283157697668885
5247,,-10.024815003838643,8.982585062708367,-8.70669763245408,-1.8932850700299133,-3.404154911001815,-8.251475107927392,-7.664339352445637,-2.724117490217275,-0.8978468119073324,-6.808601702339971,-3.445807167537383,-10.031960647148292,1.5184561870721514,-5.866872459251084
5497,,-6.974873991129956,7.810969471720304,-7.191559417928248,-1.6673543211167932,-3.710502377849293,-5.8695560931895,-8.254754381286354,-3.385370941024389,-2.5610103851561568,-6.326379049049079,-0.6207208105577854,-7.273613986315159,4.434780161896928,-5.821837487147818
5747,,-2.6852099765131805,4.369028022942664,-7.017765352998433,-1.2458446124590707,-0.3299993850634374,-6.012867361733431,-4.322999085866281,-3.084799786620528,-4.978363473807915,-6.601420591691316,0.627224165989782,-8.832392036088283,6.352041376969314,-5.464285278050261
5997,,-3.599326407231743,5.459428284260076,-8.268309898856494,-1.3078210671059318,-0.7101537758828702,-5.907161310942815,-3.17367990722297,-2.144872733082642,-4.474362226372001,-5.467795202478964,-0.4703965020212503,-7.567062009270906,2.55306909114744,-4.935320173535321
6247,,-4.998338857950072,6.841473553260558,-11.29445349248748,0.4039496582165144,-2.584098100141615,-4.824531207825881,-5.461504630043947,-5.013882470497123,-5.65825386715387,-4.352079692000986,-1.361812935844763,-8.460710609749265,-1.704768071222912,-8.7180298153214
6497,,-4.476502859981685,2.361447870468258,-13.500272414503009,-3.0346318802137984,-4.752565079337524,-2.132811098275132,-4.873357148888385,-8.96034716890073,-4.3573274962540784,-2.258828292234129,-3.8634505751634793,-8.544768514099042,-3.610980554852961,-10.559306497754202
6747,,-4.9351956347374655,1.8333599196605537,-3.619366660856521,-3.734829684201035,-4.686728241292997,-5.371557360093922,-3.986296253267824,-9.960671331121167,-5.394360865504392,-4.41615058159925,-6.554664204931706,-11.606134170024584,-2.707200651330705,-6.98321362213652
6997,,-7.06351817461217,1.7858509265644544,8.131716691515884,3.5677672387619364,-5.239355210042382,-4.680646972745362,-2.939183804778516,-8.554002414871357,-8.344444002884599,-5.423020469172903,-5.135532494924258,-9.10492445547463,-2.2651139044784947,-6.505134154521218
7246,,-7.436677027611225,0.3480045375214801,6.515015976828833,6.364130196809779,-5.9192579734309945,-3.760196702758144,-4.207092498214774,-6.854608659788532,-6.437021061062104,-6.893540686704203,-1.552047651818356,-7.325438452296621,3.675252697339878,-5.006062649150886
7496,,-7.371117419217129,5.763420458392435,-9.85289998558935,3.647987785380985,-6.226673908267227,-4.9200217529668535,-7.242845184787299,-5.346858526622701,-4.138068180967691,-8.115467482812795,-1.527603145604519,-8.269055128207594,4.347251128069212,-4.225883963193877
7746,,-9.546326714734615,8.218041026179577,-12.11420694185932,1.740384068972032,-6.627600592937771,-5.46006220340308,-5.450638117258534,-4.589353856991468,-5.859736328788397,-8.900506360783156,-4.04403180510278,-12.579574498815507,-0.6287599521750226,-4.443073248741404
7996,,-8.243313265145222,4.789627436879843,-10.037077610905111,-0.8948913240690554,-8.392084630081825,-6.050834641914751,-6.8152914495516645,-4.536470666376581,-6.03587787773836,-7.912375452069746,-7.449783972472757,-14.891213728431946,-0.3564390872144365,-5.872558472021466
8246,,-7.502653067434279,-2.2921121149290062,-9.915517346764664,-1.3475559448184755,-7.297284503557448,-9.128225578776506,-4.930465931109475,-5.127148647829891,-7.0697933995434905,-9.22607581980832,-4.936974381235265,-13.959507721984156,0.7111675470433142,-7.160317045150162
8496,,-4.724017833954662,-5.2767562512411,-14.64010765290048,-8.159933521136036,-5.595790449242851,-7.422615246351638,-3.958434052611233,-3.560801055576021,-8.438859554179269,-7.373538259610198,-4.218075478494455,-16.125280809712613,-3.061089345007697,-6.313146625460249
8746,,-6.148556131200761,-2.8978967461014244,-13.862126888638588,-10.170611193871023,-9.189384515589436,-7.621505639245854,-6.490828970516533,-5.110065055615678,-9.176764039278227,-5.628155645729665,-4.542896650975647,-11.609698362775458,-1.4212863415258072,-5.594238003619062
8996,,-6.1903098795236735,1.453150400217832,-10.637377126503196,-12.39287379674931,-6.216550606829268,-3.8865059854813415,-5.925097547696019,-6.751416516422789,-9.215596998727024,-7.074934402087952,-2.1957034123590664,-8.568918023434108,1.6647042667537315,-6.136817331556802
9245,,-4.729661780707856,5.270652013175142,-8.880767959163466,-7.628327544186426,-7.875980620760989,-6.486429611930006,-8.408320376395698,-2.7447124852215685,-4.259168062244383,-3.4645253427943743,-2.561077487217234,-10.55317790898786,0.744050611578118,-7.397380174478244
9495,,-4.873691920678849,5.473004380881317,-10.794718457002972,-4.927174188281802,-8.326720633903278,-7.930406815200017,-8.737530097561411,-2.4845750526329056,-4.475140996053004,-1.974219683820232,-2.932416113908568,-10.08048963067276,1.166888810766744,-6.301887670066608
9745,,-6.739369158362107,2.5406118835006986,-9.241687302952824,-6.741237429535913,-8.733992400072431,-8.28167656058864,-4.292176441478484,-4.658179807500317,-5.608412466259671,-3.4791850222763494,-1.853649835623837,-8.51281144569717,2.0718932534933265,-4.571615091640538
9995,,-5.90461559928242,1.239224348622335,-6.790860321946593,-6.138741623707162,-8.78797777446627,-10.857107164851422,-3.736212757348321,-4.539250082951968,-4.929187654012486,-4.941862581007687,-4.505103462892172,6.770943498900809,-3.549397797745824,-6.321917935691317
10245,,-5.02476349064764,3.167651498227845,-6.755081604499597,-2.8381914341248207,-8.958896214389258,-9.1585969576386,-6.408636395398358,-3.005642484397571,-5.6700196336883,-5.623161747868326,-6.644625034619023,9.786773605484155,-0.1254081846562161,-5.801861400897577
10495,,-0.1913895450208066,9.225636848871565,-8.002477839591132,6.022742725776117,-7.113319315561652,-3.358472868912199,-3.8671509779659914,-1.6554655309181396,-4.39491768323375,-4.285922902376951,4.0239647209559255,1.1829598022994188,8.516309865924052,0.0872606727548831
10745,,-0.7494245321757682,7.154475981728853,-7.771615354571788,4.444083565709002,-7.239873887207475,-3.674752492555792,-2.5707289543731164,-3.915109717069764,-6.845562849946343,-5.547596373099111,4.50748653296862,-7.925041064336751,5.568486620811393,-1.7146993691922583
10995,,-3.669018859786781,5.316087218861524,-6.314414213624927,0.2217686213958475,-3.1527646232441198,-4.5560147104674105,-8.142975538103594,-6.736993860965753,-7.237130412805598,-2.224442350718387,-0.1455909137324105,-6.006632922264262,0.1911515473309699,-7.662025047433571
11244,,-4.153613064574914,9.071497961050564,-8.300571009805994,1.6563639575082931,-2.5762238343726502,-5.54799594125043,-6.999849000971206,-2.824889955075775,-6.107517677280642,-2.851739768607536,-0.0006653123826115,-4.285694345817735,2.9528630026617164,-5.40610869861609
11494,,-0.4611517772227972,8.844712139446843,-10.409002142733542,3.2670190093688105,-4.268047919301652,-5.847658976533604,-4.104293475000752,-0.404443964820082,-4.488470299633543,-4.343941429065568,-4.263017669800378,-7.576875371957953,2.611297162474828,-3.408125086308248
11744,,-1.2140718118502467,6.8311456700161,-8.65226176148451,2.798577239104989,-1.762673769053433,-3.2497045187538287,-3.559501991703475,-0.8416615184255143,-2.433474432743977,-6.451116683478622,-0.4301010221479115,-4.811165542367764,1.4393948416234,-3.977963716701626
11994,,-2.523940004848309,4.671302485619627,-8.829773815180555,-1.4260130303399627,-0.2014597193834888,-1.4258112232155291,-6.287132975226802,-2.8357671199382213,-6.506321309029092,-3.9628824387636072,2.270201458594348,-3.1908361684241022,-1.3747584354983045,-3.652450710252393
12244,,-4.15414415253141,2.3652906378132728,-9.78996111878644,-2.1883653010705544,-1.7257459775992636,-3.6756560144438617,-7.092260424313521,-4.8165712624637385,-8.011024806353637,-2.584029415794565,-0.3760382659996931,-7.9584529228499985,1.1145027080432086,-6.523884198563929
12494,,-9.018583913453035,2.336545541460904,-10.633387442118243,-4.87456963278863,-4.063714143790401,-5.612598432283953,-7.067116286756768,-4.477682361030116,-6.172233852675015,-3.050132323037521,-2.8828495195179777,-9.781249574636924,1.1652156184868787,-7.434158203415786
12744,,-5.395038232355925,1.2321271173518114,-11.568816368290086,-6.607905076021358,-4.9043145680273375,-2.9597481652199926,-4.822292647739488,-7.886815791287359,-4.926315207503771,-3.3039950730730467,-5.107858269711989,-10.493878984067278,-1.2305903996945742,-8.178629000907181
12994,,-5.099163581225412,0.638374063736631,-7.947690926710667,-6.863642143600926,-7.36962039740967,-7.3322261248359455,-2.107106862394417,-7.797522685235899,-6.845504404920909,-4.009576086782517,-5.051280799434244,-9.60094858838717,0.6798168690223347,-10.69606590518842
13243,,-6.474665805625051,-1.1235307364740348,-6.246597633160983,-6.629782142088385,-4.856692887783179,-7.667673305600728,-3.1903590051473523,-4.967539756309947,-6.052287497073344,-4.54405568909262,-3.3965990724745563,-8.75518571880037,2.1011977581341625,-10.149492432556457
13493,,-5.753678544093877,1.7187531037115336,-8.4849985422872,-3.7183497319447767,-2.704314624375372,-5.3800724357889855,-4.712863600333402,-3.388744002410803,-3.763042326694448,-4.643173360630354,-4.188820389213919,-9.784997598917135,2.344272102990834,-11.213620799991926
13743,,-5.260410061271475,2.4555281106882427,-11.15191480174013,-2.496831681514345,-4.085205538428356,-3.93090051186557,-4.1441135906874536,-2.994009854704766,-2.7474499721851697,-4.223945423113888,-6.924189206782934,-12.053392810178885,3.369914241113716,-6.800770807687382
13993,,-4.12507534827213,3.966071345235251,-12.681998614164131,-3.0987315052034803,-7.118824275979304,-1.8679608306625977,-4.111586445209187,-7.057953811412396,-2.910338071206417,-7.823316344321434,-7.782361356214709,-11.740253962458803,3.2855120588802307,-6.530076179616914
14243,,-4.875092648363153,2.4562520214466104,-12.503450855612977,-5.34444448536723,-7.010929162816791,-3.934730072006609,-3.791955563233139,-5.626624822167612,-4.479796120500165,-6.9431920061523815,-6.702659672520923,-10.11581312740624,5.791689227233274,-4.480987226170124
14493,,-2.7351389689995727,-3.454118418171332,-12.417282846423031,-3.7877876092392153,-5.366465531098403,-7.543153371623434,-4.3694172997313485,-3.6219930517328174,-3.926479644305791,-7.860191353589889,-5.709730603115997,-12.660372626656113,6.197589730441713,-5.3606510933249085
14743,,-4.492907476026774,3.5323771562173576,-11.296223282611068,-0.7192781601203962,-7.265147769033423,-8.062467285191842,-7.857379414383199,-8.036675551969289,-6.78451770774012,-6.173740612142567,-3.865841327473,-14.9160409438443,3.372716700855816,-8.176753006320478
14993,,-6.777840914104897,7.402419932785639,-9.149107154855464,0.5594846459666941,-5.937218331861618,-8.846656973471736,-7.164511031813875,-9.890023991586414,-9.622915001717011,-5.732989197725517,-2.547948259088952,-9.30246263087874,2.1068416998962065,-7.586368709228952
15242,,-4.532422969303584,5.481023728189031,-10.035026561958311,-2.9305035354697404,-3.733330635429693,-5.781843768042586,-6.813871808026076,-10.129152100080889,-7.653199145790829,-5.045140907782226,-3.4730822534699834,-9.96511012443727,3.617271870975189,-8.90310590053092
15492,,-4.536955063499399,4.188546643790311,-9.295080641897528,-1.4949936672724498,-1.7084603840364467,-0.7209632293871073,-3.066433960262314,-1.932611397657396,-1.0851722920482394,-1.6157816206581033,-3.0916929254926453,-11.737036085556625,6.108230705710587,-11.680858016791406
15742,,-4.941443128945357,5.503962035239708,-9.012183185752004,-2.3588012107057,-0.6441967444207832,-3.059162996733577,-1.982820804201686,-1.8756091926960736,-2.7580827745505623,-2.7825392712088988,-4.785400490692599,-8.025290621559579,4.286303225771762,-8.208224203571612
15992,,-3.8582429270258665,3.5330054602263767,-7.261655429125408,-4.960110713666673,-4.847246839681684,-5.504491843604868,-7.161910730885831,-5.428286783626684,-8.109368278316014,-4.035811148716446,-6.285781710526973,-9.755163152309592,2.24076224379989,-5.9924608685451535
16242,,-6.705470314593374,2.2091601112953088,-10.027965117671013,-5.168598755110153,-6.402516356205714,-7.974340988833867,-5.549632689071865,-3.804156450377766,-5.626195748788984,-6.895739205675238,-4.465626450148496,-11.54700413470213,0.6808612018008131,-6.178307137025582
16492,,-7.4508621666018975,0.8708066983775136,-14.034951230953352,-7.258051096450594,-5.37669097429189,-8.372248801487952,-5.933606668935051,-1.501179745337191,-6.9801770836117605,-7.065554547410391,-1.0512268111175402,-12.82977663376756,1.6534265451844656,-5.1693607951549
16742,,-6.150099227604984,-1.4597017548050484,-15.659514370342364,-6.740836329320694,-5.77297820843545,-6.496861263872102,-5.632252320945942,-5.077230870020763,-10.008412519320997,-6.06472437202669,-2.02112805257912,-12.529866988247209,3.1083022289585704,1.385240742218544
16992,,-10.905668088074613,-1.2239858152456975,-12.403649820859252,-5.822468528629567,-4.8033105672219705,-3.1813025432545583,-6.479028761053492,-4.27002326703328,-8.844920780788776,-9.147184772163676,-4.149924668750073,-11.263244413242868,7.484928853573072,5.141257077755976
17241,,-9.094251616814145,-0.8352496772707181,-9.702491120303016,-3.740287188356693,-4.740327714661702,-2.575427760252296,-5.88112500400391,-7.113599168141923,-6.89122796221378,-7.639244965084737,-4.141360117502158,-13.496462188215204,11.114029530440918,-0.6500065888687985
17491,,-7.799551217960785,-3.3758320960853627,-9.647686296395904,-3.1880181453534795,-7.698260683177855,-5.108051903284316,-4.877636238361459,-7.243356636128793,-5.631678114239077,-9.429147239046396,-4.163244979893028,-11.230352862212708,5.476648845634243,-6.274574786449189
17741,,-7.284731603618995,-1.1480929565429296,-10.422303669507434,-2.2504915118066444,-10.939057062447056,-4.875587233496878,-5.87922079865415,-1.5059032339695857,-2.5988984084792444,-6.183012985161755,-4.303738431212466,-15.38150768013159,-0.8061637298080129,-9.6907623346426
17991,,-5.9281670290869215,-0.2493003168276942,-9.101494075572814,-5.035637542906947,-9.662676040079765,-7.868389908097518,-3.324150264896022,-1.5140750787177537,-2.0757576521555974,-4.743441536790493,-2.7085160549084963,-13.917149784135844,0.2911277790694809,-8.613967394005876
18241,,-5.020158675188443,-0.528844604711151,-10.534604374630575,-5.978235690036858,-7.7920109704597245,-10.301756372912957,-2.822038308441848,-5.574742333467815,-5.4132068876619375,-7.917518157534644,-4.094539634358173,-10.313325943619096,0.1060041649186415,-9.810471316475928
18491,,-5.629673880771508,4.337351828786775,-9.075218177455357,-7.29739983113234,-7.562111059591393,-9.766955537149048,-6.557113687542903,-9.33836375918994,-9.185241977449826,-6.357985040783355,-3.34203186981868,-12.5801613907148,1.7115631414367822,-9.535614419808123
18741,,-7.967087438389916,4.25810405538895,-8.696463736579798,-6.767740098619611,-12.083563977242838,-9.83472608176096,-6.244386026251814,-12.569351716786969,-7.874281791970242,-5.365508838105249,-2.519143566401363,-11.323278146122764,2.6978783484401268,5.897404662524456
18991,,-6.256982796688572,2.256427952514144,-8.079604939290002,-1.9515632425195828,-12.168220678569591,-7.682056798002891,-6.1036057574230975,-13.822018686932696,-9.95070749916776,-7.055283991428855,-2.605815995829363,-8.70998954282716,2.1663422669480425,8.366639141145843
19240,,-2.108393147266158,0.8290908070851076,-11.157162775042078,1.478309392347553,-9.207219761740864,-8.443052851842424,-9.362325179718647,-11.107244088391644,-11.560721821453797,-8.524045216234224,-4.016383031035645,-8.153170226682949,-0.2533183890194969,0.9631067483301812
19490,,-4.266311662648504,-0.9216167264011536,-9.413099059838462,-2.912551316152601,-5.411097652447101,-11.091221019689696,-8.248374609971885,-7.190624487832157,-9.78699510578069,-10.220827073044266,-3.493746172077289,-9.181344684190549,3.003557061093354,-5.725485431618833
19740,,-8.888394321186034,2.778433346075261,-9.900447572228469,-5.328977918114979,-3.403957635923387,-7.318974541490979,-5.687558838379699,-8.037620102705361,-11.660884766735666,-9.219780293337598,-4.20858392996538,-10.337060595436371,4.347128038110314,-6.637455905387314
19990,,-7.0593275043728765,1.2651162183453912,-9.306952893534556,-4.6939494991266,-6.11928531859263,-6.34222310481205,-5.778984642552373,-9.084610641716116,-12.361438584086228,-7.699165368450346,-7.218167084390941,-12.344313283624423,3.570184492775173,-5.696334339031227
20240,,-9.41211090555167,1.7438443509001078,-11.11199117659713,-6.235567995433956,-5.278934759832127,-7.248034669336459,-3.356946078057144,-6.417066673836185,-7.517879425169246,-5.162250185639829,-5.7959306479153705,-11.01441882790261,3.6838552733293417,-6.348463692754258
20490,,-8.56983952833677,3.6171084443942743,-15.16684892926513,-7.1193958019512,-6.452552498219247,-11.481391075201069,-2.212708935912377,-5.564418713999401,-4.438730299751516,-5.04977481944915,-3.537634258160656,-11.738022237878752,2.237540929337776,-8.404260655463672
20740,,-5.528813460152007,4.548109469858676,-11.771767445778783,-4.414529398456358,-5.546091653814398,-8.021728491762765,-4.305689416462188,-2.738391115838148,-4.250815218889168,-6.996655103384909,-4.830297721532606,-11.57532638063844,1.5233663163140316,-8.732173324969022
20990,,-5.752018276294738,3.909318474839323,-10.14593217319952,-4.456902019451395,-2.96590870627162,-7.090611236053773,-4.112455700460053,-3.412725695855115,-7.546505390815064,-10.584645534373266,-7.506598870408365,-7.638788810355919,-2.375293528975424,-9.540227481892204
21240,,-3.049953906704621,-1.2967419016748134,-9.4474924419023,-7.705739055137917,-3.4143202972413587,-4.346883385429499,-3.2900595059589306,-2.7724440490473548,-9.37448182104826,-10.168597477896956,-6.471457481608487,-9.000079428414919,2.9926370574249272,-10.455565474876176
21489,,-2.3189364567288666,-0.2052061263806768,-10.550534486777718,-5.562106785559925,-3.920095340422351,-5.473574440417762,-4.009282776006029,-2.6519868693179047,-8.707758494548187,-6.084803240329606,-5.297599653703346,-13.762470959943515,4.13666140591692,-10.701048834522409
21739,,-2.843627349787285,1.4417934721334076,-11.284408183563006,-6.0771881640484935,-5.981672793947075,-7.154769502220671,-5.683679976615147,-5.065251726855282,-10.266267389008716,-5.894165938831816,-5.199070942887417,-15.401429617324045,0.3566827018948105,-12.09771759720086
21989,,-3.5483922320198764,0.78584122108684,-13.547405668492294,-9.989397153493195,-9.384395287079748,-8.016747534868394,-4.950846736742816,-9.329652092339694,-8.721881456198691,-5.428232346214389,-6.108533425122592,-11.96023176866941,-0.1442984608215535,-9.671656448732868
22239,,-5.707560764142251,-0.756190158897234,-13.648525514682248,-5.724324129620397,-6.709805783309104,-7.190224599966919,-4.597100910860568,-6.894300501571141,-10.916441645795844,-3.359058008366077,-4.977513668392268,-14.221153529400292,-0.927101825417602,-10.36479144373788
22489,,-6.230914454146879,-0.069547090961534,-9.174466761140222,-4.018250939739453,-5.948552038619849,-7.994317295512409,-5.836896662652945,-6.18048537672842,-5.175086607883815,-3.609069206274204,-5.818354108543043,-9.963863354890634,-0.1949505023358206,-8.326813002997381
22739,,-7.432049706569403,-1.6139212759322128,-10.89973663560296,-5.84945226010401,-3.805079142427117,-7.029311360328827,-8.694324667614131,-4.4257911204920415,-4.034122294201652,-5.699556534296455,-6.239374698012838,-10.452313389296856,0.1020632830783783,-11.260493686802102
22989,,-6.711794483163912,-1.318567066422135,-9.66813349074651,-7.516124004514092,-2.7965350245359764,-5.892677896398899,-7.456045229144779,-7.529042402622574,-7.307518427001781,-11.196597729533336,-3.65401455272623,-11.09247601022222,-3.3663123307979403,-12.40163449477015
23239,,-5.652177503534056,-3.6129962636341366,-11.409806032387774,-6.937408212199962,-6.57005926354214,-7.23227154180342,-6.528724283507868,-9.545333131108526,-6.503398847554211,-6.509624163095307,-2.270066225645013,-7.9944491886499165,-2.695334683392744,-10.705538976418698
23488,,-5.237562070654933,-4.649683458545412,-11.061889207640052,-5.393621053838222,-6.183814811114722,-5.218418794644571,-4.416292837660589,-10.486463755710291,-5.420834970239715,-5.208233124570494,-2.3296764049728598,-9.240924530259456,-0.7814909452309118,-7.121441277499705
23738,,-7.281687975718622,-4.724040468642704,-12.68252868190805,-4.810406019973314,-4.869977910286227,-4.610817532321311,-7.019713523323537,-6.814996869307299,-4.85904367600514,-8.454601693007763,-2.9895953191044056,-12.85212635450836,-1.2030071572086205,-9.068620234165502
23988,,-7.1773529176437325,-2.940131190555645,-10.071011434461514,-5.4487584068844965,-6.43922394924353,-7.698510433623309,-7.582429949633544,-6.426827076630765,-6.427872683916228,-6.196192546285735,-2.327693154656897,-9.940262134696988,-0.1903304633833597,-8.693113259650993
24238,,-4.911251513469366,0.9512891086692324,-9.326290793538035,-6.373971806243972,-7.757067751092319,-10.690990369536737,-7.275105014313599,-4.737629479539531,-5.439713497133672,-5.9401796720872655,-3.274470405598175,-10.333816192750112,1.8605373181778464,-8.737841552610337
24488,,-5.015519976805902,0.9209662762280548,-9.040538334122816,6.42029340436717,-6.023685874725187,-10.097171996960824,-7.176730945940623,-3.5123059402756738,-7.340590290490837,-6.798088882097649,-4.731060759480895,-11.47357622609885,3.516188825197263,-6.310612731264435
24738,,10.42262705845005,-0.4873091485600512,-11.892879394563993,13.95781357888433,-3.415467379042078,-9.3066417390358,-4.036185459426947,-4.920541562251841,-8.304552540994447,-5.000268078432977,-4.028807632533117,-10.740620435584637,2.4262599367597124,-6.616417791400595
24988,,12.956386247819228,1.9883058957271995,-10.66979778973476,12.76480284246638,-3.098432006933916,-7.475357060470906,-5.833631999368263,-8.345212916572406,-9.954943116294752,-6.634459497721908,-5.533359295850767,-11.698045576648523,1.382199884200873,-7.473730190128709
25238,,4.074219920597354,-0.9664769366512852,-8.289800960381399,1.918916451619814,-6.880006651984884,-11.525723283814663,-6.090405127040395,-11.772996705195556,-5.861272109018655,-5.963369556293171,-5.126011263110666,-12.816123974535609,-1.2587718595334263,-8.125626870138799
25487,,-3.4885631071307377,-0.8553226378806871,-10.645464480130087,-4.099304993490513,-7.133703420782701,-8.741432481748499,-4.091679869438713,-9.512117670704896,-7.165471030139937,-6.381204540019607,-3.723984550207888,-10.81251333961044,-0.5984277752697733,-8.92448529213447
25737,,-4.226440634306442,0.0603459527127783,-8.788986758403022,-5.487827056903768,-5.390153375266147,-9.663468935742983,-4.232890764388198,-10.2589206617244,-11.587984114537155,-4.897698270744487,-4.430694480936199,-11.76878547378184,0.8816626628418406,-9.643307315800278
25987,,-6.910994156123069,-0.7676034363741845,-9.835911279979792,-5.131762575175412,-5.896548272630287,-18.01542848240912,-5.089087087073855,-9.872885168721282,-10.569533985587585,-7.394854383172831,-4.756584886821611,-13.047874075173471,3.8811135531933374,-11.096261129796757
26237,,-7.0859542904018245,3.745212834268652,-10.902693682212051,2.1225050767610614,-7.545934879995379,-10.576051606091015,-6.328978018208393,-8.581678883432582,-9.097115471340178,-9.963034384148864,-4.07137149218945,-9.363711352702335,2.8673961819656237,-9.36359688154978
26487,,-6.550189165480699,4.132757377258619,-11.530669712797788,7.433462894308365,-6.278028358595437,-6.423065001155424,-10.638731222899471,-7.651556322787202,-8.511498542604382,-10.235805978963358,-5.126409343094366,-9.3914670081343,1.0081720136837553,-1.9514052060318188
26737,,-7.901049765784673,1.9595087486356428,-9.651488526858358,2.045814820158305,-5.933933902696334,-3.818635237989521,-11.382425772263217,-7.180785507976909,-9.073071664085148,-7.477656344677582,-3.446562671469284,-11.935299618767834,0.0278155507702407,-4.231979894061995
26987,,-6.450061895979452,1.6772614202092666,-8.803873528237366,-6.44504324662571,-6.231210653963345,-3.2702752663966783,-10.890560625412691,-7.253987895402036,-6.30117857726442,-6.622511835300351,-2.3664180219009263,-14.86185021584074,0.3936869307017017,-8.047495387958556
27237,,-5.858263745942709,1.4802372692823265,-12.060401799481282,-12.191689934249307,-5.36800271036948,-7.767563736256431,-8.2139230316217,-6.909801957996438,-5.140965781895568,-7.161854243463983,-5.672501343395213,-11.381286428816557,-0.123274865582466,-7.361362821780888
27486,,-6.357316256271765,-2.128437619355714,-12.417009125949727,-7.518344972209262,-5.786554296459298,-5.512728405696099,-4.290825477442899,-6.894173785023589,-6.769437615623008,-10.09280106062728,-5.7772388102624,-8.657358630076557,1.9564712491498184,-8.884796524571852
27736,,-5.81084979273839,-1.399189078294378,-11.637172173753289,-6.39254762299348,-5.155001358751959,-4.755587799012972,-6.312520567066441,-7.764937356672127,-7.173727459924388,-10.795612519624854,-2.876284806390592,-8.813616266875389,1.0631172691932207,-9.687463792599797
27986,,-9.629289365164148,-1.7916659612731989,-9.363185280800767,-10.369119326102911,-4.9087683537656925,-2.5300295478258783,-8.217688629285064,-8.406922862163242,-8.872156753354965,-7.991814120387486,-3.408990284299385,-6.775019270652265,-1.3328071583811671,-4.467084109363796
28236,,-3.3599297643669064,1.2054388529274542,-7.130092526263455,-9.948604380759164,-8.062601566372726,-3.151315961945369,-7.037126578742464,-3.655734318773614,-6.90618815889604,-5.74253941900995,-3.282289852530243,-7.032988437649966,-1.6189217529486155,-5.344803305215358
28486,,-4.024423434390112,0.086911961652902,-7.273675604275811,-9.976744666161908,-9.877437897731284,-8.229540314802845,-7.299758636814322,-7.158958306113915,-12.53215781156607,-6.704810184030734,-6.401674484720967,-7.104001975760116,-1.1102559409754191,-7.705650986679565
28736,,-7.56869383153338,-1.522025790485721,-9.111247947649249,-9.501308552608789,-6.293528773649026,-7.078521757865314,-5.775545634181628,-9.81033656795884,-15.769871939994282,-6.732077106660931,-4.069104593707815,-7.510559781298976,2.8061649199147656,-5.918996876919978
28986,,-7.850609734175405,-1.8176074366533452,-10.209807722039995,-9.85348229426248,-3.427025312456586,-5.213274966277969,-7.537531702967056,-8.342895660505999,-14.499762291996,-7.780931823150889,-3.650420536142549,-8.36604367411727,3.0516529985084206,-6.116475272461967
29236,,-10.293270982427284,1.5372827228807162,-10.293545442956926,-9.852939071298872,-4.180852535064039,-5.104050753738468,-7.0297841463718,-8.378000190923686,-12.03759355752634,-9.706260212508989,-4.569809154208031,-11.795057472188486,2.6543005012244167,-6.140995514867694
29485,,-9.370932332735563,1.4040037157684273,-8.409498202227127,-4.598283180057114,-5.898046463918423,-9.824751079252955,-7.09285765661204,-9.472478521682266,-8.667308844849607,-12.05277218155448,-7.392226551860079,-13.570939616107689,1.989870478719573,-7.5107007316767485
29735,,-5.803055347169337,3.6551328151682263,-14.10077535359562,-3.9438789498677993,-5.582395525568707,-10.677937662823636,-9.016270993755487,-6.232364318662445,-10.909630756229312,-8.143651397085296,-3.4384271850750063,-14.65959064288506,1.4498285457147335,-6.018275546356633
29985,,-4.308268367017249,1.797016708617134,-14.589276469376829,-7.650394011297768,-8.550654320964426,-10.06384492520258,-7.758791876443716,-7.781177100538486,-8.722188649360582,-6.062332090598269,-1.6900967817560917,-11.703468170997573,1.1621830453589146,-10.432784906274568
30235,,-5.168161652912003,-2.7343398253427265,-9.424427707565751,-11.852954544199022,-10.851571373564738,-9.314373930822097,-7.1320085014253625,-7.987313288820487,-7.973658082204826,-7.294694229423213,-4.346692565117439,-10.542346098411466,0.5878021102822221,-18.210678964341177
30485,,-3.758814802784417,-1.1142357854722469,-4.449665151853505,-6.540204601350002,-4.397725090163123,-10.306848178179202,-6.110413016114851,-4.658086444200442,-8.002853291037948,-6.47861788113473,-3.0993900346789087,-6.604105172845109,0.3347385113828632,-16.373006337839165
30735,,-5.340814483130489,-2.1071249921845245,5.310607139965916,-5.735171474888093,-2.95883508013212,-7.211796187422507,-4.950645813901156,-2.8106469691433063,-7.38775643917956,-6.540829961741792,-7.208459078124597,3.6730762859677633,0.723587947387338,-12.781505454546046
30985,,-9.174546424074167,-2.556778982066202,4.859998455681704,1.697967967925188,-4.33889979969059,-8.890990086814245,-7.185971297970959,-4.930356503292231,-8.335906804498109,-6.824686563528198,-9.372711540583197,3.39326728411615,1.0956318106739298,-11.608527340643349
31235,,-8.841357784488327,-3.028190123470321,5.024566749109311,5.831122314777085,-8.977158786038412,-9.229112591209834,-9.096137155900188,-8.809141066086353,-10.584956837945043,-7.186670089397216,-9.556542841959423,3.908325701487854,1.023380606145428,-8.005764950172402
31484,,-4.611167680945999,0.0330232840806907,1.0183802767521108,-1.9349106314776297,-9.058932050523858,-9.508751980315052,-8.431721714526958,-8.070258506157392,-11.580682431659568,-10.172989556374617,-9.642398137764712,-0.0444104697520406,-0.4664187702365213,-6.569474670278586
31734,,-1.195785848586068,-0.0743532873694945,-9.233234948271727,-8.642965917500987,-6.674682145018071,-9.753447133170315,-6.496170653154185,-5.869036580987582,-6.487755997316276,-8.454123510447536,-10.01154014435694,-11.438272278614916,1.246338103003963,-9.908980959769108
31984,,-1.968069506136904,-2.1254036799536142,-8.016469731268009,-8.202834445763001,-3.108883477137132,-4.231776665372031,-2.1287278376462484,-7.163660191424135,-5.769902800227476,-6.908555590407466,-6.676936465058768,-10.133240969914873,-2.036101939352682,-7.673017035857779
32234,,-3.406174948341138,-0.9626327936915724,-10.915531115555783,-11.666915408580342,-5.479192907119836,-3.4906877813591954,-2.534308061744896,-8.118247428117874,-5.710526693378873,-6.203468531576903,-4.200665654428468,-9.289574509266096,-0.5024489507497346,-4.6693198441169805
32484,,-4.693366205166344,-1.4697124088530868,-12.508807482546228,-11.049906988869708,-3.8173591583122186,-5.611846411317191,-6.170025668397788,-7.60000788292413,-6.566518808435196,-9.352890002631606,-4.033528453252465,-9.25030593968383,-3.997709455208986,-3.794193566007106
32734,,-5.918969690083001,-4.191057747348729,-9.643932635210009,-9.43954108936722,-2.0110798824611216,-3.939497028702652,-2.084821259203871,-6.796504225345473,-10.705597804770504,-6.930403039408752,-2.617205632501522,-5.8884623319098495,-1.9537662182196311,-3.312029691673689
32984,,-7.31259830145971,-3.896763483680305,-6.5481033389151495,-7.288195163122025,-4.083149076869913,-4.161541552632428,-1.2095524371242092,-6.039671922846256,-14.74333980257178,-6.233772993388367,-2.849111882121208,-6.070412756485741,1.3860116951867576,-3.225123030833813
33234,,-5.215777539661253,-3.640502727415472,-9.112091687962934,-9.170333286350743,-5.672793380720456,-5.691463598093719,-2.801924256605593,-3.768857206951093,-11.00685078111384,-7.525539153216277,-3.81749796618908,-9.81162110745085,2.683722947397204,-6.882715322932128
33483,,-5.625992743028736,-2.779280680712,-10.758119493161352,-7.906394019926663,-8.481372070263182,-5.774480548789032,-2.4476876178909204,-5.605717880527105,-7.391721416163117,-7.58871378994449,-4.437202448090458,-11.39315465304575,0.2585622985977246,-8.235539556571512
33733,,-11.87368930344208,-1.012128293644179,-12.550128873397664,-5.998334923828094,-7.970841784810513,-5.530835851860793,-4.717640183019365,-7.286953695454312,-5.432588105902445,-10.593124227600596,-7.266748500291093,-13.040187699876215,-2.833480533483692,-10.014362295584744
33983,,-10.180651486044296,-1.7157562466288918,-14.285305393579916,-7.188059148221148,-6.99796420708716,-6.304719476006473,-6.181957735380025,-7.596530198892676,-8.09328722002421,-7.1449119610914025,-6.388268018756824,-13.893249711281506,-1.8219840645970469,-7.890877274567379
34233,,-8.268830604225855,-0.1675993665610005,-12.838927260611674,-6.992684465955319,-5.01955274777891,-7.051129439992161,-6.596090960146385,-11.69144123017972,-9.716846149028276,-4.869094307053817,-2.786650800388939,-10.401516050737856,-2.733262408333283,-6.135795555336237
34483,,-7.890335120801631,5.523476892391442,-10.412530177248732,-3.884982088295259,-2.00612155709974,-2.8410565023162144,-6.717713155734057,-12.079565651654743,-6.688908331454833,-7.134062935108917,2.5416596474298188,-5.251568686659493,3.702009155927963,-1.5803493019835968
34733,,-6.1644994697353015,3.4893602473962178,-9.9867993171349,-4.62593925829519,-4.325891514269106,-3.47554804154312,-5.43553578028302,-12.43889998286982,-8.706694584854628,-6.580087217701353,0.3892023521228643,-6.322511353847018,4.1499176450006745,-3.2301189217440966
34983,,-6.197176854192094,-0.7620992940884783,-10.809297957223537,-3.333270077444212,-5.803942229026458,-6.861589128660182,-6.437078423326738,-9.461815021990809,-9.148345631778222,-5.978927270876753,-6.7995929308002525,-11.490548395036464,0.5126305869190534,-13.348292592931676
35233,,-5.075085325275127,-1.504005234036255,-8.359932568113413,-8.016629806256883,-7.170825317592602,-9.49070238558083,-5.306677986483037,-6.403240028330751,-6.643295881147573,-4.762120401263674,-6.372955214052952,-9.220041851799646,1.599923912520558,-8.42393225031633
35482,,-5.952720867712253,1.884176491113715,-8.951804206385138,-10.283574816177426,-5.190459721995002,-6.969368595750996,-1.717727202917536,-3.11235348881529,-3.1048290460259595,-5.022328620984365,-3.1896049748195896,-9.288293950351338,2.6049212315586106,-6.664088204092311
35732,,-6.514199416464024,2.617334001217744,-11.67783402741939,-8.718519319655178,-7.68603662955111,-5.936874507714817,-3.5055740867978398,-4.242495986460543,-2.810895662914521,-6.502171379855012,-3.069349816098897,-10.743219767862502,1.9753806106301932,-12.422110906476435
35982,,-8.129454475747746,1.057823219237218,-13.598790847230196,-9.481798459561242,-10.236728009374458,-6.263706393162844,-9.676799226324553,-7.622052235033071,-5.520540054278974,-7.580905095324266,-5.437112655287441,-12.04626285791146,2.308753242116796,-12.089841759950666
36232,,-6.269552458825363,-0.576892061716525,-13.555753515583875,-6.420725886150534,-10.356320975787266,-4.93095172238145,-8.983768026432644,-5.069272790756491,-5.794059602896398,-6.666967269473694,-6.539421587795756,-13.134063686546266,3.9883460672414777,-9.043682156765517
36482,,-4.126712587790894,-1.7122402070553544,-12.120371992823564,-4.867319145792949,-7.489226027914897,-7.448889798584442,-6.207113289380124,-3.260695307405976,-7.2918941932857315,-9.33730130708818,-10.098994026639454,-9.746268646814157,4.66218869670929,-12.34755688875897
36732,,-4.545230440991412,-4.25952398467553,-11.524353650222158,-6.41397391517268,-5.564773778724553,-6.6628658228001045,-4.828096331148156,-4.249576389691349,-7.635244207251319,-6.013880603197359,-6.509441605364432,-11.574877194203824,2.13027559224022,-11.08178640070993
36982,,-6.098879179301307,-3.5776415134975754,-9.41899582725713,-7.726583576256556,-2.6697471101113432,-5.392963109653817,-5.397434777887737,-6.246242035234845,-5.564001091091106,-4.381826771810305,-6.265308305293129,-11.38797730492646,1.7915539087477543,-8.105531791370794
37232,,-5.475924192825955,-0.5793858242177364,-8.884647940132728,-7.252402207990803,-2.656013301201221,-5.307631962867033,-9.430695158269764,-6.803272342099126,-6.358602557424254,-5.98987873664335,-5.880273745254577,-9.787431929801986,1.681211775695258,-8.834877042028644
37481,,-5.937941292443568,-2.0298794545773973,-10.681917025214728,-2.9508354765541767,-4.681437222850319,-3.935259664480008,-11.228181821713395,-7.08998778795835,-5.502840808460867,-9.10901532170943,-2.7711740459207683,-5.910928790306901,0.0373542022279475,-7.715251878695651
37731,,-4.64903443319302,-5.146164426306741,-11.036323852720027,-3.7807490601612255,-7.395138948952598,-4.593433057703036,-6.043093729184539,-5.809767902878175,-3.5668083658780487,-6.476672617046681,-0.581646522244264,-6.351267030732597,-1.7755333283935033,-7.044208578299662
37981,,-3.9174720955580393,-3.608959818791349,-10.97009895051312,-8.823051341746371,-6.813537327345971,-3.885166462150989,-5.513198249276156,-8.367991881469942,-4.704510182427064,-6.571304032398544,-2.6167907722520543,-10.298643583422423,0.0955056575752309,-4.7917789939959015
38231,,-5.8757715252179965,-2.181008041094349,-14.557400854310682,-7.210227202908126,-8.090450634236394,-6.045599408829656,-10.09143340936648,-11.591965569995214,-9.377495251670728,-9.379525179352417,-4.723887691606002,-13.582167264315288,4.810163865888113,-7.120826906843373
38481,,-7.604884947518425,0.5407725828656359,-13.963126380786653,-7.985932874675705,-7.648708447594351,-6.321402147179206,-4.914570107403392,-7.000815784587147,-7.475131604682966,-6.934782672818894,-9.212791764667214,-14.013116437862331,2.643831699508812,-15.222530082262784
38731,,-8.824381244093901,1.16826130589461,-12.73372433367676,-10.075548858753509,-7.993139008039333,-2.8778940314979478,-4.797496701770649,-5.744062634402994,-7.18550321481673,-5.6162456230891245,-9.224148954707442,-10.191754390017136,-3.571385158199238,-10.277718495975932
38981,,-6.905477212669016,2.2462857142174144,-15.234323242089465,-8.227860163214995,-8.675063274946606,-2.339888403734672,-9.693512633996384,-3.4106385761618823,-5.300413402008186,-5.068114876344419,-8.425828930957081,-9.282417632420549,-1.6705332540075315,-7.694257086182418
39231,,-3.7035210492340815,0.904379609840279,-9.899629907723352,-4.611889490419502,-5.7977939036150055,-2.343315709224176,-8.34642947444038,-3.9317243548660703,-5.394450603792892,-6.800970192788003,-6.698653516529179,-10.676047003457183,0.3950972776419852,-5.181779335798927
39480,,-4.297492643813509,0.8230722371927633,-8.877315162740887,-6.146868835951914,-5.116179275446148,-5.754743182756212,-4.8752662901422505,-6.573093036040864,-5.835841431580537,-6.158227787372858,-6.550729622388626,-11.415496619215084,2.690633021947164,-6.511131553692248
39730,,-5.695482638293569,-3.3307000812845446,-9.269315176752238,-9.32687549545814,-4.0592310693869615,-9.028120923368698,-6.068155571796897,-10.748236912587403,-7.886233929286432,-7.765581896071689,-6.602767650365257,-13.27491192786972,2.087241341926509,-8.66516757850129
39980,,-6.034958923189389,-4.778250233917366,-11.1703010245009,-7.624139635561318,-4.951284613508985,-9.054699854221791,-8.438589712674085,-10.2029635107884,-9.533649324447625,-11.656924244761402,-3.783891527041128,-12.011918892068298,1.00169748059722,-9.307310106332167
40230,,-5.475241460121859,1.931650980128616,-10.166809240349508,-6.914559272823175,-8.60424116235899,-7.218321331680254,-13.461151399173149,-7.739187908323829,-7.379279952779095,-9.817292500377674,-4.313134528040154,-11.520800793364623,1.87723823461706,-10.040583226181772
40480,,-5.263558538976778,2.7423376791797134,-10.627865695705577,-6.964192092526778,-6.150281373997242,-5.190527958770559,-11.454368717553663,-7.408437215531975,-5.637761528294155,-7.802862158952396,-5.0822010188193945,-9.114168226358055,3.134926452707477,-10.448278051519232
40730,,-6.5268366899982055,-0.4426284274605708,-14.367222886574226,-7.98294928264724,-3.212011737545779,-3.301501868502423,-7.544101317775469,-8.728546787184381,-6.368434889933194,-7.168703656471128,-1.6193996294269477,-9.030920683254443,0.3187102053373075,-7.40137893727684
40980,,-6.876823200756002,-2.947905211306514,-11.96561858991424,-4.060782111502394,-4.902378242608011,-5.7956001308553855,-8.704399746872227,-7.889863030872415,-7.988475794756942,-5.621482962937137,0.7167239173531201,-8.824844130384195,2.414140488075237,-7.412441652646022
41230,,-5.79854490148581,-0.9974059899657954,-11.051298406938193,-4.037412421030507,-5.635989206083634,-5.261027066804193,-6.044657660613931,-5.883371736855193,-9.680370924573284,-5.864069998801224,-4.2842900494121805,-7.800026113691394,1.878875681479948,-10.592851014988817
41480,,-4.96683472421494,-0.1270885995984602,-10.855939332026542,-10.62148066110886,-5.310076378567886,-4.890009537777069,-4.52600666149254,-5.85718583871217,-9.203760021336544,-10.33982183903477,-8.608334986198598,-7.993327976547291,-1.841184045319632,-9.889221633273992
41729,,-5.154075493110232,-1.6285098471190131,-11.330668202150404,-8.27669402921592,-7.682407256036514,-6.017262814315058,-5.210623813798689,-5.573273794247998,-8.823800910993793,-8.526930163027775,-4.593195404765462,-9.3730251168991,0.2466476352513507,-6.388140650144831
41979,,-6.7571003256575946,-1.0076814871858697,-11.760876353753297,-7.217521322502173,-6.8471063638937295,-7.682123326883059,-5.757419816609099,-7.251216507836464,-8.051647210393435,-7.630440929460192,-4.964381860154052,-8.33301135474974,-1.235574722460694,-4.720073981591227
42229,,-8.268783412467572,-1.0457970159361205,-11.71282757539126,-8.863635749176414,-5.027510262027038,-5.259763141978241,-3.4127845110443267,-7.910014895922077,-10.032347403013894,-4.591888362432794,-4.085112290997659,-10.903570041747956,-4.211309399404116,-5.683976260289018
42479,,-7.005304855764361,-3.518977741247083,-11.570753986879655,-7.143232423951257,-5.038259092241981,-4.443217719199288,-2.1759603736683744,-5.119492296664715,-11.331013333393416,-4.502610446133582,-2.8483239205628803,-12.380654173733133,-1.4976298926636784,-5.553927359190696
42729,,-7.403381086970686,-5.205389064587612,-12.295477657063348,-9.86462183199518,-7.186350362567959,-4.046879402064572,-4.554377906092265,-4.688270659191557,-12.187445772393351,-7.005731434047718,-3.4126149772866388,-13.56188293139422,0.0736973993944737,-8.047607021739273
42979,,-7.004472242377093,-5.651078577423848,-13.379662914642418,-10.922310925253544,-4.80416761209486,-5.593339302861863,-9.251212464283968,-6.862737445947058,-9.143870656409725,-5.346119532830921,-6.490843727801053,-14.801297233167062,-2.352533081359459,-11.304733872435458
43229,,-4.895548245087374,-0.5535362657279403,-10.872547816648632,-5.708148829604979,-5.231571363457524,-5.593146649314949,-7.0977787383328605,-9.02701977827127,-10.470094321162245,-7.906926323473336,-6.77001659041102,-13.038401252460448,-1.8997266275428908,-8.55040696158386
43479,,-3.0417687634354835,6.706889836901482,-10.428293486688103,-1.7828197126107344,-6.12870881886348,-7.132540012249509,-5.45466605282833,-7.212023210138812,-9.788600641365402,-7.773624764609992,-7.531354669118481,-10.450799027577697,-1.133844075731523,-6.890741325280239
43728,R,-3.192576335063148,5.847915017184872,-10.977359679551864,-3.671759203809159,-4.091093759792507,-6.619852168045528,-4.2785417590635655,-7.593867502610065,-9.682477865724298,-6.252997268464753,-4.086548342177544,-6.600423978479643,0.4799325605132013,-9.743296233038883
43978,,-5.945944627134669,3.673858785668413,-8.551153898911327,-4.502846443055631,-6.007831769171283,-6.682436292471343,-4.900741901726874,-9.388983908554216,-7.547943064311236,-8.190889414177587,-4.865471557956248,-9.01824423189218,-0.1531408072537738,-10.077306810799543
44228,,-1.7796255318311252,3.506848942671948,-10.095202859344903,-4.522383170649134,-5.627378275468223,-3.551554593879945,-4.317436198425748,-8.17287127209897,-10.273480875588564,-9.496267985910526,-7.360271888890906,-11.705975259704328,-2.708275116867396,-6.981782558664418
44478,,-3.287023803739823,-0.613188224249128,-9.532963493586715,-5.470352233567496,-6.859892083904027,-4.3550914761027935,-4.828597723422225,-8.275263909154976,-10.716539601088757,-7.127618887692932,-3.991397578051392,-8.835768568953064,4.588016833573891,-7.274871930892863
44728,,-7.600983758796866,-0.9941237469793668,-10.892967857908792,-6.1272707534147255,-8.745694377710041,-8.008876445312824,-5.890321430206358,-10.838255572377452,-7.2870902626665135,-6.034694267505872,-4.31173066981583,-9.062311987766288,6.621789454561718,-8.154151050418951
44978,,-13.187280169090258,3.647341900244768,-11.583499692070117,-3.664015066236113,-4.533915772333948,-8.017630267429531,-5.426992040648568,-7.406229419177443,-7.708114883699223,-8.902285717433093,-1.8437172246567772,-11.302064793967432,3.959105638900037,-8.03270293177765
45228,,-8.755516535156184,4.74005364852392,-12.73869527417939,0.5136495017060673,-1.978961312567404,-3.523117695470146,-5.635207865961914,-8.646464009868954,-7.956938572247255,-8.555140876053951,0.344906706902218,-9.203532408318932,1.5823684075367617,-8.874439238264566
45478,,-6.774721846052152,3.471801085166186,-11.118320450914664,1.2585445342501076,-5.525183102563366,-5.573113206590559,-6.027906671039252,-10.77391103499811,-8.799475506239881,-7.758317464676292,-2.899921918635937,-8.603733528840621,1.5367791882596475,-8.29543636160622
45727,,-5.265249218723128,2.3824995602069,-10.66989327104303,-4.802014179464661,-5.049537659566359,-6.819825544233655,-5.917191295220304,-7.362584958802946,-10.513476158267547,-12.23270636169804,-5.568799327908095,-9.26884402084723,2.375553484222185,-6.893873530667742
45977,,-4.97340324333373,3.914757090619493,-12.030158070349124,-8.940857436472573,-1.4277410585593031,-3.458581556606036,-5.742777258636739,-4.940829330180526,-7.851096147995717,-6.974501954594339,-2.2825503012473662,-7.828415383354464,1.0848313160989835,-7.152504135385854
46227,,-5.319787257050041,3.90145331239443,-14.88460202261177,-0.7171719687919086,0.4852854032018927,-0.1774985473955692,-5.313895711169082,-0.9683342476200204,-4.726743728737617,-2.9288114089391537,2.0199052990819606,-8.61030724780813,2.308543252545136,-7.811319656704317
46477,,-6.580409699742513,3.292619367859773,-11.636537385573831,-0.2861989508242371,0.4125721668985505,-2.7559058053891228,-2.564761159614964,-3.299686263678811,-4.142455497443324,-3.24272795712395,0.700216112857381,-11.185647236136226,1.086171616830048,-9.050488080026938
46727,,-3.855114305913128,1.474181811022418,-8.337658396450065,-2.883727780954261,-2.444659324088801,-0.8384926184541073,-2.967990288453369,-4.893378593500632,-4.136103104138197,-6.4337843801999615,-3.5392173678825154,-9.144840780765756,3.2738257352171605,-7.355573074583078
46977,,-5.921957629461192,2.769834091276877,-6.583190766705385,-2.5115709146051888,-3.155159018248984,0.4861561490695795,-2.5671352006671984,-5.81353626145697,-9.2119114713917,-6.584999455219488,-4.621918182245502,-6.563366821347497,4.730144407749983,-3.1821390704990917
47227,,-5.758093361109316,4.500711653312534,-8.010265857649898,-2.578966927792948,-4.713345352526246,-6.642094498147228,-5.327989274112475,-5.780902177378064,-10.870792313828858,-8.445793020198575,-1.2975080768052605,-11.092150826014755,6.872603646365278,-5.676479432868148
47477,,-7.754214719744983,6.9245864445071446,-8.046790477176398,-3.050486152559845,-4.482393417177474,-7.124440729728152,-6.107190829527939,-7.774231582870299,-7.927656309363434,-11.267205005612633,-2.755383470908731,-12.007316829401226,5.150384439464971,-7.433833582151181
47726,,-2.956524056860792,4.912577771656546,-7.118303271336488,-4.8025960099224365,-2.9770338120909594,-7.633991911915383,-4.524477686757508,-10.15749976915465,-8.867716899845286,-10.816664874649373,-5.63434418990955,-10.567631939904777,0.5714381056454093,-8.315393151608339
47976,,-1.2585207104680818,4.630607085464988,-7.495912788088868,-5.6214638566210535,-2.768375171233824,-5.335087402057482,-7.907973203153251,-5.946803924370757,-9.35435842536906,-8.789088769158136,-5.363538691605951,-13.915512010511469,2.287738160636054,-7.105451516107869
48226,,-6.751121774746976,8.08437679652291,-10.507673540679514,-0.2840701087013287,-4.125455303762155,-3.810847822029453,-7.401543764410632,-3.007234947139674,-10.397239045027511,-6.110382521277906,-1.0030215106758258,-13.243011010315517,4.835981558391581,-7.369288455493685
48476,,-7.226979101814583,6.996970171047354,-13.978058895136702,0.8052276031100353,-5.483207663735187,-2.9868895487032114,-6.000506515130251,-4.4463354623570535,-6.530122071172395,-3.526998395114312,-1.0300622317058954,-7.9667559693028975,3.3521886737046245,-4.7267055225534165
48726,,-3.743284883390478,4.476344995668932,-13.78152228337431,-3.6536888441652615,-3.746315800504112,-2.808655912541976,-4.449923656070412,-8.878794614585585,-5.117931946848142,-3.4876234664179884,-5.396575506279458,-7.991287785747836,2.421220859612298,-4.586713231865012
48976,,-4.096284400955029,5.502743099153778,-12.791683247710164,-4.279658675501614,-3.9935715789966086,-3.0783820190362885,-6.105331629125122,-6.538148380920764,-5.333025933250751,-7.617060527712043,-3.1016468161696107,-9.750456320989416,2.3110397105238367,-6.063333968412236
49226,,-3.7969431866810983,5.50977712383053,-17.392373273027335,-2.757232772645001,-6.570901609794023,-4.938348449352463,-3.3347036953056595,-5.686818575735174,-4.905051825415035,-6.560355918835357,-5.016884485510126,-11.47004738930981,-1.0820885538935825,-5.613154604548155
49476,,-4.938600668808913,1.7162353594130997,-14.87923145496303,-4.239542010421208,-7.754872221183006,-8.437421555060919,-4.997021704804946,-11.376129241459465,-8.451585958694315,-6.584388892533367,-4.431567772555775,-8.29029710955689,-0.2475039992556638,-7.969007479127813
49725,,-7.678895581768908,1.6041615793949238,-12.181835318206408,-8.08087733910292,-6.344720778254832,-10.043404680128363,-4.035012245400717,-8.598671753398332,-10.020225231973823,-6.560526398541748,-4.273762424183615,-8.78323277464048,2.35956839340418,-7.5495815199718495
49975,,-7.191777707989893,5.375061309557879,-12.363725058750653,-5.6596688662077295,-6.093467230455872,-8.810558737027936,-1.7637808500484908,-8.019503039828242,-7.562700284631739,-5.539825822864927,-4.692559944287962,-13.06684519038854,1.1496680953109593,-8.798967624110013
50225,,-7.396126896987356,3.0877553711005707,-11.138050649100268,-6.142234504308436,-8.625805756623087,-5.535991241565588,-3.13024884730152,-7.759510641609379,-5.96458820888903,-5.606371300714306,-2.284801243046949,-10.869033551399612,0.2509733747354384,-7.922988481843348
50475,,-4.400550374723951,0.3982875023157035,-11.05765540680129,-5.741429907692579,-10.016317953086048,-4.150390280976659,-6.64930624193026,-10.464868413183702,-7.244334563483936,-4.234493190795586,-3.2757155302273504,-9.723045591463285,2.993526397391864,-6.809627774474482
50725,,-4.730337726859244,3.5075559744080422,-9.02179319095838,-5.585661365036055,-10.569545551240092,-6.037812380009048,-6.654478895007966,-14.830489588682084,-7.180085348503049,-3.1252509325476825,-1.0686390322788684,-10.658408638387291,5.073314233441391,-5.590350546083469
50975,,-6.286815258328947,4.829184910660155,-9.05502460833732,-6.253773358762195,-9.534879747119763,-4.630744904386187,-3.859724470490109,-12.588952739983592,-9.001136752957498,-4.305695587752094,-2.0050790853499434,-12.311925424529438,1.5881315674849652,-5.225264048386272
51225,,-9.286932918844489,0.212279962451995,-11.787512583444212,-5.202932605446245,-10.47746529908636,-7.171581090584809,-6.600891102753792,-6.449225119095932,-8.959233906437575,-7.118776647046243,-4.885551454687441,-9.53979960041364,0.3826798707259043,-5.810560544688347
51475,,-5.238701942061814,-0.7930640764681853,-11.93889841841312,-3.370066626185273,-6.645825613619508,-7.151714748985761,-4.924499471302188,-5.061339573390004,-9.365893401824607,-5.564181606546057,-0.5145151004742707,-10.416304577861714,2.81702836983177,-3.220099763965769
51724,,-8.140635217536788,-1.8715874801062864,-12.288077706369949,-5.251264912861677,-3.1822649740235622,-9.539506596424998,-4.125318269340269,-6.015804634905009,-6.95355124475746,-6.003275054352012,-0.2945173493466526,-10.178178688592164,0.1052617127879566,-7.870701780572954
51974,,-10.057379115652305,3.043493431468866,-11.394233740580798,-6.6723416375218765,-5.303817435898291,-8.818911219747726,-4.889957903372135,-9.434186587164138,-7.71400800742788,-8.135559819991201,-1.6641920570014144,-8.946479078181724,0.623568853217376,-10.90694858790716
52224,,-6.167702692531592,0.2765825217825589,-13.183595308733626,-4.446968846699887,-5.985848033566862,-7.629003208780033,-6.996126088292092,-7.898065258777623,-9.531967244560366,-11.93596219786948,-3.4906578714604697,-7.8599898749864625,-3.475765381424183,-10.259468493246509
52474,,-3.741469889209817,2.301185657695393,-12.5077831516174,-3.637044203621992,-6.265768697753948,-8.244353508878335,-7.665861011440737,-4.168561263706109,-6.160401627094496,-7.514816151365941,-5.036559377150592,-12.825482720214495,-2.328323685422764,-9.117301302187888
52724,,-4.998017720477293,1.9583425211859384,-8.978487246249978,-3.8022282003039134,-3.9104300645205967,-3.7878025677932,-7.773146326288302,-5.05767832288543,-4.760627674430991,-5.890205587583659,-2.4772512822420416,-10.779862333258158,-1.478886561551607,-7.906082617356581
52974,,-9.171454695411777,3.559122966475062,-9.250157168678442,-6.636534687629979,-4.862022118551419,-3.855516593057733,-7.389961985181374,-3.662076636620478,-7.560668426189739,-9.275091551859562,-1.165006641978856,-8.817127657231687,0.7555803333063632,-4.506045261513737
53224,,-8.019087121012634,2.927865094708679,-12.022338213832873,-5.1504079670810485,-2.781333261404927,-2.976043689028046,-8.32439413007725,-3.410465701359724,-5.001154860928526,-9.576094472825128,-3.463662721176614,-11.991414251250564,2.76921119571195,-6.675495806219867
53474,,-8.63046025929156,7.509573470630066,-12.41042989445528,-1.766110686063962,-3.676678150056969,-4.096803155141997,-4.486575340251796,-4.387298299564815,-5.159408120002801,-8.754362551952093,-5.4730019060739945,-8.193188235850908,3.71951583388668,-10.84030584063509
53723,,-7.085704505876805,6.566659031723879,-9.200180893790954,-2.6316574488354503,-2.904396938433589,-1.3389941722610992,-3.776676326805281,-5.3106746505372175,-4.841908670488042,-6.097347144153237,-7.4283169439618035,-7.553137717746033,3.967467877838137,-6.381468449674413
53973,,-1.710691164548782,6.55979169900224,-5.666962537203738,0.9240903590213274,-1.263133284189653,-1.1424940103860095,-4.424045634924507,-7.918907200538509,-5.248717577850714,-3.3089436713609084,0.101022297047768,-6.779630357002128,5.989572405103133,-0.2460744361041415
54223,,3.5491049114880697,11.445010231985876,-2.3114119195815066,6.973807981348603,-1.208114898328321,-4.02346432326982,-5.942121298951437,-3.781962691103218,-1.7245643537755346,-1.3337184197864955,7.001172068417244,-4.9374815577868025,9.95275960560991,3.2994534875681074
54473,,0.2273338004669897,10.11306481719975,-4.068581596866739,5.816438475580677,-3.380516149428952,-7.721467082176119,-9.952713288451374,-3.6002285102782,-3.5988958332312078,-1.687053619243688,3.865964331353995,-6.900392971920686,8.606762342483117,-1.6360097940509393
54723,,-3.729595854370775,9.188076418179406,-5.911589276090564,4.197724437453664,-2.286641262730731,-8.03650776709837,-9.100616798267104,-4.237971147645255,-6.227162977316362,-3.210882912081451,-4.053900561032352,-8.44644621090064,5.88466676610452,-6.360078863148341
54973,,-1.5799760778782743,4.441760552276131,-8.097964769378255,2.066196708127582,-2.2289868608965087,-7.066409919335454,-7.341021534237296,-5.948784546691158,-6.692404697931442,-9.397892202381325,-1.471627177894255,-12.30922689509672,4.787651908788035,-4.768465088696431
55223,,-2.324252088766733,3.4447462891416576,-11.986027659217685,3.553970769105556,-7.86927044719643,-6.487355780876001,-7.405235772126703,-6.308803211013619,-6.928497850462373,-11.298924415745963,-1.8709460469336257,-9.22425065805884,1.8572050513190157,-5.887380467914836
55473,,-1.3133127469584382,1.7271148905171974,-12.362029229638129,-1.7122681791795968,-5.048776577116011,-7.2364820996984225,-6.291656655491056,-7.689854793551001,-5.791846316555679,-8.633414641910926,-4.409536846511754,-11.202123252831324,3.318085210935242,-6.01396936192693
55722,,0.7590632800970087,-3.680684915891406,-12.954225163743736,-5.766834488561912,-3.990521565794992,-8.61422343320683,-5.264646814827836,-6.010272712863001,-3.984839013857623,-6.174480537017568,-6.734366736911257,-10.883596347594215,4.13598439497692,-4.401501350933319
55972,,-0.4417436824369374,-4.229913241374332,-9.623937401609297,-7.180999895550441,-3.346225643448934,-4.7277462778811055,-6.594524881756567,-6.525454003801261,-5.270247294173069,-6.646328716041862,-7.502356349840426,-9.86844558348858,2.278209091458676,-5.784687438553901
56222,,-3.924910707156213,-0.4488290984980195,-10.24470797463212,-7.912417896913584,-3.736382277219168,-3.1386455025759097,-5.705470131818026,-5.386684953783718,-5.278683250096529,-7.951046870908186,-8.118377774420386,-9.942001756249994,2.6270063542510407,-9.446823464464009
56472,,-5.098725767997728,2.487401937101101,-8.663288577207918,-6.64550938594973,-8.364310364652411,-2.851751217775865,-5.675928415592458,-5.627468987278706,-8.640855240576164,-5.794501257153426,-6.687879310222815,-10.890985142427647,3.381842104977029,-6.848594555885802
56722,,-9.854619690396037,1.0950880020442109,-12.823835149068856,-7.070025221148003,-9.533647621818291,-4.559179294257223,-6.733299012325039,-8.523270926319174,-12.621676482260414,-4.6075513147289895,-4.60891182486555,-11.26227735762576,4.041975980152771,-7.683343912985202
56972,,-9.228507707223208,2.7868648477857527,-12.136219123228042,-5.4873271879102,-11.220969229502252,-4.589154211581515,-8.438913956252364,-8.37141178101101,-9.95007780015966,-7.830032313648862,-2.924373736212446,-9.495266095095754,2.33832497811861,-9.044036363227931
57222,,-4.485842279780591,2.177620156467478,-9.759373395229511,-4.844441941701748,-8.934073154400698,-6.090111382180034,-6.749595214483111,-3.758069679969531,-4.230662793956323,-6.525228237062258,-5.37511281071243,-7.929760967159838,0.5149288938567674,-6.379108489261828
57472,,-5.516121966476152,0.2712836154583826,-10.594698514715091,-4.735333225891432,-6.672605571444807,-8.356562325416157,-5.9804441762955545,-1.0749723412234082,-3.1521321258442176,-8.139843533485939,-1.772107787752513,-10.109263473808973,1.582519407351194,-5.679386158288157
57721,,-7.293339827616165,2.040819601206819,-9.698141133443984,-5.748031561821106,-6.720613751700939,-4.783819662576396,-3.7198009039079927,-2.38710593449982,-4.269227497637593,-4.589545492305967,-2.04340904409718,-9.09108374451966,2.5377390739696626,-4.800525261700495
57971,,-7.738380454693052,2.8095003451179057,-9.320942633250407,-7.668513226544982,-4.846905237989626,-5.006344425641402,-4.983699116099631,-5.771555026355592,-4.942745787202899,-2.8582901335953355,-6.291475104123865,-9.700797902346196,2.221864841211179,-6.739369223569237
58221,,-6.674887707706924,-0.2596715946825421,-10.08271939417093,-8.429322005767183,-4.533526589318156,-7.722463993171758,-7.384968171846317,-6.994922477183694,-5.18803085369973,-4.6279132316324745,-10.990136294165342,-9.748010335573555,-1.7171818019799,-10.187208843374936
58471,,-5.896420438999977,-0.0267184781444799,-11.274327765037937,-3.492360868265936,-5.182765371068214,-2.5250250328663237,-5.802481179707844,-3.916903844237851,-3.419963832261814,-5.134050944629863,-9.2391547466524,-10.83820758188847,-0.4016836603265308,-8.08792352133709
58721,,-5.973469831699054,1.2173340733523796,-10.790246362979484,-1.8512371563944037,-6.45897751857389,-2.833402170673476,-5.985876258037718,-5.488711564766842,-7.21937469629527,-3.293409237932859,-8.21354667247033,-11.905861421441193,2.272004270248443,-8.09551539851989
58971,,-2.57435850605594,0.8755806669236603,-12.617479712797904,-1.3570875904904176,-6.111637955789705,-8.00079771685459,-6.630009200007184,-8.08297983222121,-7.23542341752769,-4.639030119344771,-7.047759194247663,-10.223787235359918,1.4469837177070048,-10.662122896704105
59221,,-3.700316632017635,-0.5251103150962069,-13.746181625162496,-1.049182252666054,-5.9860594751724445,-8.160124425016607,-2.8722315043126785,-5.410353765290337,-6.911955275441784,-2.771555691457529,-4.044419638516019,-10.421669931890438,3.723813254699396,-5.375986450473355
59471,,-8.300708555939117,-0.1773451467470181,-13.984795000570625,-5.698171154731195,-5.497963528014788,-5.741019021259196,-3.352299782416186,-3.4285563364764697,-5.365444023151565,-2.78623842942192,-4.185717647115114,-10.327879005247148,3.233631208069554,-7.978553670076918
59720,,-6.825205075560276,0.376941785249325,-17.12582487670885,-7.795373279421087,-7.638012958394652,-5.409972315602166,-4.692766088591637,-5.674950057927046,-5.075496358380008,-7.456285157857293,-5.604322080815267,-12.23189250053712,3.1602910791807197,-9.39698239814319
59970,,-6.01777344341264,-2.6175100201949464,-11.355273147865578,-8.947889377281017,-8.65728970821858,-5.612571236562984,-3.4646476197225247,-5.7377475881329545,-8.049500963245057,-7.796238698026703,-2.886802176592026,-9.5674370478388,3.359688273639281,-5.393952978256725
60220,,-5.887024926942338,-3.692512629994957,-12.056643992005116,-9.955930984334028,-5.695981289495533,-2.8844867089886006,-0.9600441955873874,-5.812797131203544,-4.828834105554581,-5.457610563958215,-0.2467335593782983,-8.14698785163528,2.667792893380092,-3.0501461582013074
60470,,-5.808654281531136,-5.96219635187185,-15.635439361701238,-10.37190019955168,-7.808437951181412,-4.022462207720356,-4.074183586667583,-6.918026431581775,-6.243301509945195,-8.00386884851576,-3.8932820260198433,-9.60564099881876,0.8027255971280649,-6.222694579228699
60720,,-5.705124153990574,-1.3147084536586735,-13.773434497616917,-8.81616465960296,-8.20793377633964,-3.086387502061427,-5.142390125641655,-9.401169397353184,-7.752942712494693,-8.327008925518172,-8.695154897016504,-9.162469121158743,-0.2548689163812115,-9.425283070908655
60970,,-4.944067209480217,-1.4854165611616563,-11.431501481515634,-7.74478045863911,-7.607088751887146,-5.280416196146679,-3.231007168628521,-9.216725010871222,-4.501387093527552,-7.084150112628129,-11.088320275565836,-8.965818328155837,-0.4733366041039019,-6.319175655940349
61220,,-8.053841217243075,-2.163978305118897,-9.901127580191142,-9.352536452026513,-7.120183799925827,-7.606377741259042,-5.140302438157701,-11.973590429436726,-6.731061189830701,-6.219009199226193,-9.836465259115403,-7.445792534264175,0.1611058593104256,-5.581715910125848
61470,,-7.2183576485610015,0.6314164033424603,-8.851312154640796,-8.697103882538089,-5.8468337102842725,-5.731292157928836,-6.699582963944877,-9.997188203372966,-7.715040529757841,-6.579093940094131,-8.517416762006803,-8.337980994284571,1.7303773712504342,-7.725317474803992
61720,,-4.96854435442115,0.7277830741779607,-11.580908853199702,-6.57955606341448,-8.02876852286417,-5.1278069991028445,-7.098800953693746,-7.152389371069835,-5.712420902587692,-5.875203946610369,-6.696338991067268,-7.660212359786992,4.439439352435316,-8.657552207231339
61969,,-0.271474280862139,0.5403435810606089,-13.615769960291884,-7.000655091462611,-10.619060486383333,-7.204007435031841,-8.605632030477759,-5.877903834241066,-6.81823775675646,-7.732536807505264,-4.308839442293879,-6.478124102533759,4.614760269342031,-5.700652438958076
62219,,-2.4947177370987945,0.1375632364900874,-12.119534426030851,-8.918100310837184,-7.618842334125492,-8.25518665512013,-7.063265109497827,-8.620708298875886,-10.520252428400308,-5.227373099730488,-4.935462413728427,-9.303539557971389,5.28799512375845,-4.619092072786167
62469,,-5.042390501335684,-0.5398635915057912,-10.566401505002926,-6.24556605212323,-2.705155308456045,-2.170004519225325,-5.5695002814598205,-6.598000442856181,-9.519617371793396,-5.724634195740262,-9.131832728958562,-8.144785872860435,1.3355061740057117,-7.806424037211262
62719,,-4.388735866167069,1.2321831070263898,-7.822965088885557,-6.472053897093221,-3.789274001682964,-1.1762502143205846,-5.838691304606606,-4.762717325617636,-7.524095026049117,-10.4005562574379,-7.303061906384409,-9.590228498016254,3.069275486586917,-6.816806502520578
62969,,-4.409406777452492,-0.5686194972991456,-8.048804310795113,-5.697697714919183,-7.624916291317389,-3.043046212718937,-4.158994298502879,-2.742894274840201,-7.4499968743004175,-10.225230415749316,-5.898955723683091,-12.383608429665944,0.6226044435544245,-6.9694028211644
63219,,-4.910101464990182,-1.4783974061718874,-10.177009642534449,-4.487279292373888,-1.0766729955142995,-3.0348438639433484,-3.097284892071379,-4.471242937707106,-8.782256696376114,-4.900215714355697,-5.392590137882175,-11.915696139315122,3.344188731883659,-6.652538331409106
63469,,-6.150697091715987,-2.3405527963231143,-12.490939727242065,-4.419782151874369,-1.6080956582433792,-3.076045833981778,-2.22127548998014,-5.4173434107216965,-6.514636345002272,-6.099742842925423,-3.8689465602790714,-10.534687569743095,2.6022139601422047,-4.542732423930726
63719,,-5.22755200947068,1.47895961645989,-13.751204341023389,-8.611590100008966,-6.200612007129344,-6.181329220138307,-5.727479321434373,-3.943835135199828,-7.428091894533062,-8.85254255400305,-4.785026672272411,-12.1541424285875,2.266229368935751,-9.09259558928007
63968,,-4.737412882176386,0.3126160955547177,-14.11316498308911,-6.875887817234132,-5.745977739523301,-10.550509398430693,-6.407387786622644,-3.5393842983110835,-6.797430790161756,-5.471807623565636,-5.680234192407618,-15.00111830179783,2.3925818769261853,-11.298897328192645
64218,,-3.470289630464184,-1.4325945844599088,-12.292220683214248,-5.162868651167618,-4.852960319293024,-6.821139763504008,-6.12065944883091,-3.7754008772046186,-5.699961632660173,-2.434497317937514,-11.065757930099178,-14.193836973431331,2.601256500819443,-10.341211642184804
64468,,-5.180049183762279,-3.620491889369994,-11.770928396205672,-8.706913639874172,-4.2424682538717375,-3.0773566917441757,-6.957969087112238,-4.608296617524924,-6.217861200625073,-6.830497854085974,-7.620593664720506,-13.720125581725544,2.9050991773032937,-6.864605288204451
64718,,-6.359158247192575,-0.9388070118898334,-14.418003781714877,-6.694519807933563,-7.597099953564019,-1.7398394000286308,-5.902115154295887,-6.355891074325802,-6.854779899954932,-9.686816954039465,-6.260999354001301,-11.775878298687326,-0.1020816713897376,-6.763154978941605
64968,,-7.798685237032139,-1.935029452282027,-13.547409915006124,-7.576742386489558,-11.124219729578538,-5.613197966538733,-6.90197770965971,-9.490892823907645,-9.299496472191985,-8.092898705357342,-10.856851670096646,-14.323797981187562,-0.7277062842021029,-6.76277743255116
65218,,-6.873496713887848,-5.848583822605372,-11.52720336344805,-6.6203307858617855,-7.997700385523824,-7.740651354694677,-10.163807717366858,-7.411173625392752,-5.45329949232864,-11.28129522988652,-6.269164923910634,-12.510636957221644,1.9040898910388728,-10.22794874058996
65468,,-7.481070848184085,-0.1343015967757491,-6.309560938231496,-2.2463912009487936,-6.116750129916633,-9.924840657195812,-7.50238861759432,-3.5208981077468304,-4.471434054125366,-10.61212878753982,-3.4804454858568654,-9.93337194272555,4.620918181436321,-10.4066307144687
65718,,-9.932966121625638,4.650824284021976,-8.81894190421781,-0.1434743692156026,-4.879597268679048,-5.492380081267188,-4.563623263783711,-5.107494829277827,-9.57916779720917,-6.693973209734223,-3.6746224757065455,-12.094221974270583,3.086334056867665,-7.529267933001504
65967,,-8.545031637678166,3.31591281976793,-10.708074446053434,-2.9420636880187043,-5.392070648137861,-3.287127553491872,-9.162794239868123,-7.975095425750032,-10.688983551572443,-6.153506966521636,-7.663008460150471,-14.268389922714778,0.2705139674926181,-10.177707545020006
66217,,-4.368877759151102,1.577346429677274,-10.502273557281692,-4.40911147091126,-6.16889020447601,-4.923741693180088,-5.587731032253579,-9.390603804844506,-7.494602032618522,-4.700605743384719,-7.302116794574529,-17.44104971181517,2.3135585044788325,-10.044608001489834
66467,,-4.840409472354981,0.8551965386035894,-11.401181251086928,-5.50458711262828,-5.712531754065068,-2.9510541702973843,-1.689917069176673,-7.714065246496087,-5.3419955567959,-4.447260089501411,-4.289248759395678,-13.537228829549946,2.265861169294225,-5.766769223013891
66717,,-5.710255198103359,1.4840596150355116,-10.84881791308767,-4.201057153939919,-5.31670199387997,-5.616465835799275,-4.411442236649487,-7.187806278112441,-5.001361897228462,-7.105502341268345,-3.8053306468527737,-9.981685437570082,3.294625643410366,-3.229031121958269
66967,,-6.257208182756166,0.5596668643990828,-12.51428064419725,-5.775569489488714,-7.43645964181172,-9.820368890497376,-8.493526769248017,-10.664693338739715,-6.863146228683061,-7.361730112796094,-7.79343118463058,-10.478763323216215,1.3084054955021789,-8.31084502489414
67217,,-7.739550518409535,-2.612274910155468,-14.693433430771275,-10.609835999172075,-8.199848309056275,-7.732380756202751,-8.318996619633515,-8.020421929035898,-7.812253563053849,-9.255967907665797,-10.918199057237748,-11.714299469395106,1.9673052311043664,-9.428757074991672
67467,,-7.258571810903202,-3.77295036671593,-13.938268686475384,-9.76194275484535,-4.504298693817061,-5.531506935412672,-8.75071467066862,-6.423407601847348,-5.3936584984677305,-7.536466241521058,-4.1438671597726255,-11.291528627616628,5.096169083171684,-9.148776937063904
67717,,-5.423801142553444,1.729232142350935,-15.474244076889825,-9.300169955812486,-6.111653961303839,-8.038747939285704,-8.79021745015138,-7.800490945506402,-6.135149347554817,-6.652395564894079,-2.4628043592211517,-9.581558394359138,4.882296540855003,-7.9551650969136
67966,,-6.596229494305204,1.3495316881466477,-11.845462311800716,-6.162087900156031,-6.789234588742843,-7.19602034231225,-6.682873018676695,-6.667740445976311,-5.383071972781844,-5.994463553472245,-3.493648283068371,-9.790811650366276,4.707183120906243,-12.325110712104657
68216,,-4.035227145886651,-3.4159079806521278,-10.9821761511972,-5.661124193157246,-8.79931951163183,-7.0963729348140365,-5.6692220943822855,-6.417747422599973,-4.854491778059361,-5.886092643649939,-5.1585124314871065,-13.347024343784998,3.3514640785147174,-8.9633616415176
68466,,-2.6479574361937086,-3.56560645978999,-9.245495385534973,-7.703456177303903,-7.968889515135187,-7.982959990484288,-8.098825228407904,-6.376708327861492,-6.112521065016722,-4.251631044567853,-3.34786129935575,-11.644856950706131,4.63590924461637,-6.947894717347596
68716,,-5.253527636447921,-3.745264750219048,-9.76319100066456,-10.448170176924968,-4.870313287483809,-1.940105996170146,-1.6052530762064643,-5.729585247072696,-6.555552712279107,-3.200138112633464,-2.597768209180647,-10.276840133377211,3.5760827404371,-4.978483820069954
68966,,-4.140631184777916,-6.561534860629563,-9.421630235271332,-11.170398849914168,-4.754695146714773,0.3146999786649989,-1.5222054092868702,-8.39868898800239,-9.238383541635717,-4.44928007433235,-7.429367811519343,-8.977799326996234,4.296921767479981,-4.898034409022997
69216,,-4.23910818216353,-5.2760107007776105,-11.934258477444128,-9.458418385705382,-3.3540209931838776,-3.87436161476205,-5.90031913873509,-8.075625655792448,-7.499772969166926,-6.346279658687123,-7.791624365892346,-6.499023954699471,3.03430963210916,-5.033282515149309
69466,,-6.341242839071512,-3.055165884265046,-13.420561111228416,-7.682112564504924,-3.167419964638352,-6.813867489492836,-8.351743454455738,-8.720732436086916,-9.80640540357441,-4.960378717915103,-5.85062170503436,-8.83679364304652,6.341225876921984,-8.899915903609564
69716,,-7.30636988617066,-0.1095405227904887,-9.274153408609088,-7.166701653435462,-3.767789554044565,-11.51086415367812,-14.309073864629166,-6.772088133570263,-6.776906187560493,-7.084915664422192,-4.152025377556393,-10.622667790630503,5.131073035665887,-13.55837277046875
69965,,-4.941959123242806,2.0274947560370347,-12.189659623308476,-5.561041383744335,-5.704074460940536,-11.912392778995432,-11.35117938465401,-7.464154404972075,-6.87962784975471,-7.36764773679128,-1.6865364174220665,-8.870142933471215,2.0908222492022728,-9.79482287823275
70215,,-2.5420351346661665,-2.6742868271215614,-12.804079019158758,-7.42452861622689,-10.894428315465184,-8.624576920439205,-14.765302489740442,-8.66538601573263,-11.543401494127934,-6.451527163571279,-4.686279980855294,-9.472181064273885,-2.1317519907284117,-9.390846741653744
70465,,-5.344393794237419,-3.843896641672036,-13.032693909915054,-8.091795931286885,-9.291650838362234,-6.667040661558036,-12.805945736542428,-9.30789802855807,-15.62168149897947,-5.203020487294826,-6.313106974666836,-10.607660360450444,-1.7508762725746738,-8.962147460861098
70715,,-6.257427758031929,-3.362393775120416,-10.63013948888576,-9.145367450092513,-10.013718762077843,-6.282575270930907,-8.644427545546803,-7.506363391830356,-13.946017786403251,-6.123747253460409,-4.2114031396287,-10.813372731504147,-0.8550967435474183,-7.706526105094962
70965,,-8.969813163220019,-2.227438404654861,-8.34826237111346,-7.593711432536239,-9.870116424580772,-7.81188711944764,-8.899004257929944,-7.034093974315347,-8.93954745782319,-7.879944969912006,-4.246210033587104,-10.860290771280292,-1.798578153346841,-9.581044673604712
71215,,-6.3052753645286606,-3.5502422382476926,-11.411028823633746,-10.249906130789512,-6.329126012723108,-6.059379597418717,-6.702021782879919,-6.317869392172543,-5.542797221754359,-8.520304405836082,-6.183051901054712,-12.748755000431457,-1.6235227377538397,-9.359868079465915
71465,,-6.329662252009758,-7.651684272257851,-15.443518911658296,-8.898971845476343,-6.705354492129536,-5.192020491136603,-3.8118773561858137,-6.666187964252184,-6.601864738024008,-5.961724502378042,-5.98077751511992,-11.999253204716428,1.5720240923889723,-9.858071916709848
71715,,-3.837719380003466,-6.941373739033158,-9.384453808099316,-8.611780011743205,-6.6479367591272895,-6.85386622443767,-6.090479856936484,-6.648644340489572,-9.37347922918465,-5.633933825512982,-4.1915601584900815,-9.42005898883995,0.8693150333977374,-3.9977664898241096
71964,,-4.135718502831681,-2.5547231768939294,-8.845067176713542,-7.744451553234449,-6.212042886690266,-9.777704624226343,-8.041011310455259,-7.755098339879428,-8.207054637216597,-8.599503253003245,-5.062612473496962,-9.598668503583635,-1.3470351208177729,-2.770329231043665
72214,,-3.358471612362311,-0.3733018435373922,-10.442097975770274,-8.426777669578831,-8.897118816344536,-7.178979629988601,-6.599437952432343,-8.3841643431793,-12.471572781096478,-9.492995227646029,-2.432750046440724,-10.99157182466951,0.9970092874395023,-4.993989580469311
72464,,-2.6397555427984103,1.7833351683223646,-9.963844211579971,-6.224547233905077,-10.788213917917025,-5.917411791195933,-3.3224573346291777,-6.679025640345556,-12.951422255096649,-7.4773259985951315,-3.5471150975951984,-9.895936546779923,2.22001820012601,-5.5767618644536245
72714,,-2.493391598570615,0.051473729118874,-10.519320074244238,-3.980221439471847,-9.583379598599524,-6.981234075337533,-4.231907309560901,-6.682888004956226,-6.076813501454027,-8.336954076891057,-5.4443910224921215,-7.902568763460519,-0.1852702111077219,-5.54471780759048
72964,,-5.294727702938515,0.922173127481263,-8.091761026111238,-5.130044091562505,-6.302037484311796,-6.513274633433744,-5.864922991350622,-10.271022731277812,-5.564642835580541,-6.6811944407742665,-2.8696214532435294,-9.157194892546984,1.7325279984869426,-9.438447265670776
73214,E,-3.605773760662223,2.9680827372475305,-7.30982122437124,-5.609846321935197,-4.390014278710495,-6.155365927493753,-5.288945270574128,-4.388536860577373,-7.870031940403046,-6.674904688416477,-5.777072897982798,-8.053197809030163,2.3727306439219054,-7.555727707661718
73464,,-3.199416118506296,3.471776792790553,-8.830847854144977,-3.9618055927919222,-4.032600117150497,-4.982442842022099,-3.566814380801945,-3.3541519520259517,-6.915381702794066,-7.112715698636356,-4.790178149620289,-8.993760759540537,-0.4645352294423618,-4.9177859630609175
73714,,-3.504438573169514,4.089070116553561,-6.951407106197251,-1.0973781060193892,-5.112793323578667,-3.076526490980193,-2.773626432218582,-2.90982552797014,-5.613772382911524,-8.88172687235109,-3.885486218529119,-9.75275738234529,0.4093361981800316,-5.039887479195676
73963,,-4.908025932119693,2.980236781684391,-7.175191613684739,-3.6252707206884303,-5.143173572458722,-5.815746911351591,-3.4675272354673914,-5.447159725930058,-5.358378874775209,-7.826082420158164,-7.132563251755542,-10.805945881620572,6.001251716528943,-6.416675050349644
74213,,-8.990077164562845,3.517909458605646,-11.941701090605116,-5.147751473507264,-4.409026776936074,-4.877310542423612,-3.498650412079276,-5.8622307073255095,-4.786393612858446,-6.633678314535113,-4.61251265058704,-9.219022375621408,5.8917340332093415,-6.715944568110488
74463,,-3.092676636567706,2.311687855039178,-14.325336038424554,-6.203522304453163,-8.11774792296696,-7.409154639312473,-5.052932939470889,-9.080883435228364,-3.88278531329108,-4.174410411414746,-3.346088938451625,-11.967200016406071,3.4803803022187694,-6.801876871052741
74713,,-0.088431937271141,2.104148492864523,-13.574986215088895,-5.6124233962793735,-5.538106203081909,-9.121028857322104,-6.583239214430591,-5.906313600708835,-2.309877018408404,-4.677740674109766,-5.792387936539967,-11.69499259402538,0.6888874189937527,-8.414843613498057
74963,,-4.875420528410061,-0.872691558330297,-12.092152503856129,-7.608581617429616,-3.5538257946345158,-4.974063119116591,-6.191611345467171,-5.88608302382326,-3.723936990184345,-9.619891828358044,-3.179133764222098,-11.926481175176304,2.463741038333303,-10.14120261688918
75213,,-9.340671362353014,-1.395513706658054,-8.122549173377587,-5.123096983391191,-4.752361428376021,-6.089120976249621,-6.558887758612761,-8.977505728146403,-7.573364578503159,-11.466665925135942,-2.9302415071010257,-12.132327212712736,3.704703369499223,-11.292593551910482
75463,,-6.467136748714296,1.256634510273384,-7.770684720551573,-4.462690311291366,-4.3207039836043135,-6.311854318197381,-3.466442731603634,-5.699960378485085,-7.766298679475277,-7.948670457882598,-6.902387649088329,-14.374613470472363,2.5656634901815694,-5.793232341160081
75713,,-6.175136240999589,1.5486903041658344,-10.00449862750312,-3.128306724591848,-2.2984161113280224,-4.260026575400114,-4.682372835088338,-4.24590180154051,-5.926320248394825,-5.981459940542204,-6.478282934305498,-13.275992633204137,3.373730286969701,-4.711386362723567
75962,,-7.022471390496811,3.999867594199541,-12.213388718458784,-0.4310070057612042,-4.915472866095,-7.144826756352936,-4.701883072694569,-5.862613918673184,-4.15661756875105,-6.992137722781813,-5.373808918047653,-9.935425505737031,5.118761567017115,-8.984126747440788
76212,,-5.529257640384885,0.8245243528955055,-12.526769439298988,-3.417790144600585,-10.294071975188915,-7.510860368928202,-6.480858861618835,-7.580243966386297,-4.370418108444996,-8.799823406868112,-9.021646805060522,-10.923263280419256,3.973203737689927,-7.553095004101209
76462,,-0.9482979106758096,1.4101253537395608,-10.288542505977691,-6.902905939629794,-5.899125570029269,-4.032094939628655,-3.935236669696768,-6.672632941645471,-3.5232143258769755,-6.8494872822884645,-4.10571088579505,-13.816862226186604,4.224962793804778,-2.340660921817274
76712,,-2.0304316921439725,2.988754371376173,-8.573571783907955,-7.3718165941965905,-3.5789372031425137,-4.502593725716313,-3.934865830702485,-7.69156577653747,-5.512756765542682,-5.3661864884706665,-2.795483294615134,-12.539254774692022,4.339788927753176,-4.809042766171173
76962,,-8.362268123630301,2.4852085607408787,-8.5752396813908,-9.277447760178733,-4.165642808276237,-7.744455029510505,-5.511413108264601,-8.539867353233053,-7.565096442975964,-5.524672484481382,-3.186064935448133,-12.967622803501612,1.914277338653797,-8.238964433789425
77212,,-6.143409204665976,0.7945609215652716,-10.477012449879457,-5.958612136318764,-5.573964759090986,-9.11824984215285,-6.206720257598722,-6.650394636054482,-6.116573131282411,-2.1724613705908262,-4.501451871417268,-11.17759603730854,0.5929916848878445,-9.29915931616592
77462,,-2.51028311152926,3.1475953893903528,-8.881655456819738,0.5879020517679433,-4.036126445134403,-4.887985373194855,-3.556650641904578,-6.2319412383261295,-6.443326057685523,-4.887586836063216,-5.154712168293791,-9.690493130541476,3.6506642545146217,-8.476613264114471
77712,,-1.867208340816093,-0.0348975479524188,-11.584711840184646,-2.814345544621542,-5.566131813475208,-6.055250100780661,-6.632032647699577,-5.285414559030026,-4.597454960953264,-5.23925699738488,-6.8949685826366505,-6.438660923229998,4.645205522016465,-9.836858533441518
77961,,-2.408646659053057,1.2075034145758576,-14.573225455267927,-6.574648029715025,-3.3370863523556613,-8.838467865687095,-7.533117048103436,-4.958884526248804,-2.8914226845914697,-5.779646875416975,-7.978501068154189,-9.3701984316491,1.655022554035587,-7.401620618984083
78211,,-3.829668655176517,6.245303181937074,-12.757181408277402,-4.98688032160696,-4.4898258722559845,-7.90564806281025,-6.023745976120973,-7.570298139993684,-3.6490943660892072,-6.807559302490244,-5.676224349652524,-13.763910932234149,3.460395128037828,-4.7508666952491785
78461,,-4.710386120648619,5.10939403788004,-7.863997876560889,-6.373403755710926,-7.432618694193587,-6.650706554704334,-6.588288897449683,-6.248346995206266,-5.888814716854732,-7.72467881368213,-5.711975819317141,-12.66436640872114,1.3288458688889258,-6.927098428414272
78711,,-3.8808503337239,1.8514632837919376,-6.056490462797619,-5.995438433400324,-5.0386076892913225,-9.897463158410238,-4.30425005417464,-6.997842391150343,-9.643330147750625,-13.376234316136223,-2.4452878316700497,-9.497188329550465,1.3968759305017588,-6.7521500451521685
78961,,-3.064666320358332,3.918640520637719,-7.620706354695296,-4.494442510064454,-3.946515646396705,-7.38059310491195,-4.405361525439925,-6.4598779191493065,-10.31271022842246,-7.373558039526537,-2.2041390145761035,-7.793140433912383,1.5241404392001066,-5.614087306179817
79211,,-5.7324688839228655,3.969294705136383,-7.450477537073201,-4.436039941544378,-3.0694124678019383,-4.606953111136532,-4.712961907990827,-6.641393727586726,-5.505352766456228,-3.358257368880348,1.1346970588341485,-4.5222580574034055,2.271349735399574,-3.6296097868425337
79461,,-5.660846414991396,2.6931693902650347,-9.656041933128138,-1.407051053393751,-4.872268692575213,-6.128528552412239,-4.6621822607185965,-6.6416579640889895,-5.13838124757251,-4.404307747030445,-0.6580839458955711,-5.332069960024302,4.768187647852937,-6.02964171980595
79711,,-6.489183892195037,1.07670911854144,-11.50684328080274,-5.368755988889173,-8.655490399509295,-7.516020518759559,-7.708585886485019,-11.906459659480488,-7.195542208160196,-5.9901581450737655,-5.969744504168278,-9.080810753591784,4.998817271336487,-6.779006240350304
79960,,-6.797934984547882,5.291587927162636,-8.694332412117136,-5.915108457329162,-6.0192008736255485,-4.533501596118367,-9.211568282939988,-12.642084118637111,-11.178693605721858,-8.73704906291368,-6.531360070558655,-9.144052015838724,1.130593733265697,-6.662503087816988
80210,,-6.084177721591454,1.8152296928578315,-8.808792230981153,-6.827554504881381,-6.340086606988193,-5.51138294688514,-12.615545348794871,-9.458313909072984,-7.763850737547997,-8.786813420211892,-9.465687044091698,-9.161372874589912,-3.907938244915857,-7.711377269725952
80460,,-4.730850283906106,2.378339453896108,-10.800955220889191,-4.189045352977036,-6.342769843384996,-4.077406579725387,-11.293069493530654,-6.655030387842275,-5.979429752279284,-5.958040179955004,-4.951298189547295,-8.983967614768684,-3.3300200982682595,-7.845501586377106
80710,,-4.816605401884976,5.092288718460112,-14.120662876166277,-3.653463803850332,-2.4210494062293804,-3.6436630965566783,-9.67409538183792,-5.449674303163612,-5.800394674327847,-7.516003664499799,-4.755237891463437,-7.901795019161735,-0.3783258444047893,-7.300243913624507
80960,,-3.738266389157041,-0.365102148754695,-13.450853290422131,-9.181155702157506,-2.028286319033094,-7.737668148941719,-9.07787509625756,-7.300024985153701,-7.696664645114193,-11.154652200696152,-7.438249939412296,-12.167810754387547,-0.5308036340726773,-7.913986231568826
81210,,-5.11600342303034,-2.344443534389077,-13.452247488505574,-11.346139642327984,-2.3605838863367765,-6.32681338612395,-8.31696299632259,-9.710890794223868,-8.434329289527673,-10.39940031021324,-7.981881647998723,-10.385233770155208,0.9889919575284568,-7.493910555836525
81460,,-6.7808286613573525,-3.077471385074713,-10.956521659815117,-9.498791128504356,-1.4507079950373127,-4.824255748546948,-5.77768162945801,-7.712421957735314,-6.622223008022806,-8.286067982573995,-7.354211132982861,-9.68740492136015,4.171649921489174,-8.108603145741824
81710,,-7.606738857914643,-3.9183035187272495,-11.94082378996595,-8.178987843954758,-5.238299022568235,-5.231521746124248,-4.267524512595945,-8.880116968383332,-9.141293518698028,-5.867199070624595,-6.310923901241794,-10.47150528542241,-0.4068804812350516,-10.753452574308614
81960,,-9.266785319780269,-7.224410246115775,-14.64131403268151,-6.721975084686774,-8.303397073961397,-4.714747815773942,-7.4935992413977885,-6.496264287818539,-6.519097303794458,-6.190300411907223,-7.475222911272846,-11.189606647309915,-6.152363163019442,-8.001354307892637
82209,,-8.634449108175591,0.8227675666891399,-12.61879101294916,-7.550059850337764,-3.9249349260992346,-5.869591428973958,-5.495126628871785,-5.530373289921276,-6.739964613172963,-5.80012044052337,-5.970084449366286,-8.530580804370405,0.8902075047253356,-8.514287530769503
82459,,-3.921517225561729,3.805697487705407,-8.81821447809312,-5.114379677344112,-4.109347957693431,-5.329769478583452,-3.698346816081029,-7.363314931923716,-8.978268274309336,-6.609355158357126,-0.8258051103152426,-5.803899564918028,5.6809239350336895,-5.769027326162133
82709,,-4.330819647161156,2.792876162570284,-8.106965259457812,-4.597653616996867,-3.9378027797067015,-3.654733630716843,-3.675818681138952,-10.025000449807845,-9.851340821477,-6.469145526796289,-1.0909888288408922,-9.302851591408682,3.063251258395724,-3.0387558836457416
82959,,-5.991209078958332,5.615811271813706,-9.051992742444504,-6.324032272870572,-2.2177994030821795,-4.482454497627578,-8.344831929998609,-6.176338657149457,-8.02722536581644,-7.367564922715493,-4.740280955515264,-9.067841974984283,3.3217181318631983,-4.980544360161034
83209,,-8.144774618862728,2.879796812664792,-11.92859974827909,-8.31547244607772,-2.029635331309948,-3.751388029285328,-7.9963169094976925,-4.570884631372307,-4.936597980224487,-4.593835463338007,-1.4901671496925313,-10.263093768288682,3.6668241876619136,-6.960161697321118
83459,,-8.353830632791224,-1.4516254039332703,-12.066790928823504,-8.931436166509044,-3.835835512199618,-5.675697664897585,-5.43123551859645,-4.712519802133102,-5.0720332645875885,-5.886367809817914,-2.2346741687572216,-12.774587950695222,2.766769468551706,-8.938211491980109
83709,,-8.037083981303198,-1.3300517838521706,-10.042578667424584,-5.402372724100351,-6.775363854258755,-7.742507366299343,-8.535530434486077,-4.185717693024246,-6.734177807243675,-9.616452090347558,-1.4399534584546705,-11.038378129625166,2.004621775397448,-11.336751424153784
83959,,-8.744835920893811,-0.6709670550824626,-9.03400494363421,-5.206809220878727,-7.994405112667719,-5.453280613193956,-4.926813688807346,-3.610026249648248,-5.19138033861174,-6.3004427895291375,-3.87742429382705,-7.360451931034753,0.5704370480488472,-6.6052802340173855
84208,,-5.948717615994128,-4.083136938573013,-11.830988577858395,-6.182560237286498,-3.797963040450634,-3.0303719328291963,-3.900145409453128,-5.5785144515813805,-5.949932460353217,-4.680647871846971,-2.760178406116229,-7.508090922825392,4.882623409500216,-5.418728197215583
84458,,-3.4922449158781017,-1.8709432221297777,-10.684351549025711,-8.611533110107422,-2.5941790291198936,-4.446469827212283,-4.281576229680856,-4.974963878728926,-4.619960015711831,-6.18173303132558,-1.618231568771609,-8.890869799414245,5.876203170250653,-7.146354094614091
84708,,-2.351869662766835,-1.367827911022641,-7.906824602652525,-6.11536641706347,-3.38889248018024,-6.104870701580776,-6.050602536110281,-7.314433818183628,-5.827937560260783,-8.305087915415928,-3.521127240560848,-9.825111768434162,4.030110692188844,-10.25525425800102
84958,,-4.246308200112004,-0.752523410046887,-8.518951156609397,-7.112702591731832,-6.693735207571539,-4.073606988643479,-7.096392005063963,-10.09800288258845,-6.665643787028496,-7.190833033535027,-5.272324079737625,-12.92424405216349,3.871793411582689,-9.05179461369286
85208,,-4.478386615731436,2.9638891834603798,-10.315768904774549,-5.514052599619959,-5.602199319874071,-5.512080483962055,-6.360867837819189,-8.441864961846953,-6.511097714972815,-8.130473669329177,-4.233168715095448,-10.324198854093869,3.923465692074888,-8.352731286866256
85458,,-2.257121653566704,1.917897756361282,-8.365344763688308,-7.643539036232965,-5.872248977675647,-9.261572069430006,-7.24214790374721,-7.726150668539391,-5.75554193261306,-3.665304632967336,-3.810683819567784,-10.556468048334107,3.205245264581032,-7.535863997004366
85708,,-3.972444094811757,2.224845796606769,-8.638450718039994,-8.02871495983753,-6.58281019022618,-8.483117338162156,-3.6590893161533367,-4.659443538821135,-7.31765461127964,-2.0516433188464136,-7.55241829691442,-11.432190837229331,4.698785140858526,-7.239172364214284
85958,,-7.838612608070949,2.8507133656172368,-8.227355796106565,-6.211954284409334,-2.2325300858763364,-6.305105437996694,-3.829196351220413,-5.273219030746246,-8.040065960623572,-5.082411582891386,-8.100369707660361,-9.96813751307444,3.366016282261555,-5.977108543520368
86207,,-5.562557279161866,-1.6632976854933337,-7.798488853408704,-7.72119265608155,-3.733851075065961,-5.172226161136414,-6.9690053914973245,-3.854822534421254,-6.9617400670132135,-9.928346910668385,-8.637094351809688,-9.809863843213028,2.686703258752914,-6.687021919104143
86457,,-4.878038562793053,-3.388360727996171,-7.124663484640866,-9.072369750823238,-2.956877976748556,-4.922023761459676,-11.220991868156853,-2.3058151326777927,-3.780183165663469,-9.032975386524637,-6.254240973677941,-8.35511629559089,5.158289336436482,-5.452184160996577
86707,,-6.346339784352756,0.1424730796283866,-10.42564268779988,-9.633345453856078,-4.689009525500444,-7.340719451855153,-8.951505902659742,-6.204235203036655,-6.961593613737361,-10.192548866556272,-8.59077193937895,-9.165332839360063,2.9602847368024494,-5.460065968948079
86957,,-5.247953481861636,0.630312369627892,-10.510305100468706,-9.527865917555738,-9.532871530263751,-7.821014836068143,-6.219737585926843,-6.805973366934214,-7.542233951426467,-12.009068189759589,-7.485815017126873,-10.272118762927702,1.7692039776597055,-8.120423560084745
87207,,-4.805225994662818,-1.338953887168561,-10.092727581241492,-7.42237737646441,-8.012625527494464,-2.214225525043865,-7.717979492416057,-6.83924988859493,-7.912805781928248,-8.666951421866493,-7.650391460598902,-12.14501815325888,1.2005634807779528,-9.47917421717699
87457,,-5.594588016732879,-2.602762025602652,-6.320685844351295,-5.827701636024861,-5.481193201765221,-3.278724698015992,-5.986595604642684,-7.069112532822625,-10.746121908587314,-6.956316823057797,-7.719016226860923,-12.236020663215967,0.53933937831367,-10.234443087075269
87707,,-4.101452461684518,-1.5918192346969182,-9.005072821605085,-8.438760069375533,-3.00502978010353,-4.531259183185048,-6.243918841128334,-8.051679762009234,-11.591550053763948,-4.396440575362817,-3.7120029746694176,-12.044962171991909,4.741360769225565,-10.445154113431112
87957,,-6.386427504087426,-3.552007956285169,-14.939503483225929,-9.462755868059602,-4.962206767946872,-4.116975591758101,-6.780450188436545,-6.926741252322751,-8.229820060173072,-6.427486275122556,-1.877997458090661,-14.030372291396992,3.8310091185366737,-8.252087168601157
88206,,-7.669632090843208,-2.5021955814997603,-10.522663918528457,-5.840326096267332,-5.70327474340289,-5.823680385062953,-4.221281262578216,-6.431784529396247,-4.648031599772631,-9.07637875869299,-3.637592548828202,-13.1024525337516,0.9099256813678116,-4.206834203324633
88456,,-7.627663690212536,1.3294039429530229,-6.368682644371805,-5.163848418024339,-4.763761275649517,-6.076315640869934,-3.383355632124688,-5.285677613349891,-3.609420779813166,-5.885373536566828,-5.444913907103471,-11.531633631430385,0.8075425160398297,-5.22348402878134
88706,,-5.923800013400871,2.486156508441568,-8.361797744982129,-6.079209202725298,-5.571993293689297,-7.493470338133179,-4.318195497954496,-8.133185334324027,-7.178081312728018,-6.009389948721803,-5.676602326881036,-10.382155486335323,1.4288575723281065,-7.526443762717175
88956,,-5.362089800826061,0.7701666117935846,-10.31295265271578,-9.60107399667396,-5.038664765109047,-7.670461801245024,-7.964881633208149,-9.522893513174076,-8.673475089272145,-5.964899182287765,-4.987793416458629,-7.428953710449444,1.9620892055765775,-5.838481066116518
89206,,-6.902728536194095,-1.7827110324270723,-10.462064697626754,-11.2625311697623,-4.915520091926404,-9.830229588838076,-11.872086071074548,-6.449016930135024,-6.504450937746144,-6.73715778981808,-6.852846830869987,-6.928365174959449,1.7959268342983052,-7.250979494027852
89456,,-6.876199042137444,0.1693602027048296,-11.773958324664196,-5.102761040897144,-4.821784016389245,-4.641208681910031,-9.387828437017248,-5.257211061673688,-4.201359957823495,-5.6981228144855,-7.000103292160222,-6.688321457446841,2.178082986879497,-4.620362695940972
89706,,-7.153755663618896,-0.5616617883581011,-9.110533846293098,-5.661138494828912,-6.250364641304877,-4.985947028924514,-8.008560555633196,-6.543835797972164,-7.67886362113007,-7.91475928286773,-4.5634241419145125,-8.017749569969666,1.4740964533032537,-6.544385120027387
89956,,-8.947554460558631,-1.6062520828816256,-6.935607230979157,-6.85176001425935,-4.904219917047193,-10.699756856977196,-6.595976449123631,-2.658203953387681,-4.8749874339303405,-5.936837217511918,-6.001261567260151,-12.292250793887307,2.265831002505601,-8.624426871050037
90205,,-8.457753726885676,-1.5894569835706998,-9.844370507851352,-7.861808776758861,-5.071339594395155,-11.738608790400198,-5.228138516951705,-3.7712399969479424,-4.060659241927241,-4.276865904466101,-7.512843406323437,-13.033637869906272,2.520111796306816,-10.00337172556998
90455,,-4.995375235650212,-3.553000960653039,-12.420288236318076,-11.775554167959788,-6.92149780649471,-10.199167825556554,-6.599898677136795,-8.728724423417152,-7.164174746638697,-8.88900226986396,-9.388755220247765,-10.942446014382496,-0.8747284749149717,-9.441054911084091
90705,,-1.1918080734965435,-3.5965729655805307,-8.884167709215994,-12.26484208750514,-6.392356631951515,-6.214655845394957,-5.058690192987816,-0.8587561585226176,-6.761620530680266,-6.995200913227141,-9.136287635342471,-8.399623800103418,-0.5731033331538786,-9.957856610079205
90955,,-5.603421974259812,-0.927350534268046,-8.384795322918215,-8.527503050603794,-5.046835721772917,-3.818953036902038,-5.5399206421680445,8.459410030628607,-9.523563505713469,-6.459278838672832,-7.060305323107316,-0.2286008779568492,2.2870447751296865,-9.153639843171078
91205,,-7.358660660701547,-2.263075899037814,-7.4221524488441215,-4.882820956238691,-5.593116243642903,-2.955697577637894,-1.3736453969364826,6.074771177758955,-9.819419795845173,-7.614806421199738,-4.761868971639278,-1.727379789119738,2.829329442839124,-9.19236957762714
91455,,-3.84156273684606,-2.6693816034947626,-9.926846518040303,-9.220145001181429,-6.925489265014964,-7.412386570286767,-2.977875693628365,-4.519433334671831,-10.33155349661344,-11.191804709921623,-3.532996099162706,-8.12065960446982,3.245154945044492,-12.272807967650133
91705,,-7.663836365151962,0.0765999916164328,-14.412796296422409,-11.6285793375215,-7.632634588297424,-14.13494010482732,-6.816124825467567,-6.603804614298293,-10.83513207766728,-13.707565195005474,-5.391738508361997,-11.276524868679852,0.0964018775003688,-11.30860168871616
91955,,-15.10100644095907,-1.1291085611284493,-13.159347180084712,-10.808102178481796,-5.598430942157958,-6.240726636267632,-4.624112340691201,-6.958070664029693,-6.747579140149677,-7.39555342252353,-3.7529884155124495,-8.459866974152082,-2.934311863529733,-8.062387155785217
92204,,-9.052690295749915,-2.3099462591991693,-11.107234511956062,-4.528548408746142,-4.977650182228921,-2.7932470140691428,-3.529219795092441,-7.11462563132214,-6.000279062402123,-5.475728834011388,3.6166343177537454,-9.76502759796642,-0.9150831726341928,-5.534472527771383
92454,,-6.386940317994704,-1.223632638093018,-13.451789106831974,-2.54765767368148,-6.749961064769376,-6.335372056631382,-7.70103267479352,-7.301683786388537,-6.36468948888967,-4.780820677037551,2.5437736822013384,-13.35835758204616,1.7090254961047964,-6.252574901533091
92704,,-4.185476249694867,-2.3387031282669977,-10.910946933749369,-7.365320334906351,-4.684304763060442,-7.445846124340766,-6.194722576773856,-5.809452710126087,-3.459998760038234,-4.061574937450288,-4.949475871776523,-9.559609439316011,1.1249347340748397,-6.757487746099882
92954,,-4.0236815616255575,0.1193269782679831,-10.00301765573398,-8.354343139698207,-4.805329711947609,-8.045028195847731,-6.7857053748670015,-5.231295243407967,-3.4595534719513035,-4.653578800490317,-3.874180317004139,-8.265417851824019,1.7438893714427792,-5.725637216482412
93204,,-4.863014915361798,2.507126118154663,-10.30555879572094,-6.5161739435093775,-7.752475479650207,-8.78471330150121,-11.40717507123501,-7.602246528767287,-7.655539220968689,-4.147917478288067,-8.336188639782467,-11.033809396301724,5.116157037762195,-7.237745040977693
93454,,-3.8740741005580217,-0.6434990596390495,-11.592803749183023,-5.758699877148907,-6.060612734707273,-9.954741197247508,-9.444975962288929,-3.004538152132324,-9.462659068488517,-4.590661922418895,-9.1390913664881,-10.737659937843162,4.825246374643094,-8.473675330444777
93704,,-5.670057173772074,0.8653863845574783,-8.615715208058607,-3.604188950404743,-4.661463636186558,-14.63294085079471,-7.496586636686423,-3.937662257460805,-6.900976579045271,-7.416598808959616,-10.531830072755596,-9.34484684897933,2.467218277567393,-7.387534708872292
93954,,-7.5924003862065454,2.306639832531467,-9.643531384307437,-4.386635550722719,-3.6337143550980135,-10.6099529791077,-5.778594991564166,-5.974546482928327,-6.218855878068169,-6.276546463788869,-9.935750666533988,-9.273856984258344,1.8565228966664007,-11.522965064879324
94203,,-4.119707775174213,0.5831100766345788,-10.58976242240583,-6.344721595763105,-5.809104790138076,-10.236933181089062,-9.012258364914825,-5.009346345761103,-6.188552516335654,-7.467370174535456,-5.310024526097338,-12.14516335363118,0.1391813617353292,-12.242496547208566
94453,,-1.7832018512542174,2.231130588473524,-10.533957591695884,-3.4756545839115094,-7.812966130336614,-12.651649306710498,-9.464819411229724,-3.6287695360848855,-6.621341127704793,-8.138586599513202,-4.590139146950463,-11.91458352994523,3.998723735567818,-12.079383058620722
94703,E2,-3.586046663307343,0.8856311833256015,-9.17653934728449,-4.961862030169802,-5.994018563208474,-6.540046153447778,-5.060292669789726,-9.011253269556672,-9.486927618230409,-9.692254827018306,-5.0407182180912695,-8.85208984188769,5.209640439006424,-7.672902393349754
94953,,-4.8874570375746895,-1.6269592509908957,-7.582475850722799,-4.036207412961884,-5.159300344118614,-5.538963344689782,-4.213641803268703,-9.182616255267044,-9.399443728941456,-10.773634258107377,-6.317016108335581,-9.16920215218946,1.9301879056129447,-8.546787469955175
95203,,-7.179294237921413,-1.4249203761725135,-8.515973892440362,-4.914736865604564,-3.909471121155459,-7.42329786989925,-4.53821010555202,-8.619174446952602,-7.184952069346102,-7.536586777648635,-8.918611936307578,-9.457857885273654,3.243577765455808,-7.419677808901803
95453,,-5.781250349232713,-0.1499185604662402,-8.69525005758177,-1.88612955958326,-0.8166790937874897,-7.328704153081338,-5.830904379660518,-5.882386068094529,-6.90619040908079,-4.332675351431319,-9.155583072282717,-9.897404343234852,3.818437772576316,-7.834436010566732
95703,,-6.149534752059843,3.338066301742498,-11.918693520638994,-3.420584711262497,-3.333306889047696,-7.177189065406434,-6.356917272841542,-2.535154634606571,-9.062549516606229,-6.470046320532089,-4.966470820026153,-11.242838401450184,2.972273738744221,-6.229208361460489
95953,,-3.8797004789600655,2.6919565044880134,-10.921629511832878,-4.072451857715093,-7.553908438545294,-7.9454565778397885,-5.823230326060228,-4.32514665401143,-9.200892506189382,-8.514277903661075,-3.0968041443039778,-11.33760616089463,4.017465859817437,-5.7809739058043625
96202,,1.3956330062920137,3.6027617390068176,-8.672666300942979,-1.4112534900067872,-3.327630434561236,-10.30923122961074,-4.207645277136359,-6.546968817337625,-8.611718322625952,-7.359069999559872,-3.709307932953391,-9.67732175373901,5.980015782676881,-4.662737724840781
96452,,1.01081646569709,4.0318100958456125,-6.70459227745908,-2.355565391336264,-2.1553692405845304,-8.360323798519198,-3.4717969311735923,-7.069488570048375,-6.324798595564952,-4.29399642638063,-2.781014136593289,-7.285576873069472,4.481548698783191,-3.3396454546272785
96702,,-2.446082834183149,3.1080662662504857,-4.623547233986259,-1.735738785448022,-4.909389445487423,-7.682747493615317,-3.461436382728863,-9.883150187965578,-6.490107649842308,-6.182111631105043,-2.199508765645631,-7.5160345999834846,2.491127736597239,-4.738973728655492
96952,,-5.855067527794681,2.9110978510533525,-6.205412383771045,-3.473534318705668,-8.967956670517745,-5.405373564384686,-5.142172995453097,-7.096962897291228,-8.523879589910651,-5.38119136462612,-6.837075149319261,-8.351138844064648,1.729206406064506,-8.183233912541372
97202,,-7.308182767586533,3.698114062005538,-4.932943469737355,-2.843110905047567,-8.211036663598401,-6.977318916373044,-7.78222116141274,-7.71524319385505,-8.942138948367537,-5.489947740084857,-3.925780566333281,-6.702127077532233,3.896257270923007,-7.603673872572156
97452,,-4.454189189567392,5.022345377825872,-6.899048572625507,-4.199996896811036,-4.982092322382043,-7.948811978475953,-9.643972214878868,-5.33199814196987,-7.200226664069951,-7.156311202187404,-0.7155808222544736,-6.632973464666031,5.78838432357901,-3.9205272455544087
97702,,-4.515703937124624,5.523187658632086,-12.342356998575497,-3.6385524437595818,-1.99864010958936,-3.76199755282348,-4.705080904677202,-3.394307323341347,-7.319153384522995,-5.036400703573026,-0.6772962815257366,-11.581435171332364,4.853528542423343,-3.3395934020034708
97952,,-7.274439544671098,10.065398075705046,-6.201200520565041,1.2047187442767733,-3.056518301201085,-4.543114408582797,-5.544843220627087,-8.151351275898037,-8.679777302574282,-5.776287108565054,-0.3833713253529007,-8.731642270792541,3.6867398881220623,-7.619190126010649
98201,,-9.046873814008576,8.73138719105673,-5.726537234498489,1.1375577853250285,-5.762674287538304,-5.311530399774825,-6.7846384330268,-10.036892208112564,-7.422725706267833,-5.8069275717296485,-2.406032743224213,-8.838125739717098,1.6955082117224884,-7.221347765400274
98451,,-12.998241555126365,1.8672114571292708,-8.858902429919723,-3.724702906579645,-8.141617521942024,-5.397205682792297,-5.608579812599281,-8.305523412199543,-8.359813406865154,-9.407356739424348,-6.746611293697997,-14.01710707090637,3.263023970888227,-8.463555899258512
98701,,-12.352964463444538,-2.16849832987093,-13.227191596261545,-6.036256753189293,-5.213155390428472,-4.437998751595978,-4.103063294300102,-5.519896865128182,-5.083065404482644,-10.895074219165105,-6.521444213672973,-12.325318811819354,1.4176972270606305,-8.43798817124024
98951,,-9.697459277062832,-3.745558602547203,-12.660764924555831,-8.923298422282079,-5.285914578629944,-6.589913348194605,-3.2822272572123072,-7.992942982176961,-5.871778904332382,-8.263819243011996,-10.894779990225834,-10.57567565759636,-1.4696724803326615,-10.044080467799349
99201,,-10.445863655115469,-1.8034256908520776,-11.30532950515482,-5.027928182724373,-4.131081561515316,-3.0774714424215133,-0.0562823899944837,-7.603913908140712,-8.075747012276896,-6.297479759264045,-3.596927219715241,-9.57734273354946,-0.2894400626413844,-6.582937429001674
99451,,-7.761176983734048,6.221977372258916,-7.284393421479195,-0.1591516341202948,-2.041496165248711,0.7746632408214232,-1.117019599207807,-5.949515520008529,-8.579367987098678,-6.186565731193724,0.3889194762939393,-12.685385408888209,2.3975745180994066,-4.333384158588862
99701,,-5.504552604775651,9.713537829356529,-8.231762683642117,1.3479806375686143,-1.5212851641590983,0.380507284869085,-1.070089387585979,-10.348133086450224,-5.835081021985552,-4.285932475045343,-2.904056842099104,-14.058864839405487,5.038275203291232,-5.3383571497016105
99951,,-4.768723127889636,6.376330312380083,-10.676359263951731,-1.0292753174538716,-6.926274837248822,-8.622949529225249,-3.814126308783645,-5.105623746209849,-4.19736495545609,-7.215613846466676,-11.509351705191476,-12.258317281790063,3.8917711577158953,-8.775968617337341
100200,,-7.281925706129611,3.816574997715669,-12.483409313320086,-1.701277110758073,-5.171104474101399,-8.071112982119704,-4.165661579829835,-4.478844369329401,-3.860825119939417,-9.303852395883212,-7.773275654508729,-8.752553605193075,0.1693972924469048,-9.76946613194546
100450,,-7.9999469711880655,3.085771440847816,-14.774106392990983,0.2516505653326786,-6.308519672238475,-4.89638273370192,-6.999165206136379,-8.067389008700314,-4.993855468264627,-7.84690850021284,-5.440402862542895,-9.652057893897544,-1.0635595818401813,-10.46589956100438
100700,,-6.74459829080279,-0.7939783546984656,-11.04180112363122,-3.5958811297107234,-6.1177878400082495,-3.816341482676155,-6.909363521283574,-8.377658924359203,-6.433860161664744,-4.803612483836316,-5.797925339777724,-11.802080031111306,4.245628811741512,-6.663902988532104
100950,,-7.22027126169047,0.6299258019794695,-10.456368622774717,-8.338689417919145,-3.6519467690345575,-6.209263559701163,-6.500067433169758,-5.263783340558211,-7.309555350660655,-2.518753633749945,-7.769373119497221,-10.08360062503743,4.918731326213209,-7.63365044350852
101200,,-7.093197960468096,3.4268116147961285,-9.00450971741392,-5.488988128711712,-2.742756245979513,-5.463950057228186,-6.255564328108816,-7.183887877874756,-9.434254149853334,-3.3160572404458004,-8.425475948383411,-10.174039864831297,3.770891888155369,-8.647527722827501
101450,,-7.0596299142323895,0.0037457588803927,-10.245524237742272,-4.986846099751915,-3.824663794358489,-6.068482025933219,-9.546225877843018,-5.5706898045528845,-9.280499081760992,-6.682846268513618,-5.5593699140039385,-11.414726814379708,0.9318634337666688,-6.320171384655007
101700,,-5.226629838963724,0.5058076482110669,-12.45794387220641,-7.303287121610356,-4.819590869034384,-6.887319145473389,-6.475523416142105,-5.08913959945791,-9.153593868450576,-7.862524350028941,-4.9883810948660425,-10.02704952563258,-0.9981195801123698,-6.639294894981558
101950,,-7.454784685847064,1.5010325912303888,-13.371855185197184,-7.165744288422196,-4.402111836574054,-5.461849646747617,-6.466570407469026,-6.561109947707556,-9.068158461176257,-6.940734952802771,-3.751665800178488,-10.24906309612934,-1.1126819464345488,-9.408798215868956
102200,,-4.637061273243623,1.5525972893635218,-10.297993668390744,-2.8979614660120987,-6.021019087923166,-5.223531608544773,-10.086373447032692,-8.134734432569815,-8.321131467697958,-5.697960343286889,-4.888710717652461,-12.093632547014256,-2.2168343385088987,-9.961549708137458
102449,,-4.383479708747236,2.5845727053003404,-8.401117858761548,-4.004344452677781,-6.647928016958382,-4.133209580528029,-8.368973868960182,-10.176537229758909,-5.474019546281733,-5.799075443476227,-10.03160097778476,-8.692949795335243,-0.8955256173611517,-11.39135333863904
102699,,-3.64172927330965,2.669258147679467,-8.009857403265912,-4.795646316951284,-1.486924857222779,-5.3956100058877565,-7.398146677381002,-6.739373618357716,-5.954583515296658,-5.843519475047146,-5.598108166094715,-8.275666894753485,1.5922676759663148,-9.040898284160331
102949,,-4.022754409324446,3.756362285572808,-7.656859610098916,-3.590668363687296,-1.5060022445827206,-2.6739993355765823,-6.550948745196457,-4.4055725822261245,-6.94167372368981,-3.05456554827423,-0.1112453491240758,-8.005235171998658,1.8884936379886876,-9.29484497110256
103199,,-4.060632744870597,5.584138481744697,-10.658877522431284,-4.569953797038023,-4.324068716611677,-3.5913601979108707,-7.584697665041808,-6.273971351339018,-5.74486090584432,-3.9202666761740153,-2.710254261786922,-7.416181905983009,0.9828039185554436,-11.12114674087958
103449,,-2.9562197361195377,6.741518793111212,-9.971876132303183,-4.556229670564735,-6.09841262765845,-9.820503848346082,-8.831997308329923,-8.540877937208718,-4.771938011642264,-5.695796276550071,-4.34219340282949,-8.88665796384776,-0.2288568247272154,-8.840498487188954
103699,,-6.809171964938672,5.624787362433472,-9.576769225894624,-4.271254778784341,-3.613588262430596,-6.072306753898401,-8.06652246226567,-6.292395651888992,-5.328620148638123,-4.96550611738274,-5.723228665781496,-12.763818506503595,-3.629096618681801,-10.853027858574844
103949,,-6.513343563761249,2.8490082032643347,-10.88705842750803,-1.694111677589448,-4.130466476761112,-3.8569643698259433,-5.618863301439811,-4.40472985375787,-2.6712315063248986,-4.0356819070944,-4.4229044839053735,-13.341688500196094,-0.928762946469,-10.238906237127
104199,,-5.406745396479976,0.1336746552041833,-9.350079060025694,-0.910009635049274,-2.9600485377859886,-2.370334176704217,-7.209172338777822,-5.756266459903912,-3.025003058537396,-5.201014770650633,-2.534781948928146,-13.195659306588814,1.4272105821761985,-9.721469485901087
104448,,-4.595194264510464,4.138394030337435,-8.406807951886297,0.8159790712974686,-0.2577672317514876,-3.5191903030897804,-7.412718472098914,-4.35182272014927,-5.218001487407537,-4.931491144534913,-0.3454878913364714,-12.629513081105614,5.389491023478712,-6.587633882498548
104698,,-0.8931450989736167,8.15305438754928,-9.335866314019038,5.907172630910988,-0.5285403054877332,-4.210815288958244,-6.452531315305118,-5.373233172030592,-6.227124537690863,-5.956623965395488,0.5765065152963087,-6.667919836151252,7.942144185312228,-1.9250515465316116
104948,,-0.5844124711416422,4.286860295945455,-11.174094740585543,10.884851226720894,-1.0482198358543309,-2.565140154760788,-3.9649176626612537,-5.852713355228339,-7.290109260273946,-5.040110438273823,1.886706589646144,-6.658264337333729,8.248922133502132,-2.020753536522993
105198,,-5.879757722286168,2.064779594050465,-10.141882957844013,7.714649764308645,-1.8686966523959676,-3.016420129509769,-4.122668791997968,-3.792945086311108,-6.320314155377239,-5.594859840755678,-1.4486568639383477,-6.898082004175068,1.0985884564718564,-3.318880575370864
105448,,-5.512151341860471,4.086514824761142,-9.96457401603714,-1.6583744967858536,-3.894801363352138,-5.05819482427491,-6.362636368221346,-5.798257837203916,-6.761650284453329,-10.043262076310771,-4.5781390654307295,-7.746374389221295,0.8007054269367185,-4.554302406765234
105698,,-2.8792927879952512,3.7449958999709567,-10.39539632100604,-2.387478443677532,-5.365200066183174,-5.272500506060766,-6.458427113664374,-5.566335743592861,-5.86290700575466,-4.766089725314167,-5.483669561042625,-8.503109691067328,1.863101113330648,-5.123510591052989
105948,,-2.638596029650164,4.81777234462519,-9.362887518563571,-4.447634211992325,-7.456835048419537,-8.907792046405037,-5.550622893678998,-7.424579960927163,-5.02677576736709,-2.925141500612633,-4.88604013308505,-7.978599266608456,6.952839264260176,-4.457040656646787
106198,,-5.01266766276109,3.586316370499673,-10.69685666326418,-7.643810643308646,-6.479171040592725,-6.430899349078066,-6.518946470221948,-9.268908390712737,-5.073489596945131,-3.956559613162643,-4.0165563498595045,-8.92656323982808,7.447462780510752,-6.741532768300149
106447,,-3.984209878346181,1.3421250360668335,-8.544519823451198,-3.669230995360383,-6.509295351282938,-5.564803211971826,-5.043099390531479,-4.980976129601813,-6.625152340131336,-5.502814284905385,-1.7455187935138268,-8.895858344901,2.691786788835888,-5.132606556469477
106697,,-4.625476161258728,-0.5198563714634806,-10.3872932699426,-3.105575251465877,-3.062948349535224,-5.508631437391877,-3.364261872279834,-3.738663328009949,-8.034726699253405,-8.740972971424094,-1.09226286702631,-9.412343819164736,2.623613071830312,-2.3800161162615145
106947,,-3.9841260077170086,-0.8704796296119593,-13.453854370931706,-4.727883501936702,-3.059875736597748,-6.565704433778981,-4.645762789164917,-3.139896304585194,-7.416328496311414,-7.313581345821673,-5.337642056928321,-8.90967344122766,3.2823890313509163,-6.532163416741076
107197,,-4.501800043405538,-0.4309733269959956,-14.359446254218968,-5.555255740445513,-5.947368258745961,-5.04010515840342,-4.452858734146253,-4.017011808808298,-6.662108024454128,-5.825551993182732,-5.762440910743719,-9.09909357272242,5.644633265178346,-8.432436455979373
107447,,-5.279464071230336,2.023459283194124,-10.555439493496165,-5.6855395484360605,-4.474505515182967,-3.4206339256771336,-6.718880229356934,-7.230937587364361,-7.745036025102594,-6.926066747937768,-3.8753991069005407,-9.991213616932678,6.910499597167189,-5.301790893230523
107697,,-3.637460300244478,2.9767243166944475,-9.990817443417832,-3.3278454606651446,-4.318880352179557,-5.623689563004351,-8.138030356300053,-7.501394241604418,-5.4880196879516365,-4.734007911959668,-0.6377280528352343,-12.974596429400949,4.847012749531437,-5.070225671358328
107947,,-2.6685271069684764,4.463000756278728,-10.879925308294553,-3.05973547904632,-6.868432892331681,-6.602615820056734,-9.667892893282003,-8.24489555683608,-5.867323513474519,-2.9898640258820475,-3.9535348662140586,-15.711344458701308,1.0532764295340489,-8.485028155283938
108197,,-4.8890015540379785,1.7875332883031112,-11.233251209215778,-3.6967607601236887,-4.980155759160802,-5.968305087522033,-9.536456785408188,-8.712708929577012,-9.832016647228452,-4.804422187062891,-8.314658625504311,-11.885586032014343,0.78020217743074,-8.881284493053755
108446,,-5.411997984665856,0.191449581626635,-14.859641341131356,-3.8954349589933055,-6.062324326538263,-8.141242066087571,-7.547813702620278,-7.698820192198623,-8.031175566855174,-7.847088531014097,-2.572259876521368,-12.43235625139354,2.165666621265333,-4.859639559071504
108696,,-5.847217585853918,-2.4016806669631663,-13.831292302417278,-8.367949536961085,-5.29359148069179,-8.383395639169645,-11.00747183250312,-5.712883895013063,-8.03492259496987,-6.099507484179955,-5.186319673621314,-11.969977057218395,1.2240840319006834,-5.874945170506965
108946,,-4.8667132010318,-3.648993245833707,-11.804525520880986,-9.041232264637362,-4.168019868684935,-4.4119046273560265,-6.364086244096388,-4.062733573845925,-7.978453897473805,-4.168102345078163,-5.269737906718013,-11.387205410184125,-2.67063481894247,-8.23848686519959
109196,,-4.970342354351523,-1.4996613900299618,-11.372063305986655,-7.197305432286059,-4.459193505081755,-2.995372209936879,-3.5433687998848216,-7.879175407862893,-5.561732715082522,-5.208964221685353,-5.506170098487409,-10.217898679051194,3.90434931022696,-8.68576554031478
