timecode,event,eeg.af3,eeg.f7,eeg.f3,eeg.fc5,eeg.t7,eeg.p7,eeg.o1,eeg.o2,eeg.p8,eeg.t8,eeg.fc6,eeg.f4,eeg.f8,eeg.af4
0,,-12.237714465064569,-1.9717007731719431,-16.665519835870104,-9.010044668220855,-11.394645071172452,-14.546783215438374,-12.97552278788499,-11.378797392526923,-11.878366186607405,-14.931922649624852,-9.21479023081693,-16.64104886575933,-4.733031695027318,-12.21800871159584
250,,-11.029597565491942,-0.8434508393305186,-14.855002624654473,-7.105172741815661,-12.061793106180216,-13.476773183766952,-13.990959736221177,-10.234041840893315,-11.336997883875435,-12.217509834858188,-6.606888319041828,-14.258356950771752,-0.4614239974592489,-9.133362468232471
500,,-9.609277974711407,0.99089820783546,-14.890980626541378,-6.29045220950129,-11.258444183921553,-12.10634506379847,-13.145760907299923,-14.331444318501951,-14.7445926211372,-14.966802126372286,-7.5273610546045555,-16.75313500370627,-1.2591195289460415,-11.157375129980204
750,,-7.951236687716791,2.359361249432593,-17.284063796277586,-4.453415734893569,-11.721600383382398,-14.70206015549062,-10.604755759229132,-12.126919535811398,-12.710940373787514,-13.415785206703056,-10.493645654502416,-16.397545650784945,-1.6006907954348004,-10.144389206601668
1000,,-10.255175396155206,-1.4632684142172463,-15.824052539069577,-7.060979593806448,-14.060692084269448,-17.446400415897962,-13.352647483738796,-10.891248481095657,-13.97148473274785,-15.367054050918668,-11.820063171708629,-15.809699177620464,-4.68664696318411,-12.784382571189116
1249,,-11.825518648285067,-4.257425652698182,-15.294711902529349,-9.70674294626675,-12.975504430983602,-16.858331886540388,-11.336717448516234,-12.12828946790588,-14.428178003256916,-13.061597301057738,-10.399823694995202,-18.31307773651726,-8.589441411175667,-13.924423053903398
1499,,-10.928716571809494,-5.366106394733952,-18.39249331401605,-11.87046376918067,-12.45713126110551,-15.085178010578195,-11.104161491877276,-12.649507722764191,-14.729763016528532,-14.037533379027954,-13.813232259712567,-19.738606030427835,-5.150109471771451,-13.679160672149616
1749,,-12.592543732200918,-5.747195703889384,-19.788630499681343,-13.763558641591054,-15.283710526174865,-15.44656265998924,-12.798282582593911,-18.007462422097753,-17.33309585594492,-15.675146969906107,-15.91647336544616,-19.540179066211955,-2.384611723342028,-15.461394639368418
1999,,-13.767179615981586,-2.78878264605428,-19.390796662255585,-11.454158902879248,-17.810624841816317,-18.76006209254922,-13.936906816312892,-14.814339438903945,-16.686472652225092,-14.08026448215602,-15.417759176090966,-16.505820503220917,-5.887945941317708,-15.551552791398482
2249,,-15.204933452369652,-4.005173884043646,-17.85119240696154,-12.4090366535817,-17.47921324754365,-18.4484794397909,-14.790803692813212,-10.716458597865744,-13.894390229258876,-14.024287973755891,-12.220955563566406,-16.9939735312625,-6.635990740630935,-16.69767678852351
2499,,-13.17418672635818,-6.71333870775857,-17.406244528881512,-11.430920505884178,-15.829036259120834,-16.60569281950912,-14.845567531475286,-9.686973561807251,-14.672148627241688,-11.378769272044073,-12.34930933414864,-17.878627615450966,-4.040566407005686,-14.427663549514069
2749,,-11.283948776910062,-0.5354762645285247,-16.86922503982988,-7.822904819825438,-13.374463914024528,-15.7346116706004,-14.774454667913986,-11.345807668346197,-13.3014561674309,-9.92420702071574,-14.422686231305786,-17.958173325496524,-1.7922869631342797,-11.69802607890886
2999,,-10.864213785684758,0.7285857429670579,-16.247109378798086,-5.696853975353845,-11.369430730866952,-12.688205327418556,-12.266081257788596,-13.770921397927063,-11.661749752039889,-10.457973246657442,-10.5999972889059,-15.04763655018431,-2.7830745066974805,-12.020587947187204
3248,,-8.312462902819151,-6.338184983331051,-17.066619582621602,-9.927070395913743,-9.675448251423752,-13.36999308375142,-11.176982945122717,-13.05829421288692,-9.657602963190667,-8.43928879562004,-9.6522640018676,-16.678408495436063,-1.6830459393364137,-11.330486979254488
3498,,-12.192627616447238,-6.61155624586533,-18.33141944714314,-11.543312651524952,-12.651513135302617,-15.9439314715357,-12.557928336871974,-15.8990168434275,-12.539732479042993,-11.091814245338664,-10.495921971094152,-17.450854961096827,-2.3361174862664646,-12.43248542038922
3748,,-16.243364029233444,-6.53152609786175,-19.44322179818444,-12.49988476273491,-14.377184622803004,-14.402376761296736,-16.89733499527138,-17.09354279043166,-17.79888556101789,-12.474539670987486,-13.769669753440883,-17.542634851833498,-5.648052441814913,-16.99101830493953
3998,,-16.105051811314425,-6.848153415511503,-19.507605733841032,-14.176374002936829,-12.331664187394267,-10.715086824258735,-12.163276093027877,-16.393825979222413,-16.32189604491042,-14.69919902234796,-12.553329760415997,-18.05038989498255,-4.697214641698512,-15.471554690511706
4248,,-10.594594060120048,-5.872782606266011,-18.586371039156692,-13.779711296263349,-13.637431341627234,-10.76082186145808,-10.49455988030796,-14.946924633695364,-16.26268149305046,-12.34851211795742,-12.831719086990915,-15.156863949830797,-4.43399526905006,-12.2619700550084
4498,,-8.253286830560484,-6.9618263903239175,-18.562157422610728,-13.501961221802674,-13.896764116264675,-15.019314389860153,-11.091793535435334,-14.551901308896154,-15.377186826057622,-13.960996548309154,-14.703669951592646,-17.002383703307828,-5.69685661445411,-14.00999168088181
4748,,-11.697824467510532,-9.981364747214943,-21.18383217135221,-15.369227559108188,-15.917399404998596,-17.44459183872035,-11.400418942478474,-14.293443828233324,-14.801899172741228,-16.68009158878156,-14.527499025233784,-19.209071052569094,-7.99278578635621,-17.495698756233324
4998,,-14.80569630824492,-6.373749770104128,-19.481596553935493,-11.822363264883052,-12.086460693537134,-17.723971830788564,-13.922322929023936,-12.958261589369434,-17.817790273417305,-14.864500129159046,-15.126920550393129,-16.205820597856366,-7.475918431809653,-12.403776232115742
5247,,-11.448014925838915,-2.028104092325215,-14.713063159502497,-7.420711135103436,-9.943014842726946,-15.504466917647717,-18.64468584035505,-12.285361336157994,-14.984976096499082,-14.524464611529064,-12.708535512524474,-15.520322047744212,-3.681027408332752,-12.663463519749884
5497,,-11.281389619067792,-4.115894096557055,-15.912521380562794,-7.19899298885033,-15.145546937616164,-13.986823925949237,-19.48818525619111,-12.260924647003884,-14.395023462469569,-13.896194069764924,-10.009225348897148,-18.70291033053312,-6.3792956002842764,-18.885006458693777
5747,,-12.11740537230792,-3.2375026926323844,-20.6594058883625,-9.120061557273456,-15.035202171093516,-14.356620901554235,-18.20596566914198,-13.765045787229166,-18.18837173686305,-13.640798115237164,-10.146444834457188,-20.34625583978851,-6.296661796890216,-15.935633317198672
5997,,-12.983771986042267,-4.560317875510175,-22.56017037728356,-13.87642369356577,-13.561314496426712,-15.315781034820318,-16.447561813087603,-15.579870019300476,-19.233054937321214,-14.091290992898426,-12.891586150703349,-20.621305606948425,-5.154310400765957,-18.52771013579779
6247,,-13.859972727646143,-5.092234983076517,-19.616080736554387,-16.43028376055061,-13.464080251786202,-16.542796753553947,-13.67342162418987,-15.945547608937964,-16.34631245596015,-15.588808842598532,-14.39661325956606,-22.342594144396514,-9.263428166822711,-16.95605305113751
6497,,-16.050542732597577,-8.78734019429041,-20.32496822514115,-19.1701384733067,-17.607182681634548,-16.62482668909305,-14.893776874078895,-17.654047891316885,-16.70198975909573,-15.259616829220368,-16.38435853944172,-21.57298416119451,-13.008845089603282,-14.226922908209476
6747,,-17.432704713619405,-9.306195967799132,-18.470278545973,-15.266199443769176,-18.078764936647858,-14.997393422188717,-15.848882444048511,-16.104557208896388,-15.783772692254644,-16.21318667870217,-17.907196138193516,-22.52194885283822,-14.87456604686976,-16.237159337819808
6997,,-18.73139107447035,-11.215908463995747,-10.418594525750516,-11.191027724751404,-17.015429262017957,-14.880053434739857,-15.286587619094757,-11.371462621472762,-17.03342608231177,-16.642558932623945,-20.1074828214726,-18.295708719532797,-13.8920069077666,-18.8933360046222
7246,,-16.45252436470229,-11.798769913283444,-10.93879066103831,-8.920010843970147,-14.918343581667628,-16.22220206532824,-17.524120695161663,-11.955878401440996,-19.36937853917701,-15.627967231626476,-13.614923242510892,-17.532725340167673,-7.620717567086221,-18.87611343918928
7496,,-13.51685058671551,-8.349416007187266,-16.06966209670526,-11.0554404310036,-12.430915978131177,-13.729070600888472,-14.220472177402886,-14.93155815284319,-16.944304912290175,-15.02839208146264,-12.092303132993148,-16.755947005995537,-5.478854419094789,-16.0132842379898
7746,,-13.68836347957939,-6.969954103444014,-18.246322262298417,-15.511206465810076,-14.758098132864244,-15.188612715640897,-15.652822445049043,-15.47529125949527,-14.998869669165046,-13.588517181318032,-11.82284779883024,-18.371200450590404,-8.915758988092486,-14.590047718010586
7996,,-13.555715929062856,-8.593389491816104,-19.37124442934168,-16.60490344079026,-16.092666603029098,-19.267096531799364,-17.34369218454749,-16.478258195805587,-15.389798139110948,-13.780587448702988,-12.073327977365668,-16.171498886057417,-9.45024451542724,-16.4075711555666
8246,,-13.806796781483389,-11.84333742933273,-17.031962556752823,-16.91202363894174,-14.141983610251188,-17.62299772070822,-16.928584674794454,-18.184695411241275,-15.3365764711852,-14.679496574760565,-17.506745035199984,-15.139736731713748,-8.235412898088876,-19.263533817007996
8496,,-9.149568884565388,-12.719330480315856,-15.88557206556126,-13.978257226448532,-11.164084879242049,-16.192644110664066,-14.455239402184208,-16.499352386619893,-16.46080344842847,-17.18328125399345,-14.310494135659296,-16.272239678368617,-11.35854508166875,-16.023389827365868
8746,,-10.123443249359871,-9.760531666476409,-16.815522117318295,-14.814870484771324,-12.84426097361576,-15.188123151461587,-13.215747536749769,-15.769060754016095,-14.750003706891292,-17.617474819328798,-13.095166952778976,-18.5212868538772,-10.619140716031833,-14.813185804004227
8996,,-13.98052988917498,-10.44125590821727,-20.758606844247627,-15.738468758972246,-15.941796589866918,-14.648406685413844,-14.948072643633497,-17.19441156946888,-14.861918568299792,-16.62204509019451,-13.949575955793458,-20.50574541448348,-7.108007020624322,-16.139461393987084
9245,,-14.754949410411784,-8.126193981287273,-22.902176203722554,-15.596482433476895,-15.178559058886297,-15.30875773479206,-13.891909918188832,-14.98299155305734,-17.60030049111904,-15.589654095480896,-13.077535752634828,-15.764277144273084,-6.815877267088818,-16.809516742698637
9495,,-16.86306567907248,-7.012915902834784,-21.679440385312056,-16.083183561511337,-14.288238623732274,-18.29228968352984,-14.229807326377772,-14.29226349982646,-17.96679456443892,-16.458998701910946,-11.744669482146485,-16.364756200116627,-5.328334060131704,-16.500197221549243
9745,,-17.99272517844565,-6.758370589997522,-21.044585668310667,-12.411097937145753,-15.530117853272174,-18.48922476886508,-15.491995636070806,-15.45274422949188,-14.086177108831247,-16.42324050424015,-13.129638053382193,-18.665367886971545,-8.43523819858598,-18.95890100968932
9995,,-16.41940580376683,-8.463780476599986,-19.94921136911487,-15.114434326759184,-13.665391136107296,-15.481497639166175,-14.19053901020819,-15.241215365685342,-14.778340744813006,-16.139664305898457,-14.44770243777598,-13.351668559976506,-9.415614105996491,-15.13213094782823
10245,,-12.95326005815796,-9.370783865689509,-15.242430797594947,-14.64542991939526,-14.04789290164362,-13.634931655424008,-13.94042320124174,-15.838424249341532,-16.29080095829086,-15.533867474268764,-13.825685710295264,-10.139849474593731,-6.055757942477429,-14.92932821752284
10495,,-5.864142390866892,-5.670441418858268,-14.375494173554149,-8.194970221964716,-12.394217897020017,-12.42905811352426,-10.619565566228388,-14.74968498822342,-13.662383765065018,-12.911587799718877,-10.513844785646334,-13.942341166629326,-7.528592203396886,-8.621705786592818
10745,,-6.378584921026816,-1.664624949287722,-14.035630912091042,-5.958209668268275,-11.909235614929832,-12.061934837397,-11.471284285185664,-14.645067720238616,-13.76069814309323,-12.884583365088847,-8.474385792517616,-13.810127945035106,-5.401089533376421,-9.108374314655965
10995,,-12.814595424501729,0.2173440354910387,-15.964249764898405,-8.409504754522226,-11.019104951311196,-13.95754216908608,-12.544087497451804,-14.90705563830953,-14.397928562144314,-11.57004431715628,-7.399975921928624,-14.60213439337712,-0.0562459394901372,-15.946362733108554
11244,,-14.099908101007337,-0.8739336909874664,-16.47150140780386,-8.167323513007686,-12.565601049359058,-16.269375359941428,-14.352778635717897,-13.398578885649124,-11.700376405582954,-11.211514914014227,-10.93318053803361,-17.704688655081906,-1.638295832893557,-16.624941285529662
11494,,-12.96115781249829,-2.394735514171381,-17.285978550384296,-10.721116587638654,-12.6242779538946,-12.929528318640632,-14.656892346390023,-13.52949179948736,-12.753633834086044,-14.00371807946063,-12.242622364873457,-17.920636290919877,-5.644821088594238,-15.137569918329064
11744,,-11.96860918660114,-7.347913400279447,-18.751809981329718,-15.150151777479069,-11.787585577097326,-12.096790663150417,-14.888663335192929,-13.192140242249751,-13.456685945963676,-15.94652288100465,-12.204159609833187,-15.913037654473127,-5.368419702455367,-14.196672062806275
11994,,-12.74524596535005,-5.0786488248134285,-19.55381486246708,-14.197562187850073,-15.516580128293596,-13.498171780299572,-14.361621891790834,-10.072002742973712,-12.557531910773044,-16.680090705875475,-11.96111896406206,-14.853079019203436,-4.520949802482233,-13.753266067085754
12244,,-11.446284152567216,-5.890260407019849,-17.332520891784064,-12.209534499918806,-14.46787140033301,-15.050103819627134,-13.313069392848275,-14.048645901606536,-15.012160164441632,-14.42344944874966,-11.41932975808892,-18.05377816140245,-5.9584181089898,-15.937002084948627
12494,,-12.996912569136176,-7.580546328142996,-19.06595697232328,-13.738041629639714,-15.140797155351384,-14.635578883137429,-13.720846952110495,-14.392613553469262,-15.050587377130762,-13.70245815018944,-12.754381034585265,-17.08622158354594,-7.752690519094805,-18.19075536898973
12744,,-12.875247087936897,-9.0566466635038,-20.826051542747635,-18.444833885790487,-13.336107725677545,-12.847770603119972,-14.980596579029744,-15.851599194642509,-15.604319278536565,-14.554849437125734,-14.823184184383724,-18.4288769723332,-10.00471621857458,-14.514648345899255
12994,,-13.374044745622156,-8.42580039648639,-18.03237338988331,-15.320252660498852,-13.65507843988576,-12.52807627180214,-14.73288103413237,-16.80014660021615,-17.149540753561677,-14.490815197640096,-11.73432865823653,-19.818397463208637,-8.865807866246358,-15.29407710636265
13243,,-15.20702942754901,-4.729551169098031,-16.10140151308356,-12.201814610276047,-12.855149821131128,-12.702428472712016,-14.002331246887964,-14.96019135172099,-14.639636077300914,-15.086660372101504,-11.973499569941366,-20.122946361062347,-6.208449497720885,-13.976637568260816
13493,,-14.975011619152095,-5.13179082739748,-18.76820005276442,-14.618984651203258,-15.441704170934564,-14.843356334577322,-14.114605146700448,-16.002434241851937,-14.222792943703617,-14.967565351997052,-13.9903167867757,-18.771359534395103,-4.868546191380502,-13.080718194762632
13743,,-14.33554979166754,-6.874630389246047,-17.56543185537968,-17.00967054234184,-16.322245230602885,-16.840124809172806,-10.112420733070495,-19.04260623715928,-19.134463693861196,-16.27179579407271,-15.126864725948517,-16.028528577967595,-5.121674087525488,-13.739007718299256
13993,,-12.247105154701272,-7.30802053555109,-15.38958843334935,-17.32534749752125,-13.591066986677117,-16.07854144990077,-12.584978301912502,-16.72896949915485,-19.7765181731138,-14.58943220037379,-12.506719241314798,-16.523284404874637,-6.371083644545813,-13.511382927224966
14243,,-10.323838843662983,-9.47963787149464,-19.572978531128555,-18.316856018504502,-15.717157816012424,-14.903113311146264,-15.160877669007029,-15.253156568639069,-16.64074179987443,-16.32124958394045,-12.237032020865314,-20.80600826024497,-8.721192641412182,-12.762815570126342
14493,,-11.004011565620882,-8.78930692584637,-20.00340953931828,-17.221501844476442,-15.225082965344994,-14.262978554461483,-11.51606740657169,-13.459457370666374,-16.789474005602074,-15.948975868348,-11.572170705865892,-18.438293059102534,-7.613568625159819,-11.73224423625415
14743,,-13.206702320109471,-6.699133240934431,-17.661426887442705,-12.477417980399103,-15.63196759333476,-14.892454516621356,-13.354156021398696,-14.922478999338844,-15.651306287763765,-15.492490405368835,-13.823798201255562,-15.713288294290791,-7.305621733330357,-14.527614965848858
14993,,-15.860542251093843,-5.445760881681573,-18.13079094622212,-11.236410013719,-14.328036073181648,-14.385958866130109,-14.665148044192057,-14.524715389031686,-16.339196846340243,-15.022365746944908,-14.54104001935056,-19.22677518015933,-6.587061555027053,-13.502901341831016
15242,,-12.560336712857838,-4.879340090679174,-16.643790321258606,-12.3195166868924,-11.464739520273255,-16.66734148121045,-11.71981099794798,-15.358859146835098,-13.859134437594328,-13.800894807689671,-12.509317201081808,-18.040205501424435,-5.540991742849424,-12.169651370136156
15492,,-9.948862463274978,-6.827949104140396,-18.106457806671173,-13.062663917910315,-10.057224860099394,-17.098040057061624,-13.40830878683678,-15.142576855485592,-12.2150364262346,-17.048450122178117,-14.008719677277597,-16.425532692557784,-3.9313919803202224,-13.071637824526732
15742,,-11.85701906037812,-4.030632500678125,-20.18967439124428,-11.301144193596516,-12.318108533595026,-14.911154898987942,-14.703633731824826,-15.112281308129612,-15.464151051893596,-18.13538313424085,-16.444589836309635,-16.927182783593803,-5.466919271341632,-12.14065474493612
15992,,-8.997813224294815,-5.8697857387949135,-17.371728876274894,-13.038086947439863,-15.317646644617405,-14.463804290682384,-13.615888194257412,-15.672449599178124,-13.64655418361994,-19.09200210799452,-13.04972332954208,-17.169794371794488,-8.384669008374372,-12.28491366035078
16242,,-10.125144860152693,-7.071540597031561,-19.624337903891718,-11.325607489078129,-14.519876152338409,-16.7279332188427,-14.987653377906843,-18.094345752214505,-13.663114221626468,-18.299151868113963,-13.641104149768902,-20.010055431720158,-8.193617056190257,-14.93969629211623
16492,,-16.47552952549859,-7.599595337240139,-22.76438236545324,-11.108531964625858,-14.136597323051877,-14.94747331625062,-17.058419869078286,-13.568417702473868,-13.888682194421808,-15.91662691459306,-14.359843031148348,-20.73895374302233,-6.587611824333459,-12.980122899384728
16742,,-16.43178827450394,-9.372906219763491,-21.366132844041644,-13.325165388826877,-16.164461345356848,-15.782054255050411,-13.236440722276503,-12.291163210432993,-14.059138643369756,-12.617322412859783,-15.587902685820607,-19.568709571646096,-4.964405354737029,-11.453345369257104
16992,,-14.254778190321316,-8.309887287296254,-20.827500734235112,-16.247342144915994,-17.339721313477508,-17.083505283046037,-12.456807486435697,-16.876844590546533,-17.713647546929355,-13.81752415619627,-12.103622254939822,-19.271672976740724,-6.907915274195284,-10.090409319673984
17241,,-12.595144548240256,-6.167028670221024,-21.30624093037297,-16.584505949549374,-18.099887231141413,-17.310279408923645,-11.069781317249412,-17.895058796406325,-16.177339492714673,-10.692606240316657,-11.384856181553896,-17.943867409812,-6.2539229767605296,-13.16807499889804
17491,,-12.95725193167396,-7.259035666752829,-21.7426160624617,-16.289172058842553,-15.641919603647397,-17.599798384943007,-13.623166566423324,-18.60095960545532,-15.449492270218624,-12.33344741595351,-11.294384279803824,-18.677626921964624,-5.879872664210957,-16.17958129405543
17741,,-15.146228540872412,-7.076926542151688,-24.227332983037,-13.444850844243144,-13.662936412320082,-11.902910804857129,-14.453184906069197,-14.709585349509355,-16.871996419949557,-14.281282018133354,-12.317704805101178,-17.404670644533027,-8.095934063435367,-14.004715010727164
17991,,-13.104633748312352,-8.220344670486352,-18.483064711921468,-15.448920790895937,-13.785056472036194,-9.622754195917064,-13.333774642797804,-15.058642829150225,-17.39705453206864,-15.254679100307488,-11.073896538463062,-16.623618981096875,-5.219478670884829,-12.93678593619764
18241,,-13.724134207879809,-6.025123946333632,-17.942979691226483,-18.06587644725561,-15.02235599985557,-14.482770025294345,-17.967537378970707,-16.395563760899364,-16.857223101864818,-17.042023103638208,-13.098058355478589,-17.55671753140724,-2.94869084016908,-18.932532754087767
18491,,-14.056504656236058,-5.832050961759961,-19.64670269275828,-16.397020290386596,-15.168922866047048,-15.554164595482488,-15.503779924861218,-16.552246277811037,-14.069958424376868,-18.979441104814853,-13.364271351626025,-17.86955884255139,-5.590566401688035,-19.02208996468028
18741,,-12.75551100768893,-7.72433141253746,-20.108645410497942,-13.81867744253515,-16.098744071609936,-13.60294437404658,-15.871495786056276,-16.712666286603746,-15.163455600089575,-15.385844995225256,-13.034575279222164,-21.44466394008903,-8.232800433793475,-8.327022833864865
18991,,-15.003045470688336,-7.104993150395126,-17.64322946333622,-12.867370598185008,-17.019110040187698,-13.320194892144858,-15.761810648141012,-18.980897911190567,-16.88296001736784,-13.974068367228565,-13.07161203858646,-19.396533799607997,-8.64465275582876,-5.84520993468588
19240,,-11.654477568195905,-6.381795757085333,-20.039753243277683,-12.598254623871446,-16.333521958990723,-14.396317427900982,-15.146180488456984,-18.8084619837356,-15.88915090102281,-13.485624707733477,-17.780128280066364,-14.60649390587362,-11.701536617776098,-13.269434192849817
19490,,-12.377598353630171,-8.092228094811839,-21.02203963953784,-12.747615028439284,-13.545151337089132,-13.802698603713337,-13.011521657050436,-16.26610089929234,-15.945327871041412,-12.818822683124868,-16.604459646883008,-17.692011027746673,-9.359890024055446,-17.050262151607576
19740,,-12.488176734456948,-7.202514145780561,-20.602980943569374,-14.732000044571972,-11.508352330785298,-12.505864211766657,-11.661625375684167,-16.55894060015385,-13.380060358418556,-13.623120971236,-12.092407537979655,-19.487619949541944,-6.143264696761685,-13.00228205406686
19990,,-13.12206092100958,-9.919064713918576,-21.327436399730267,-14.146465232289676,-12.863352025204088,-12.233885632421654,-15.85318908987297,-17.08970930385633,-14.15320795018091,-15.70794002567034,-12.191295051175064,-17.6840914003838,-9.82308842218396,-11.592740484127884
20240,,-15.21690470975975,-9.703228278629693,-20.04522647588248,-16.07502447508959,-20.346582167652805,-12.556638816155514,-14.710663048160686,-14.23471397160159,-13.720061385850377,-16.991182392856594,-13.587767150454164,-14.893596177921822,-10.36594605669914,-14.188356297161802
20490,,-14.492733146549424,-5.500605963814193,-19.59091305707231,-15.273655075718771,-18.009849786482626,-10.973776293336586,-10.17500376564543,-14.86910212146385,-13.322443077568638,-13.746008041172956,-8.62770139599998,-14.989206720641375,-8.592971187666398,-16.946972970809433
20740,,-13.4072286215361,-4.738811356409734,-18.377915775084038,-16.264613578246706,-18.512547340559973,-13.258776106376814,-12.446796909656149,-16.279391785408098,-13.917763802671756,-14.02285968338148,-9.946784442750822,-16.877915999908577,-8.837615371384226,-17.003166507586293
20990,,-16.627199596461264,-6.202759848557163,-15.227041851299653,-17.322338502003504,-14.650403046985296,-16.303927286919745,-15.905835434226614,-17.536408945292518,-17.89562518514981,-15.07795084032163,-16.069087373320492,-16.767097706052617,-11.794306991652151,-16.728423392425555
21240,,-14.932510976909498,-6.941662867844382,-14.22877735866768,-20.66533306160072,-11.51099174959526,-11.4375393374209,-12.946766756397835,-17.41050849183897,-15.998299645612608,-13.90143963014843,-13.734042035403268,-16.64153644598668,-9.361847965063712,-16.119857710692656
21489,,-13.861257260529367,-8.553274942400357,-16.19524776623107,-19.767809439074824,-12.116270248707805,-8.333645378940659,-12.543570329587322,-15.56426737512673,-13.480542489767736,-14.16005234680168,-12.232569442295706,-16.382208877877808,-5.065371721104852,-16.487715899508576
21739,,-16.95093208393612,-6.452823746367718,-17.96883100833615,-15.218636379192546,-13.544104319661594,-11.280252203542595,-14.619978886167736,-13.367197637891596,-12.445657319482844,-15.63228674021408,-15.573227946055807,-17.802514605816906,-4.264697295448536,-14.02541560319402
21989,,-18.32163209853676,-5.770679145048659,-18.27061727273453,-14.805288330615005,-16.925446151054228,-14.115249570957618,-11.908355432031756,-12.29937882958301,-14.443590272896486,-14.292826810890242,-14.432943961633274,-16.621288626842958,-6.429707218458274,-14.690571457799503
22239,,-17.706832554030477,-7.279972485371404,-18.561614833247354,-17.795151383933103,-16.908291138986126,-15.20123306386533,-14.191367526389929,-13.981839090030634,-14.499261732695045,-15.473027563723395,-11.538763248193632,-20.943105214990247,-4.623027123576669,-15.79787604341222
22489,,-13.593786612423637,-9.1507233114265,-17.226696607815757,-18.395135802570465,-15.904099143901105,-15.843756288191134,-13.64102159956538,-16.923962292372092,-14.154403490998645,-15.076478868890892,-10.05050956455042,-21.6680814358865,-6.403037310031556,-14.539509121001355
22739,,-12.80868979275207,-8.556820970410923,-16.94994424912767,-13.186601990443712,-13.136414845225888,-17.15657581714494,-13.019073525436598,-13.46438260608468,-13.104798653838955,-13.466361146936386,-10.73935197261982,-20.325534422254368,-12.331550659007494,-15.265089699060828
22989,,-13.261282010590246,-8.94181959643032,-19.04721326778632,-13.552382184735546,-12.85846925124368,-15.22758411946342,-14.053877444270192,-12.235893642613815,-15.95824554942789,-16.11154843724226,-11.412915744083614,-18.785610890935757,-6.485649475314529,-17.347245415273203
23239,,-15.246785544575982,-9.58308937989636,-18.8334688452006,-17.980614421375748,-16.58228538010529,-14.32879807674914,-16.761530761819476,-12.629490882147202,-15.587137577334811,-16.76616299091386,-13.609003429424684,-19.473860489431463,-6.301951404675662,-14.701097445686964
23488,,-10.986444100680137,-8.286820646013958,-19.01481882028041,-17.625300142731234,-16.021408286515143,-14.847359921948202,-17.39570245289667,-10.549523453183753,-15.323577778360091,-18.691340356869603,-14.625619841435771,-19.44069859164945,-8.62215571063441,-13.59909788886158
23738,,-11.265959081432,-10.216421564230483,-20.847663650586696,-17.72620581589983,-15.549684393294644,-15.580005024296902,-16.622371060070332,-12.75336126109192,-15.998969773489096,-16.619369100741043,-15.894387726128176,-19.459633459359974,-8.526036499004524,-14.892881901878612
23988,,-15.312159775225364,-5.305776889470807,-16.466195773947312,-16.37508609965231,-18.447117908351093,-16.154034654010616,-16.755794432602,-15.159896298520408,-16.095636971492443,-14.460421143378149,-15.074940429052525,-16.340537918423905,-9.009163116123238,-16.54556875356905
24238,,-15.199841454737149,-7.052710031336876,-15.777309317244034,-16.82747673229692,-16.584966746082383,-13.831605640923492,-14.486790854903829,-12.898964680304896,-14.350415482044072,-15.223469994166932,-12.895618704399844,-16.927550786596417,-8.559896313970972,-15.27645095914867
24488,,-16.045049750324186,-9.98156463677759,-19.077599649305224,-13.33774102526986,-13.654327862124426,-11.899861360735276,-13.878810615204014,-14.528655015784333,-13.23135618347061,-17.48309304791683,-12.280841937939366,-19.336446316429093,-6.60785047565823,-13.258750670096765
24738,,-15.11331856299395,-7.855380513236544,-19.05418928216551,-8.625285511046144,-12.530067151894514,-15.11988647938042,-16.429417565395575,-17.363505593988005,-12.94625716850765,-19.364069191451925,-14.314707172380714,-19.64886556901909,-6.2845290951001385,-15.09373124935484
24988,,-12.216368272824464,-4.571422541674784,-19.31987743952835,-9.11279702709763,-9.564578247665484,-11.841964567462412,-12.916660702241431,-16.1254493425945,-16.22633827070588,-14.3693159202722,-14.935451274783642,-21.09843107670356,-8.167879647378221,-18.093090596792663
25238,,-14.617015585701324,-7.617696473280074,-22.196535996681614,-13.047326528324954,-11.314643446395444,-11.370058921931497,-13.97848985640092,-12.465844279066475,-18.22740266024265,-13.482119000314384,-12.956171182785605,-21.373992335403813,-9.866279896453362,-18.03262679228365
25487,,-15.082500211676418,-12.7643014904002,-20.53761802743453,-15.894788175967836,-12.54967860809288,-13.24282487097673,-11.728021641200126,-11.383051257759018,-15.176916199965122,-15.802881958634329,-11.183307179593596,-18.340579728112743,-9.074534270749648,-16.90249969735351
25737,,-13.331309274754751,-11.81064074070638,-14.66119788925933,-13.35651011938664,-14.942853660677706,-13.117027153972206,-11.479449600051987,-11.888488585660989,-14.45652415262566,-13.97491432573965,-13.36296844997123,-18.61412305432561,-8.988921748594597,-14.994188216594583
25987,,-17.299188792484664,-8.298644417591618,-13.63257276277704,-11.776553757836506,-15.433767495806004,-13.272538755078491,-16.469128223234627,-13.952209602739796,-15.751362506787869,-14.838392831587948,-12.324426749805998,-19.388447639994183,-9.20841145792987,-15.427588041216094
26237,,-21.326539951196168,-6.227747442532406,-19.118311425223617,-10.042116145344115,-13.636800436723512,-13.924822049305485,-12.847825267087114,-19.00124399501274,-17.195371742140644,-15.837427728012718,-13.948214436019576,-18.337754526640428,-8.444236566782884,-17.169893459383037
26487,,-18.03263692725554,-9.29037690535289,-19.2628380707592,-7.31384548633514,-14.874684618951182,-15.32293205375518,-11.426005072440182,-17.66552566449459,-18.22931237942961,-16.317690582075002,-14.812929239047891,-17.27855642789111,-6.822924328277127,-16.302050211311613
26737,,-17.121135211752396,-11.964779319418088,-17.22226548992851,-12.612674481998804,-15.824579111395776,-16.90831531715153,-13.954924461932537,-17.81015716797932,-16.363289664186258,-18.483985330158973,-14.570252451487889,-19.766642188878052,-8.922523354801598,-12.74064007489692
26987,,-13.233148651240333,-9.889150540770451,-14.848885519448611,-19.2214895868624,-11.87564621039362,-13.3380438743195,-14.096138311858098,-20.704840022053965,-14.635856565623286,-16.684663187763046,-15.499493367579031,-21.051622288208748,-7.300857187478545,-14.09331016455196
27237,,-12.604349425799784,-8.989445081886904,-15.810156929122051,-18.509772892214457,-12.937400796038483,-13.217232055750404,-15.132080956349384,-16.26184242869579,-13.215387516973433,-15.199915457374347,-14.418733981775803,-21.288605656612454,-8.543796177998113,-16.804122757501588
27486,,-15.389449082608223,-9.438058910453512,-21.487756153529617,-15.79976635816156,-14.483766914778297,-12.04998629159405,-12.44450351660956,-17.62975453968834,-17.50336768516458,-16.859238146274343,-12.996146595447346,-19.691383830955,-8.146416058416794,-16.072680048683537
27736,,-14.026948056425994,-10.037100606349648,-19.928615281298907,-13.881388726084442,-11.663591383284476,-12.425814589500632,-12.87134349878596,-16.297131682462194,-17.64221934407885,-20.102757375374416,-15.020372651534007,-17.803458936356765,-8.465599045901618,-16.521871514597045
27986,,-11.76902142520591,-14.53051020278943,-17.7272199647173,-16.26112341456001,-12.203157586496422,-17.707185979705958,-13.520307818618653,-14.075383512309472,-14.276751938655714,-19.03289614661048,-14.577603724557598,-17.532204413683527,-9.555212773316876,-13.105908101476189
28236,,-11.912717280626785,-10.607688326506649,-18.911563499278746,-14.228699247527627,-14.519418596038715,-16.26974444132275,-12.17456168326322,-16.798797864053395,-15.051181754173166,-15.73578530980372,-13.929205756823553,-17.035475293014578,-10.403592795123627,-13.273709931396366
28486,,-16.487860045186554,-8.018204046264989,-19.932792403841223,-15.70039293939736,-14.103244929915988,-14.991294633993263,-14.921777588953091,-20.49014565777985,-17.452513682330007,-12.811675565894234,-14.20900189750072,-18.34155815296833,-9.506249072882294,-16.818621715874073
28736,,-18.120390412235075,-7.606516419356883,-20.1329971225452,-18.14021893063654,-14.91175329420196,-12.96552353135157,-12.371984155785626,-18.22722705950184,-15.992732929672089,-15.611614641073569,-14.660129940930094,-17.949465610077546,-7.143445445171716,-15.332553827322863
28986,,-18.22334484485048,-6.833142228417151,-18.90449939073131,-17.042512158613256,-14.6177081340263,-15.673819071222033,-13.551696467633992,-18.895448592753784,-18.20220067113661,-15.645358770827794,-16.142564574221524,-18.103642372673544,-9.158947194516758,-15.637543392983968
29236,,-15.77476389613119,-9.990794532306747,-17.972049965457572,-16.98844822214175,-14.663334126054192,-16.504595429266594,-16.712808813535315,-17.827405646606504,-16.243266217039228,-18.53818271902676,-15.867127815368558,-18.05889547924205,-8.933320684562114,-18.050388014955526
29485,,-14.871647765437364,-9.495114315130069,-18.50431821620451,-14.507564332679635,-14.545739609096987,-16.472933682164427,-16.20304668551123,-16.551742680170992,-16.27918107262847,-18.159997371600436,-15.676107956171297,-18.55048899039534,-7.666626463497731,-19.986151353408037
29735,,-14.482844630568025,-3.752630990358833,-17.550343586557315,-11.946242375480043,-13.65893271527625,-16.18804836809906,-16.80094609981428,-15.578902721268468,-17.53448730793032,-16.34915628712495,-12.171586090223286,-18.70154240902645,-5.800201506206416,-14.393224838628145
29985,,-14.529741344187242,-3.0227136236897016,-19.10576087669416,-13.06279935674874,-15.4998608452529,-15.449124700809447,-11.515177573441877,-20.409477083971712,-17.759499884828085,-14.009958921456857,-12.561302888601029,-19.074958249790797,-5.80371574793309,-13.6766975254968
30235,,-16.38768869470404,-6.588526128937029,-19.78487531400557,-15.052886114676356,-14.234447859785169,-14.022365546339763,-8.330132374875351,-21.22719182521856,-18.737599525393595,-16.06338076622726,-14.152192572122503,-18.841775806250578,-9.745398463072616,-13.96853167755642
30485,,-16.22488120592535,-10.501089402919002,-19.44237002260648,-18.231320117063657,-14.784202449697826,-14.602470418108023,-13.039161844324529,-18.43835974237542,-22.60336316332973,-16.72157959744328,-13.612291544584869,-16.945244694291674,-8.667833372450946,-17.589350442589165
30735,,-11.954188469505503,-12.191161164200912,-10.860811127972775,-17.581687715440026,-15.04343652843944,-11.83561026317697,-16.543011359447437,-14.925266009222698,-16.67107314145803,-13.123456399568552,-15.99212359313552,-9.840373778445237,-8.259996314820441,-16.630205378162884
30985,,-14.939706881737782,-11.54458862742636,-11.120756190984547,-13.537241618536802,-14.18163536537101,-10.34229271331803,-15.83835694802196,-15.94253307399244,-13.323026788791344,-15.581003735200058,-18.31963331328569,-10.995292340238557,-7.614839946282102,-14.484881663980651
31235,,-16.18050872137786,-11.018742649404976,-8.854641955760462,-11.19551181859337,-13.622569505043929,-12.353591764606902,-16.133320845377902,-16.66924512085838,-14.251880554588343,-15.626584787770168,-17.102335197572703,-11.890268133591531,-7.450499545711688,-17.278862903549623
31484,,-13.009648409297643,-10.176144713518022,-11.984684189265826,-15.793647913224616,-14.43326965410629,-18.6654544286386,-14.732442213794014,-12.217005552334864,-11.88651100019136,-13.587064639649835,-15.601731717913216,-14.878318620705375,-6.685897231716336,-16.394743512063332
31734,,-12.224091966067585,-9.254471176527256,-15.612557318745935,-16.88556749086649,-12.661152937444491,-18.280965190851457,-12.037051457687143,-13.49003097569814,-11.430988537913493,-13.644442960676052,-12.058722627380064,-16.763686887665582,-5.103648514023962,-12.74987228839555
31984,,-15.661628292285608,-7.910958590789937,-13.247696767462235,-17.583886590869856,-14.734125359352756,-17.47264103462796,-15.527504356315706,-15.013630029883632,-16.23697117300471,-15.8571772388531,-12.060642096606395,-17.001087654073718,-6.530232467842439,-16.463331837512435
32234,,-15.506593362654549,-10.80471848238004,-14.908425049864231,-16.693976640518127,-17.683890606705233,-16.52816624317512,-16.644520469837367,-14.593838297673518,-19.569774962444008,-12.535118254150513,-12.35198436841011,-17.230601270391148,-5.463310594122962,-17.63297098968198
32484,,-14.060022372744358,-7.122249171806203,-19.394885886008527,-18.174381776589065,-18.23499954296212,-15.604194872564152,-13.155703076912836,-18.015786463947222,-20.789077160903204,-10.861716449563168,-10.59703160452521,-17.981384685383443,-4.811411443720015,-16.487591729920375
32734,,-11.852327941029404,-8.527108215490308,-19.465309382993134,-21.643867933037285,-14.779718941883155,-13.41671227676434,-14.303286456438764,-21.440869644103778,-17.147029218262947,-15.131934229698022,-12.411908729916226,-14.925368005265325,-9.83463812272382,-16.78482955548151
32984,,-14.170324004124035,-11.1196140869255,-19.395098177756378,-21.27696147394461,-15.548911367827468,-13.970688662292815,-15.214264023005011,-15.757884265881534,-14.964881021567198,-16.57335182785175,-15.061622067360824,-17.765297741462096,-11.4835216754396,-17.199552563450624
33234,,-18.365873956700703,-8.92442152633995,-20.843237467684563,-20.37055113586872,-16.260711234923463,-17.30819884062918,-13.983191831773183,-15.088656330429618,-15.370038920541646,-15.103211288470032,-14.855377832622548,-18.3470316656683,-8.546892173001408,-17.301675373623425
33483,,-15.606850878625876,-8.06608611404364,-19.478421599662624,-17.44049371634631,-17.16846932060869,-14.189729662785876,-17.098259770073355,-17.886207117322343,-16.680452373236815,-17.48281685949404,-16.476953873898623,-14.399105988559082,-8.46968420696412,-17.199531620878588
33733,,-15.938465508115666,-9.164472925354456,-19.92070697959,-17.818653038022706,-18.89981228680329,-13.996920502491124,-17.611422381035123,-17.21403681396228,-12.885489339296116,-17.26708359635082,-14.704065605366273,-16.831697777927733,-10.735910320609625,-14.358946290953767
33983,,-15.808191032188736,-9.538077550192574,-19.75148727043136,-19.500226942981985,-19.602750045529767,-13.076520078936962,-16.816414923429782,-16.348574173573006,-14.42909131232711,-14.35107054873614,-15.615134997383285,-19.461540678905493,-10.897488169443696,-15.90226364924126
34233,,-13.86733197583032,-7.661183591553263,-20.93528076639725,-19.101272981321337,-17.577712914372583,-12.598993367790271,-15.338132035313327,-19.61568123714365,-18.57362088337829,-14.15788825804219,-14.932954423331015,-15.754997395250603,-5.903648244216146,-15.615597244711925
34483,,-11.776793737442606,-2.78173396589982,-18.7724602489596,-15.164230093335275,-14.475731001862917,-13.020418409316113,-15.482417557404524,-20.04132446527184,-18.70703215385933,-14.271096843504235,-14.403693912360724,-16.14464647039109,-4.233810622732655,-12.027261392037602
34733,,-12.227227084840528,-4.261627970114864,-16.026547425801954,-14.02649777700066,-12.56480088901226,-16.543556508267777,-12.097649698351578,-17.68796056513232,-18.305887135624268,-11.21014582154422,-14.906483473653465,-15.706644432744952,-6.317313002495783,-13.828090566440975
34983,,-13.118225156269675,-7.908796194037318,-16.11102930469216,-14.049674760849218,-12.357531865589191,-13.825370919075834,-12.901300038061724,-13.588414108782075,-14.728544919773627,-12.97066937613986,-12.044298581343876,-18.291116027561007,-7.344326812546507,-14.69328435716534
35233,,-14.679209501658548,-7.87579044360564,-18.293894755212,-16.374633453750928,-13.918943046226817,-12.592893065341729,-14.00580688167042,-14.124939589692268,-14.025793583313096,-14.841715326350911,-12.46200669781599,-18.492775248203355,-7.562630705435169,-15.374760744528968
35482,,-14.072005916417329,-8.110406765970072,-15.32569363937208,-16.867326400554234,-16.337945797448924,-13.443815211382413,-13.729811954678809,-11.391938679218006,-15.20986280632794,-15.786100818844854,-13.26755963686576,-18.237259349820192,-5.779837023302008,-17.955442744630766
35732,,-15.495348475866496,-7.442748982216641,-16.899408453541,-16.310355073658663,-15.481779437419949,-14.882032969989726,-14.779765319664644,-12.167692824051182,-15.084019648382894,-16.703863960937525,-10.06051955114076,-18.941746549322037,-5.9714704247417725,-16.958172714161034
35982,,-13.008181411414522,-7.755839206190708,-21.23049257006285,-14.90571018165322,-17.955419674777048,-16.226010735980033,-13.924734796871892,-15.988827583203184,-14.368747705055986,-18.19669971040454,-10.64155313518823,-19.40951683298601,-10.389134349005928,-18.34792067814649
36232,,-12.73224291989498,-7.56888003217779,-20.784927087078348,-16.391814025125267,-17.765393890251268,-13.69404608054177,-12.037739072935572,-17.314589015577916,-15.686641189628077,-17.033299182828973,-9.341520799969288,-17.74216078735317,-9.701095711068334,-21.002260970341275
36482,,-13.722298095404591,-7.216871239326659,-15.723868202495726,-17.05569603149548,-17.3605686082131,-12.865217905203732,-12.595069229314404,-14.375802610001514,-15.571677531083058,-18.297854163551463,-11.725296160974906,-18.145812637457677,-6.931158982517989,-17.846629759610448
36732,,-16.35565529611364,-8.644550372616239,-17.671917388366037,-17.581784252238354,-16.21228967784393,-15.779229105647453,-13.98036994324023,-14.06681423121019,-14.449287772391315,-17.370511689802786,-16.71675170511092,-19.279274700709852,-6.334193795561996,-14.580474676129692
36982,,-13.209355790726558,-7.185811330665831,-20.15234620926862,-13.846190400546345,-16.35249774427531,-14.728664507983174,-13.599246887586848,-14.540336089469593,-13.252324058556791,-16.542865630149013,-16.797530834658563,-14.518472810477402,-6.444042974843077,-15.016926959860411
37232,,-12.458188797374667,-9.704964999319246,-18.901917027392024,-10.745173492948537,-16.442088850850364,-12.247093095414847,-11.897539628196078,-15.835147889151544,-14.007742254871392,-19.356049835335195,-16.059706472966475,-14.990728501266483,-4.887048831692995,-16.133331636021715
37481,,-15.406211601254622,-10.813263298560564,-17.56866071677615,-12.45743847747262,-16.22429554543039,-14.01599734018497,-12.635595183272974,-17.859863462779767,-18.168657359971174,-20.664748648920646,-13.708733750229186,-18.392825821056427,-4.283160839498694,-16.721250193553953
37731,,-12.2599885036309,-9.259787634594218,-19.230207247315303,-17.240531510373025,-17.072932650611904,-15.742573486031471,-17.240083089077658,-16.84179604894211,-14.678951811085446,-15.711564757793866,-11.670704834028232,-20.25080062242482,-5.5425807761505,-16.155755667857893
37981,,-10.9147877102905,-12.203212028639156,-20.659349004934956,-16.73628321237069,-15.673001481232124,-12.93570143686168,-15.326206756164108,-18.855163339594583,-15.659060015178529,-16.549712376898626,-12.753656039021452,-17.745201009067824,-6.247973137293207,-16.258890631762377
38231,,-13.353321199064274,-10.996451585073505,-21.09612880076432,-17.761155154940415,-16.206730135287685,-14.70800535788311,-16.51411004040375,-18.5582465170276,-19.59404591855553,-18.094365693299537,-15.668824902080456,-18.15217389367181,-6.583575524494036,-14.662784572853589
38481,,-16.693372138038146,-9.32972181866719,-20.0577727069594,-17.47272380859085,-17.78246664896927,-14.876913957464344,-13.83319394223022,-19.0084952713686,-20.20663578163815,-15.96752263105041,-14.940152160615822,-19.179471899594503,-8.447765172967182,-18.422748115245668
38731,,-15.130281095270156,-5.803480829309775,-18.737081677414228,-16.50590313426796,-17.13812839800244,-11.326078774877136,-11.861533379036624,-18.84892799962501,-15.822455206358734,-15.412409640255778,-13.424249237475031,-18.970282275576352,-10.987502855342546,-17.335730584941484
38981,,-12.800141286197672,-4.448552624037219,-18.416648469389468,-17.169839446167916,-17.106805132097623,-11.177282258155133,-12.250982557692785,-13.485173152456412,-11.438465936151747,-15.84817356285246,-12.719064909870411,-19.76322131024536,-10.57733963841319,-16.782761874108576
39231,,-12.982951340135894,-5.427919678387751,-20.38716759573568,-15.196216232331285,-15.852589215474014,-14.066611126514807,-11.35771588402191,-15.076065466629668,-13.252174239345855,-11.482185864634062,-12.482223572958,-16.95316243129613,-8.471410000151694,-16.36268392629906
39480,,-11.247505300386331,-6.206468375959203,-19.648049993530503,-15.998473068577322,-14.655447802912692,-14.584577791895692,-12.820931549357002,-18.49364464415308,-15.837077754305266,-12.382503265467204,-11.820041704414272,-18.44218855825109,-6.8337930255042645,-16.742917398816935
39730,,-11.704179853572857,-11.081006741198973,-19.957676674047768,-19.572092108854445,-13.137901629018083,-16.141769182202566,-14.286241703259249,-16.04472825014835,-16.153095071642923,-15.708393417580808,-13.005803109481162,-19.206116078574688,-8.216857231855718,-16.742255599156334
39980,,-15.539430591465244,-10.93334261238157,-19.238744825339865,-18.83106153482801,-15.97651257745162,-14.798668773133624,-13.972765546924435,-14.651209592673112,-17.115373512251296,-16.176494163349027,-11.80980082333548,-19.16537032161265,-8.20988688438054,-19.616088311204045
40230,,-14.392420420912238,-11.059262615857133,-19.329229911831312,-18.00742541877057,-18.11098098701152,-15.888995660782022,-12.98064913562575,-16.703706055141424,-16.43727573328289,-18.01115866355974,-13.613351504165578,-19.64933240212217,-7.323265010255912,-17.181834302194048
40480,,-15.692468618002366,-11.452454057273956,-18.29946251141847,-17.602045978186062,-18.89350334815624,-15.366916428285911,-15.415337674116987,-19.122763617922686,-18.22493218859584,-18.80067954039493,-17.564545135862648,-16.35410420860571,-8.824639863447068,-17.897761958712504
40730,,-16.443612235125357,-11.331499900553275,-19.370926956986587,-16.591268343670915,-18.231456086834857,-14.534462051804402,-18.975571294233266,-19.273768693845295,-17.28216356550579,-18.014199844070895,-12.398141648483914,-16.851649819725125,-10.659338022807372,-15.465323024611962
40980,,-12.046174573371603,-9.55538720565263,-19.8149718664792,-16.863193553078737,-13.865210130332551,-14.545665141686444,-17.1492815753653,-13.123234108838098,-14.680728649161702,-15.79666178358854,-9.965800980939807,-20.12635241360842,-7.550817332500807,-11.476446158305894
41230,,-10.703485376911592,-12.676987150024878,-19.87982690437652,-16.046138136184076,-11.963081791069593,-15.071533026500909,-14.695727659588677,-11.742304538398184,-16.253021971324173,-14.558930616471848,-12.92878886615988,-22.2651423186168,-6.051193664029717,-15.00495121707772
41480,,-13.54611537834628,-10.727528860386236,-22.19071735952226,-15.6421044693413,-17.22889852934,-13.717685787678606,-12.139504047275452,-14.416830779658184,-14.370014730045714,-15.270719645893536,-11.618462450262063,-17.859019216850886,-8.76153924412241,-16.26757421910449
41729,,-11.491032015332587,-8.185565765668454,-19.82230602999585,-14.27951419001396,-14.097957734256376,-11.96447880322046,-14.136725676032569,-15.074465322781874,-13.088354616956918,-15.83545664397625,-11.096601142659434,-16.864404354019868,-6.241949193058681,-16.384997646768714
41979,,-11.992281304082058,-12.06365478741218,-17.868684062885936,-17.79452462697457,-11.27809334996772,-11.878371737064846,-14.762889664941572,-16.554558693973267,-15.044629993240514,-17.528745158616054,-14.705646959011462,-18.77752609284767,-7.972770379651724,-16.92624856312578
42229,,-15.85715418655731,-12.30283585799564,-21.52876273317662,-21.223794151972623,-12.1854510632173,-13.595441977586134,-15.224396895259384,-16.419990579981338,-16.29923915797651,-14.327902315535718,-16.59216391451664,-20.14832441190451,-12.90095183810013,-15.945005875251528
42479,,-15.779462547490752,-10.25893241970219,-20.75052249385974,-18.090785335281737,-15.651682440846976,-12.700228764229104,-18.78138892415604,-15.395683161744955,-18.04007019079304,-13.798226769063795,-16.69898266942767,-18.75214227240868,-12.44934157529666,-16.811698625900565
42729,,-13.39845386078168,-13.47014473144224,-20.33745504648074,-17.085184699490675,-15.505387274452758,-15.452937817947756,-18.10121155344206,-15.204978964668696,-17.50129288594243,-14.011738457140382,-15.121293588943818,-19.408912955353223,-12.518676524519323,-19.66983446991812
42979,,-14.948780420189962,-10.649513613866716,-22.14630486054204,-16.544559513912503,-15.945306564686271,-14.710533355813082,-17.494984967282704,-15.17928421949107,-15.791927841300746,-13.555969933306828,-15.270284685561757,-17.714373279665924,-11.98622462323729,-19.80144742446067
43229,,-14.143184505218526,-9.461601085646858,-21.04817311832424,-16.135987350290428,-16.536283729990174,-12.621538304521868,-15.944672505411956,-12.800860301254977,-14.26283060410042,-15.205806799271704,-15.604747948195554,-15.851386111692843,-9.164456960109042,-15.851104452597472
43479,,-14.492293430522196,-6.506940175663377,-20.434816550477013,-16.57362999963249,-18.867171379878386,-15.102813651209273,-13.869037597858842,-12.480289765021372,-15.069225144712233,-16.676477622764704,-15.007777021133473,-17.752078484629475,-4.280251489035972,-13.5988386730061
43728,R,-15.645989993052511,-3.446615855386115,-18.13491993215032,-12.155649844113842,-16.793847127071565,-13.56996248731167,-13.172466525651016,-13.04248444035138,-14.89859760645784,-15.957950116561989,-14.179101444521509,-14.692186191271478,-3.0811248123596617,-12.414827808558815
43978,,-11.945517405499425,-6.1641572421678585,-18.861008006809573,-12.840693158742514,-13.825233379998105,-12.792046434209352,-15.168206494946514,-17.640614349785498,-14.624477964736426,-13.941517547420451,-11.171793296700256,-17.24388104223155,-5.803957136506179,-12.02993934049074
44228,,-12.86779241074463,-7.321881991997303,-15.889906566958558,-12.995503702008516,-13.750021640013658,-14.058479607015888,-14.382783462207682,-19.09110749641056,-15.637462501709772,-16.24478397505541,-14.051239890363762,-23.20907273333535,-8.966632173783406,-14.527420262528375
44478,,-15.86151232059966,-8.883455069713818,-15.583597049019648,-13.182554776999416,-12.678772884148312,-13.97228059378123,-13.866633337318756,-17.0623757815553,-14.602287298559506,-17.751990024242566,-16.910985759267728,-22.319501549408965,-7.646849173611714,-16.579454274456317
44728,,-15.058965231456842,-8.98532872230982,-17.257687900483234,-16.033649547880124,-12.962698056136004,-16.035678806510404,-18.668041582226177,-17.842226050171536,-16.325456626187467,-17.622615907697686,-13.557745438475257,-20.4882150032385,-4.863410101494738,-14.89682472391355
44978,,-16.14044726560197,-8.760387062086597,-19.47470437400716,-13.633784253133772,-16.147857448497152,-15.569385098818898,-18.84068230575147,-18.59621237509177,-14.111095000807058,-17.900921929138235,-14.587659601006106,-18.018215256569366,-5.040229461534374,-14.86390721682042
45228,,-13.802383083771716,-7.9251237614964065,-18.751956935903102,-10.55290854305268,-12.95769680349183,-11.066907666156322,-19.443496100377867,-15.881952399385373,-14.884229266044636,-16.202791676612144,-13.60031532418454,-15.276226903096294,-6.625119434423569,-16.327579165263487
45478,,-10.72698180158978,-7.921795243858877,-17.716126858940278,-9.527521465763632,-14.003497849123752,-13.942990401086703,-17.514513952712726,-14.453110072522271,-17.21719321980659,-16.251596377627354,-12.991289386879272,-14.130778741445573,-8.97885285936671,-14.73060339081767
45727,,-12.73106849303572,-7.800532047839046,-15.977157796470902,-14.055331015703583,-18.381326902457317,-14.598064888283488,-16.786993054179487,-14.499826396567174,-17.82271522752289,-14.746406954257116,-13.873771690379185,-13.887433240274358,-9.925008981836612,-18.046255746151285
45977,,-15.360383284260283,-8.045943519172823,-17.29481931008617,-14.970132407415216,-17.116117391500726,-13.158381513141444,-17.328286394813247,-17.709420559117376,-18.167785820789057,-14.994922587871034,-12.871149168168388,-14.5562023023387,-11.616730436839651,-15.727145145538664
46227,,-14.957018300071052,-4.574292499142445,-17.99837752937861,-14.515884259366665,-12.32570610720045,-15.573481698158403,-15.11572727215609,-18.94407655622349,-16.45461691543104,-15.006354773078836,-15.4525343335838,-13.881245241385676,-11.04181733770902,-15.07118172140093
46477,,-15.915205470720162,-4.737174857896653,-16.695205477523018,-14.575880703498708,-11.402750005640854,-17.2199627081981,-11.849101240142794,-14.79548560843318,-16.409677437835995,-17.06611627211158,-17.04241384046415,-18.09901093052811,-7.721771688032458,-16.236672064899977
46727,,-14.384263639297448,-5.167448156615952,-15.671121831866072,-11.843340321433072,-12.584573374597236,-14.608458800943788,-13.431396040200529,-12.931322513434583,-19.744904264793025,-16.208032734939007,-16.172456752132256,-19.063199250875567,-6.749632457392288,-16.82780730930723
46977,,-13.046076771743165,-2.3034657091084094,-17.034157935903146,-11.129639201821313,-12.63435565209324,-11.108784443018092,-13.328520807688092,-15.11083632135402,-16.2084237832684,-14.547401437065798,-13.597606332230436,-17.80646682044267,-6.853098138635961,-12.978830814712005
47227,,-11.457425014313676,-3.030637623068255,-20.02277664518061,-12.836542687398602,-14.112937193086989,-15.404146364457954,-14.262166627253624,-14.714081252516644,-11.987911533308672,-15.426123555716488,-12.203311379357595,-15.129948275478805,-2.186662657924757,-10.745794524841312
47477,,-9.244026993228148,-4.344197401603008,-20.359434307851355,-10.9075935562337,-10.517498229598845,-14.677639495570702,-13.998757255497488,-12.054431303784169,-10.722453097476766,-15.391367455661412,-9.864692710429903,-16.12264876892303,-0.3194494193373915,-11.929589378287265
47726,,-11.536709526005517,-0.1352078883776041,-19.568351333851503,-6.365110075936942,-12.184037450912546,-13.578890249534693,-12.067832154921485,-11.657763716341078,-13.440828018997625,-14.724984548424674,-9.196021455412854,-16.685363657454346,-0.735443812261313,-14.774371785951336
47976,,-13.153207789181408,-1.2762537598949597,-17.904467904041372,-6.967093709288182,-14.32985124537055,-11.911513216561806,-14.774526455971449,-12.349903692720089,-16.064206498248023,-17.148933413088482,-10.067206106257512,-15.290826624829744,-4.337353697295956,-15.207556341430069
48226,,-13.56812504988088,0.4897588832224082,-16.415011495297932,-8.842657515519738,-11.7440388452194,-10.422192002146584,-17.922805047951204,-16.61932518600204,-15.236804872180812,-18.113711952407357,-9.022608500146566,-16.313728009082112,-4.666778825539848,-14.4961610386801
48476,,-13.702506264077726,-2.396580665895573,-18.462941213346085,-12.51261835830626,-12.409234568259633,-14.921916292180413,-14.345784854158737,-15.62368104887307,-17.68781759348953,-18.36315482261227,-13.95393326060976,-17.02398208010207,-8.367589515849215,-12.652012010051289
48726,,-12.91025089677613,-7.423004539926099,-18.15302808501419,-14.961448112106051,-11.837845095786436,-11.307784107789352,-10.875575429753887,-13.318318006033545,-15.779313420672947,-15.010733105903268,-13.62215277508133,-17.192194293303334,-8.134253158496897,-12.97350285504459
48976,,-12.60991345409242,-7.745757821691597,-17.68635518771864,-15.35000295335484,-16.069584861051336,-11.420075028699635,-13.951029443409144,-12.74951981764685,-16.137761001533658,-14.365292714140946,-14.497419616652964,-18.686453446431333,-4.7206280421054885,-18.169299719789407
49226,,-13.032156570127604,-3.5274104538455484,-13.985252698744482,-13.121979763877215,-15.371000867813208,-10.895901316700806,-18.48937558911598,-14.411967561653595,-16.783304075177618,-12.328315939328998,-15.890633703392831,-20.686144874359734,-3.2701958678762284,-19.16492390932933
49476,,-12.231484359903495,-4.979593203999996,-14.96704146491175,-12.83933616201768,-14.01054396468892,-13.841375783324594,-16.935358622878436,-16.97928309394111,-16.37746001552152,-13.427808022766134,-14.285398178154685,-18.414683087766377,-5.294504038343036,-16.58435263082682
49725,,-10.316109041896206,-5.746911335705196,-17.43223355014956,-11.41491704702356,-13.190300084511357,-11.598129324327694,-17.605229518708754,-15.7309083543316,-15.39462551643127,-13.791095786086894,-14.31829637516522,-17.633934139883543,-6.113862323795147,-14.359798700588488
49975,,-9.761793979725,-4.032927049048556,-18.93954341145408,-13.863333209484484,-12.000373092073346,-11.856362986069858,-17.604593744714858,-14.273897108435325,-15.875280302580055,-17.789844961445663,-11.612947275572507,-15.98370551517695,-4.313778657072933,-11.56334757184804
50225,,-14.414889268874315,-8.588653334344528,-22.57566113235092,-15.943048917947394,-13.390614193994598,-15.30198188765244,-15.967136830722788,-13.612971798751888,-15.059836120723132,-18.9651816426653,-13.144322226845851,-16.767523129149783,-6.936419699178438,-14.033642869954608
50475,,-14.86109493718452,-9.066596632660492,-20.201163659601505,-16.46213608866863,-12.420897179346808,-14.371345757501953,-17.819923839636783,-14.979862694184664,-15.64366404590655,-18.92864359631308,-11.360474539883658,-15.768691282512943,-7.085378353831311,-12.927940871022765
50725,,-13.64952415457148,-7.885529269799325,-17.35694159188282,-16.962506209054027,-13.836502908940927,-13.50642277491309,-15.946695938459587,-17.101010588232782,-16.407910476255513,-19.797599798858613,-11.44896523195322,-15.97131821886039,-6.301265998000818,-13.426759989053233
50975,,-14.101900909387645,-7.044869567020763,-18.753426231638706,-15.914500083378895,-15.566071926484282,-15.32357633285877,-14.027333321494911,-17.56400544038345,-17.61859996174349,-17.110682434619203,-17.40708304062754,-16.155609622988294,-10.425302779733425,-17.39407421847423
51225,,-14.694325528812346,-9.01345657415924,-19.11849492149152,-18.613685391254176,-14.417048887418895,-15.096786534049071,-12.747243015437055,-19.40571307824456,-17.696957034953257,-15.66922770137534,-16.774575108037276,-16.460661697789153,-7.637685544250862,-19.91334095673642
51475,,-17.09546529396359,-7.438276166688013,-17.73599739056408,-16.566519514658594,-13.35005067963677,-18.601244663064925,-13.499595034434185,-17.78470859841238,-17.50764408851243,-16.435452322271836,-15.316228099205468,-13.940180470161184,-5.968909945888338,-16.207572958892683
51724,,-15.221682998738723,-8.393337327508759,-16.50062354383828,-15.997427320598288,-13.30298759101651,-18.75958566393593,-14.715833638724646,-16.541628527444058,-17.684849617823016,-20.549519977801086,-15.868260907738154,-14.0015560515205,-7.007311071252441,-13.939558607073096
51974,,-12.823946577954842,-10.015248053944616,-18.549372009732817,-17.943838272325117,-15.56432175295554,-14.189570233000266,-17.0497973841732,-15.866757756800062,-15.629263549492377,-15.45503177467686,-17.042323301174203,-17.20673653868895,-10.500659748865964,-17.727883440471654
52224,,-14.180143369137166,-9.15624668008317,-16.36267171096304,-15.895548205665191,-13.142008037774495,-11.89174776555802,-15.370620162592942,-14.692528607233582,-15.053585539057748,-15.779871457813076,-13.986542757938167,-16.616600408706372,-8.939585718057938,-17.202200308714588
52474,,-17.336424963927108,-9.44249843949432,-19.022262324131688,-16.033266480160254,-14.869641977662436,-15.5161257320343,-14.050485103821783,-17.344850227932717,-16.063122409744757,-18.699415476632023,-13.301765753498607,-16.682170615962427,-7.261350755946597,-19.123130009204694
52724,,-16.95295743376759,-8.802436166185302,-19.798833359874788,-19.334594011648186,-14.32698525647729,-13.069743372892695,-15.117004191408066,-18.728907653489248,-16.543297380250618,-16.55486138132263,-12.428184620980565,-17.057681744680046,-6.292941184040632,-18.1873168240933
52974,,-12.987664212135147,-6.066918575722645,-20.35768650332733,-15.1628265337752,-13.995885803153062,-11.93043812715366,-14.642149863508296,-16.564156196301543,-15.113047973303235,-14.094398478719354,-15.743356770528878,-18.27600138531241,-7.477172761528705,-15.353826752729828
53224,,-13.810903993239464,-2.186207346907337,-18.861990276000384,-14.41750487434054,-14.293361580158155,-14.391667316138829,-17.06204814786622,-18.45681193144538,-13.221079107171738,-13.279330655182616,-16.042656707443882,-17.05937133274762,-7.639536024881776,-14.695552061668938
53474,,-11.302558042884725,-2.2225931469154654,-16.63096333229657,-10.23426697814824,-14.45871671062607,-15.790010878208829,-18.806261563602774,-17.577061548051628,-16.614156993646805,-13.990702755483335,-13.643784987207326,-15.472015885541934,-7.753273825923326,-11.865624460315535
53723,,-11.502159509198345,-2.491070002201905,-18.7233202606804,-10.671188321737189,-14.57999330826546,-16.528238674566392,-16.519010557780412,-16.785312300472714,-16.34086186095438,-14.154368798135774,-14.1303674397539,-13.69448013646079,-6.029233464017891,-11.453795780686685
53973,,-9.93165413996625,-5.001850172344939,-18.445764251839066,-13.024135044271317,-12.767736175993376,-13.864669998419226,-15.14667415889967,-15.093330962893011,-16.40145248170661,-16.903130142344196,-11.69070615948375,-15.392468449547554,-2.695821490114001,-12.775476460163768
54223,,-6.367373285283927,-1.5924767396014328,-14.824487420315776,-7.377283441827376,-14.34720136584012,-13.938349321401011,-10.030473126663695,-13.434263937965936,-11.54467786590586,-12.325868396172856,-9.87491740530435,-15.503332521359026,-2.570604796398774,-7.95402207940712
54473,,-8.628037964613775,-2.704479380386936,-16.904050469403053,-8.00265760316871,-13.23437754551192,-17.043915198272572,-12.7649375224955,-14.881040575258416,-12.623843577662145,-13.43697175112394,-11.58050916800252,-15.296528361856105,-5.940708633367614,-9.061143857763296
54723,,-13.55849975643402,-3.072722787194295,-17.479640825545818,-8.91482940118279,-13.358403744054764,-15.013129513087344,-16.71853728031498,-14.109119472600764,-14.832564005428122,-18.28345156339522,-10.606509725843232,-15.832619018734276,-7.85776090819474,-13.044233021435632
54973,,-14.369177468138904,-3.489689611891552,-14.311531643546456,-9.087426835307044,-13.507713440182084,-16.20468588732454,-18.527181076072957,-17.583417749028644,-13.413571189212924,-19.1911562587344,-10.10457361866156,-16.612039725463116,-6.320887484373411,-13.172588942734455
55223,,-13.59897149242826,-6.699898119137155,-15.312013616824938,-12.714528812596456,-13.807874804097931,-16.821534399897445,-16.984641015559607,-17.793661230415687,-15.687977783141283,-16.848115585469095,-13.180097927145813,-18.728446753690605,-3.3010503604612373,-15.049403779853243
55473,,-14.960268061213696,-7.7416878690963875,-17.944298040301398,-14.219576013010256,-15.75595538150945,-12.307662068142056,-15.028547203454837,-18.03387704984185,-18.266805756969465,-17.05775282413154,-12.485832973209682,-20.11418001994308,-4.669779373688491,-16.693780796863532
55722,,-15.551556250894487,-7.57538852811548,-19.714336179802213,-12.194427043110492,-11.600046049830254,-12.873275000587846,-14.90179620224492,-16.238788618472334,-15.022107536364132,-16.039349243324597,-10.58401766930569,-19.07152699617964,-4.730910591737745,-12.463050390542715
55972,,-12.519473814554477,-7.833558035796697,-21.03185607983943,-13.856998992874372,-12.461081001375351,-16.09886977161015,-16.052208842561278,-15.439858157931008,-12.853914033850604,-15.788023346872126,-13.650806277084037,-16.588765362783132,-6.153377142127255,-12.640709762108662
56222,,-13.242945852709006,-12.99389889314055,-18.12509019260938,-15.519602320088026,-14.632727877446152,-15.11795943556763,-13.977889682346197,-16.767779049127537,-15.443981689930196,-19.717108077443825,-13.03138336130026,-21.17747025934985,-8.021252619159107,-15.19783451743444
56472,,-13.16338092179932,-8.097566128336654,-17.250132609459666,-13.84163404399568,-15.083925948109195,-15.073680000100332,-13.81005178632405,-15.642293693247185,-16.171865470152845,-20.166239904706348,-12.593934719778668,-20.61779639842979,-8.966137400214892,-17.330877356346054
56722,,-12.013766808220296,-5.824965615867868,-17.435633188991652,-12.043021352711678,-15.065477788274473,-13.249945659036346,-14.237665280014973,-14.728602201848917,-14.75154176041482,-16.80165758452517,-10.945245788061538,-20.41308951668277,-8.173896837108014,-16.621078060029625
56972,,-15.06298626729808,-7.082772418118728,-16.82214062776902,-15.043998177976054,-13.98382037904826,-12.73506617070642,-18.179946276749902,-18.378027818901483,-15.67302842476699,-15.953238978375651,-12.539747809115164,-19.751138930833363,-7.163637875081914,-14.922805504712208
57222,,-14.28147008903233,-7.7921176514221635,-16.269922882560067,-19.445528399465417,-16.047782841416797,-15.881405062002706,-18.03986278943861,-16.952670001396875,-16.36973618426096,-15.037831044519567,-12.57807655039432,-20.224232893375834,-4.364862540224454,-12.268629169462496
57472,,-12.724840711268495,-9.446996482391285,-17.220920372922087,-18.12955174991236,-12.087949974281404,-14.616913282519809,-15.133540147161328,-16.95081593531286,-16.998289281995433,-16.56680382344364,-13.652917871879604,-19.016485652981025,-5.753277521681447,-14.184613481173995
57721,,-11.654295006192006,-10.086161601591838,-19.17572948474493,-19.563262991453197,-11.421374111477158,-12.365472416282552,-12.015273445460464,-14.267694415884009,-17.050495265404287,-16.143192648140626,-16.083444983648956,-18.237507077690086,-8.03049978419962,-13.82396024830127
57971,,-13.826785203318142,-9.326803281315613,-17.689738017600078,-18.278713738582063,-15.403441374249589,-13.36286756767764,-13.52729979208571,-14.31338441068826,-19.514779065269185,-15.534624030242712,-16.95846491714982,-18.997873865815293,-7.621390110838146,-14.21716035759682
58221,,-14.531600871339894,-11.80081997926482,-19.58730336139725,-16.679307148598465,-15.50454319610835,-16.126638014392153,-16.1323495908649,-15.291703261270753,-18.593030370152,-18.55962948085551,-18.58156025877318,-19.59449043024309,-6.717855086203207,-15.032305288783824
58471,,-12.591011594966194,-12.672500800638815,-21.93204388206798,-15.323357062800692,-14.762437078468286,-16.567611808226065,-15.775222599575333,-16.950541932189672,-15.90872463017405,-15.636395667350763,-19.6183459961819,-21.56945047241056,-6.8251459571749375,-16.119716236690316
58721,,-14.718850519009656,-8.031262692143638,-18.221434106219107,-13.809249987128664,-13.468875168276409,-17.284596527692024,-19.869667600636102,-16.042181208893467,-13.276310598383269,-16.98913137747407,-19.10209345316901,-20.50967561029241,-4.210199466001138,-16.516146540680413
58971,,-12.155005435068544,-8.63895567319725,-17.252984271691904,-13.945510889080436,-11.23477416820365,-14.057626561868698,-18.45345581578171,-15.397010145935576,-13.438904899329629,-18.28839190561173,-15.30213987477232,-17.094794212171838,-3.413733410815293,-16.78424359479917
59221,,-11.20561698226692,-11.306912544733262,-16.455088772981703,-15.226049392298522,-12.601701021199403,-13.89295885723552,-14.73471865084254,-13.77240473816215,-16.724892395585957,-15.078769494063756,-10.3611379740601,-15.748116155566906,-5.537387601029986,-18.796399688408204
59471,,-13.649845880020033,-8.765719097036014,-15.826433084536976,-15.604711878539552,-15.87032565938479,-14.32325438074934,-15.933916192284268,-16.67710133541955,-17.791519514468835,-13.51862202380508,-13.190571402453692,-15.43768597538604,-7.634496847720849,-18.974135329120795
59720,,-13.89560912779003,-7.944409415500722,-19.034291267735536,-14.685840647592151,-13.956664273683286,-13.552970499407738,-15.074721428609983,-17.743438541405453,-15.401902089645445,-12.280790818706148,-15.42585650457619,-15.255481763057151,-8.829460439020359,-16.2897152992385
59970,,-14.426430597763872,-10.1930243708495,-20.62481419053568,-16.03968730381393,-15.303373625963204,-14.032137163432555,-14.737303792995997,-15.750569573118726,-13.347838292678771,-15.818021456750229,-13.744668795198088,-15.38195602460107,-11.105811124960477,-16.574866686691017
60220,,-12.381036798178226,-11.82422969762431,-20.98899497616676,-17.229671938610224,-15.6917720316936,-13.761920267315851,-16.70112813708016,-14.533111577021582,-12.774748728710614,-20.04719195844299,-15.745990987559054,-17.038332550083382,-11.397061749619702,-18.150971707932356
60470,,-15.302557413330614,-9.953759603852587,-23.543175508062383,-17.941031553401604,-15.098194376966095,-14.286855326832775,-17.515879233789015,-16.624797188717423,-15.091730291048464,-19.389147299968847,-16.15420775456388,-19.04037881763328,-8.24843951590302,-15.614789987912914
60720,,-15.669687383534454,-7.891085837354158,-24.49955575099081,-18.71778084308709,-14.921220377881973,-15.776716482549425,-17.766788756215984,-18.882151222813416,-17.837158556068616,-18.64148077154827,-16.96743819022111,-16.682169948789323,-8.8688137012498,-17.172901367516637
60970,,-13.067513637734136,-8.75818201574183,-18.4158058375386,-20.457851570401026,-16.465321262229576,-17.583235547853967,-13.63241824545704,-18.590272866551988,-15.667075014377671,-14.272455753913896,-16.849431988735294,-18.88114697639425,-6.217715416649078,-16.615941349647485
61220,,-13.490474717983076,-7.658766244258464,-15.851958554340502,-19.36324801172808,-17.132575567932726,-14.936210164331502,-11.837065963578176,-20.51533700780595,-16.245155483965394,-11.924049769954165,-14.58985262189681,-20.06684568430001,-5.129547289763385,-16.102369197495396
61470,,-16.006157754634653,-8.009662891430182,-14.592339032261687,-16.448323303637157,-15.627682723410238,-15.822037933086325,-17.08151310699683,-21.42258224411595,-16.038892286743565,-15.982118914049492,-12.793723202600113,-21.408366470143186,-4.538969531550206,-12.30888379019827
61720,,-13.675865393801502,-11.203479098114812,-13.406701418978582,-17.520346598272646,-16.172273169017227,-13.209337932532092,-16.62817455972596,-13.455214473494204,-14.459609253676028,-15.305840869815263,-14.513820626283792,-21.58965842308707,-4.55430261112115,-16.107047871379162
61969,,-12.44336444865976,-9.541699262559796,-16.76134875364052,-16.860931532415236,-12.670808467210446,-15.484877623005662,-15.40867420997296,-12.229948098514967,-16.210578220622022,-15.30646176010756,-15.687512199231984,-18.77897239815931,-6.947325470547093,-18.05393426137738
62219,,-12.953905934955854,-9.04252686385167,-20.67609700253325,-14.329936005649174,-12.653488823846224,-15.151774125812278,-16.0961227053093,-14.120377685424131,-17.719859979843203,-15.066810102342451,-15.124583972412813,-17.671314406512955,-6.4644559634898044,-17.517701290872754
62469,,-13.26587772864396,-12.852029087119377,-17.904908454358225,-16.42958336171812,-15.400887862796967,-14.55767186157896,-17.515691817866916,-15.08165542102181,-17.502569851969074,-13.70780000968426,-16.02562463515381,-18.614938540186085,-8.607277254913926,-15.25917071301606
62719,,-14.612759143546032,-8.075238000033325,-19.0270361975045,-19.50700282278931,-13.248213203547191,-13.818029370096834,-14.24728740293524,-15.471625500675492,-19.42969508106997,-16.17002164696708,-13.742776901353524,-18.730469161104203,-7.070787963314913,-12.752451887714916
62969,,-14.282003898242143,-6.263149445186423,-20.324108477905863,-19.202584586577608,-13.791202469613086,-11.116903459393948,-12.091908306575164,-13.659186967472625,-16.41846739288819,-16.131630874471647,-14.798706380853163,-17.21094662256614,-8.487662076135665,-14.599830519935855
63219,,-12.88588666651247,-7.736104719334598,-20.760691960247687,-16.663955258204222,-16.589819529708198,-10.466626558970924,-13.03290934265794,-14.729752883816696,-18.30447466645003,-16.205186525481267,-13.982008183942376,-17.905845707209828,-8.10844411742133,-16.29591851652239
63469,,-14.010425120699152,-9.288877457395662,-20.9405871645208,-17.637400934847857,-16.637830620015865,-14.598224826817315,-17.33625819110194,-15.121727789735868,-19.959611333695765,-15.299080508552606,-12.656987026208418,-19.164970849258303,-8.66485120646576,-18.31896380388002
63719,,-14.80237269078348,-12.359139807614063,-16.218648149081428,-19.00117361227837,-13.457607858488922,-15.578521685054907,-18.18711982168544,-14.357879739271768,-15.988937801881342,-14.684003135895288,-14.359349100537653,-19.59979344779821,-7.34427687394665,-18.13746400217645
63968,,-13.409295348223424,-12.455469265674928,-15.362708139950248,-17.951852799592444,-11.90725845339989,-14.909368617194442,-14.290382815972515,-14.38523051235229,-14.60682928032934,-14.695442333871096,-16.340844416094484,-19.533366004608027,-8.228428777401541,-20.94441666629183
64218,,-15.462879047285956,-10.636754087088548,-16.746610637781696,-15.305183482961864,-13.809381479044362,-15.63282220188173,-13.897611614327417,-14.454102380595568,-12.980795697355642,-15.640369216728155,-17.390554227435896,-19.352499076395304,-7.785946963641871,-19.683568759640448
64468,,-18.252484905517157,-10.441891188201462,-17.606652409287655,-14.208277734449936,-11.102338758403691,-16.861340863570756,-14.39537259402056,-16.72498962444852,-13.149112094367387,-13.897498203311624,-14.621666985611686,-20.556548266326452,-6.558050672887984,-18.918142920917333
64718,,-16.470178480242087,-10.25165348490544,-16.789773642396224,-16.28812446130211,-13.689709315821055,-15.524026651973012,-13.064208852092278,-14.711169040202872,-15.835243737820184,-13.977887854357917,-14.938076351036912,-18.5797437052546,-7.569017637715403,-18.753949387075487
64968,,-15.119362647695564,-10.946867212933128,-18.80521761282012,-17.483722114404657,-14.14934906798173,-15.327694727372023,-15.228329303492034,-15.578271352372164,-16.91476415663305,-15.271453113999634,-14.011393772029985,-15.604994197287494,-4.801739155208129,-15.748501739128743
65218,,-14.996453220494104,-11.771162291344908,-20.71023471310369,-17.544686496275393,-14.203350341735884,-14.991106493157009,-14.56483496465415,-16.510298189657885,-16.71287581651456,-15.658521303976991,-17.439135913417473,-14.742065156333387,-5.515855713327275,-15.353222025456406
65468,,-16.175269424927265,-7.833719718122326,-20.11490129656344,-15.646300998847744,-16.691949921081438,-13.643303284602082,-12.607301785775338,-16.263145012954023,-17.012005672772126,-14.566354987321652,-14.892208992144829,-15.842361250125943,-7.89534656508328,-16.907295477811047
65718,,-14.339842603210196,-5.866345149122317,-20.154914264783244,-14.387405942287383,-16.21608272431137,-15.0113195158417,-16.472425936368914,-15.808729098735714,-17.45005205033726,-16.188766422213615,-12.560480605542937,-18.136539471548748,-8.334589622028231,-15.890232943790402
65967,,-13.354980759664128,-9.547094470917852,-20.504821229745797,-17.060770819330116,-14.23087013131505,-16.0395771307564,-16.193334908595794,-17.822077522145484,-20.584695439159148,-18.459205537811773,-12.91435324335768,-20.267813620594858,-6.520478504615726,-17.85284468123593
66217,,-14.377608488801137,-7.723003578388381,-17.328213656712457,-15.513793193791612,-16.074262270487278,-19.67080357916716,-15.313147162425036,-16.111914637328617,-18.90014959935249,-18.763469291717357,-15.346355226324809,-18.86132088335529,-6.575583094568385,-15.644769329884866
66467,,-15.273133419690472,-6.226118844743548,-17.82106716568764,-13.914919042536397,-14.507102641684282,-18.57886548075801,-14.74005189646822,-16.954502149172917,-14.73147023457549,-16.593526520105787,-13.45834076685832,-19.6311128700284,-7.829390138848877,-11.97172901674306
66717,,-17.834813941856847,-6.04665602086074,-20.951422491313885,-16.200532172567947,-13.728059418947003,-16.767745075895068,-15.879905725963122,-19.399107337569973,-15.235480930720012,-17.478148573376636,-11.800872821221091,-18.24092381191942,-7.812054158309079,-12.777024882692096
66967,,-14.854469351775949,-8.487386004767812,-22.55826494307428,-19.85312145363317,-13.98011682987212,-14.936757235755367,-16.122052830810954,-17.807882481901697,-18.217465503489244,-18.878029725358516,-11.284914282797276,-16.112998955267912,-7.063823843377094,-14.166014612052846
67217,,-12.241561271689411,-8.950187860440098,-20.723564188503502,-16.770401588820146,-15.837170867400566,-13.119067536612716,-16.554937514963257,-19.284425016065683,-19.735734688295672,-17.75577614372214,-13.65333180252036,-18.59871589369541,-7.276184536745021,-12.86985760549036
67467,,-16.67816722395633,-7.230755218029516,-19.05880816761233,-15.739967848328693,-13.352961614403611,-13.525630181178377,-16.240536568038124,-13.202336933873964,-19.15956353529416,-15.47545132620323,-14.408018899353609,-19.93756663231633,-4.792707969715599,-17.730992730860844
67717,,-17.173304975994224,-5.334764005881087,-17.73888014474826,-15.630456853414822,-13.174528782871562,-12.670972057898044,-16.630720386647077,-11.86086886144528,-16.62713710137789,-14.247589529470872,-13.851885154359788,-18.63570919234476,-7.764894763172748,-18.58741398096545
67966,,-13.498189334853812,-5.2108806434676245,-17.66743517500673,-17.702168741924595,-15.874086590427662,-15.41032667608468,-17.37146265560022,-14.825859632078345,-14.436289603176618,-14.487974583842515,-14.67513503115314,-19.403319911488627,-8.2724466272507,-14.524910581634948
68216,,-12.96579141787818,-7.861808732668646,-18.50132218319572,-19.15976142069469,-13.77976791185992,-17.77147260170702,-13.11147933470945,-17.812090698635107,-14.1276986223528,-14.96350562013776,-14.576512766191629,-17.668359861058015,-6.857722132100566,-14.752626665255974
68466,,-17.12263473315602,-9.377392579937776,-19.402566007683586,-17.403413685875126,-16.17709461820993,-18.266626626382173,-12.015987287167844,-17.253716628606533,-15.913102344715032,-17.12826867634769,-12.74499455200866,-18.074966040708567,-7.232011209118766,-15.343020852744296
68716,,-16.81269678644553,-6.53102335293826,-18.76638343218128,-14.61238674750987,-18.01752397127695,-15.37113444318926,-14.217242032422586,-15.171776746112489,-18.80352090142525,-18.807429501981822,-12.923286032440142,-17.84104540349942,-4.755212898534082,-14.337467881879396
68966,,-18.17058979224321,-6.694567448576799,-19.906713505904385,-16.358043045772575,-14.997740309488892,-15.57810514946156,-16.547774040187605,-16.161471771782814,-16.029375800981185,-15.793185515629611,-14.381372586140955,-17.78617988241662,-5.97774917776169,-17.678053527339056
69216,,-13.341120427059462,-8.025635833287101,-19.75736315425334,-18.44411664736766,-16.087002150072326,-16.673593677759932,-17.448661397603374,-17.028602425615325,-14.24285062278948,-13.785051802712914,-14.256013802714088,-16.162179843434206,-6.224789242803151,-17.335438463972007
69466,,-11.001934457021056,-9.600613639956704,-17.544295367062713,-16.482223483203875,-15.844057584524752,-16.602080880771688,-16.51432715015931,-15.58218921715146,-12.83052977496861,-16.181782023858933,-15.136444795531732,-19.01784721507376,-7.8203169167875135,-19.03664697892941
69716,,-11.304807217619707,-12.020241332435369,-17.441570859190414,-16.31981894876831,-17.04525009070117,-15.64802212328923,-14.757495673344485,-15.934816152489994,-13.903737015694912,-12.38317624045801,-15.34555571277448,-18.13847008524813,-7.362577657287287,-17.458077789335352
69965,,-15.627800164224192,-6.986132748744804,-20.39155256877226,-19.33822164484325,-14.571994371930256,-12.823590234766058,-15.010441081174507,-15.612309895426623,-20.661179717352148,-13.35590038646253,-12.10622724718645,-17.55347135370489,-6.560824318801254,-15.038356476229836
70215,,-18.76314596602504,-7.806772741646403,-21.174483878312643,-19.456703125070188,-12.726598906600625,-13.673258512159038,-16.765029416099555,-16.789446232516692,-19.110853239654144,-18.33984821986604,-12.304457194774326,-20.49138816273618,-6.1825483771133065,-15.834168013223715
70465,,-20.13233651847388,-14.950331478678168,-23.29996162054572,-19.945450680496933,-13.737685118922649,-15.063281503149192,-17.04910602555521,-17.22582709567097,-15.678642201813082,-17.655464981208887,-16.432264756660587,-19.01445868367147,-5.772603700122527,-19.46012906225288
70715,,-16.24672163234579,-11.545785457541047,-17.881514509518443,-16.66658570983178,-16.403037815016145,-13.703587705108063,-15.81020910983447,-14.1962246111027,-16.14299239477724,-16.75122240366146,-13.830134699202397,-18.537887436233564,-6.056043674553316,-19.844025845752
70965,,-16.645251954763832,-10.124785909789525,-18.038464600313763,-14.114163513181062,-16.676041130031262,-14.751288736291192,-14.910320854658636,-14.398519136827622,-17.673848401110085,-17.94217838229368,-15.707675269790382,-18.966587823804232,-8.773707364786345,-18.41753576441296
71215,,-16.97099293237756,-13.068921365111812,-21.38106497778667,-13.975655170135877,-16.54295128747359,-13.097321514263331,-16.52381926954861,-16.67045220212753,-19.41244563773872,-15.310578175531893,-15.745937116090918,-17.510703434363737,-5.527294172714435,-17.300232756278472
71465,,-15.680624970434629,-12.79589829975006,-17.660289887258813,-16.56302006753432,-14.857642080180842,-14.80839229205274,-19.93142459107053,-14.549756034973548,-19.347411159358337,-15.418405789709324,-14.197367437265497,-16.933668546574324,-5.687547164102958,-17.274278099764036
71715,,-14.33638359435783,-10.603743338564964,-18.24572387511565,-19.554432944062015,-12.827117370079984,-12.621146907354593,-14.89970345921261,-11.164177489617783,-13.036086294868747,-14.35619858164953,-13.027121619859878,-17.41741540736782,-6.164627649199403,-14.350227366377704
71964,,-14.759492060400044,-10.428020948965065,-19.97919502022595,-20.451378865583493,-16.56941170214326,-14.008351257290624,-14.615493137425307,-13.519040664936572,-12.120140749312595,-14.303051870447362,-13.695090547660952,-17.82290347887178,-9.025925743794346,-13.021214796315142
72214,,-15.585132390391434,-9.811739623896704,-18.441175858503783,-17.42059571673751,-17.41939641828249,-16.153850292619683,-17.131870096802196,-17.388158141076403,-15.77434302666795,-14.486784180381074,-13.059128529576732,-18.811649809329257,-6.761049355070437,-13.054803301382467
72464,,-13.72395017873327,-10.600797849868345,-17.945171148280078,-16.961256416515806,-16.524745600585355,-15.6062478550638,-20.16203958115385,-15.983607877024816,-15.931191760028284,-14.578628772399265,-13.021695778565023,-21.15650881557177,-4.350763330520761,-14.795566215711418
72714,,-12.680884205205308,-8.46643147188066,-17.483797149302312,-18.763167358294687,-13.879709944715389,-17.915916740248438,-15.758934476272175,-15.524681227340556,-17.317736759104246,-14.89990803475102,-15.93574360783576,-19.147618084345385,-7.433838241675401,-18.001323120278272
72964,,-12.09715990911698,-8.00034615178563,-18.447406266126308,-15.745616388103258,-14.664730881415329,-16.47277705874949,-13.502378160168291,-16.62034377852941,-18.48579622037463,-16.571585961150657,-14.984200414395197,-18.594897093677687,-9.257275298528452,-13.58577519885907
73214,E,-10.13973646485975,-9.296858992789328,-20.200030087702032,-13.321319240355066,-14.817437035095775,-12.456456129934972,-14.807541786799412,-13.105901291042464,-14.390041067698236,-14.126519635783286,-13.220874408290795,-15.365684373710508,-9.308249256777788,-10.963352088153531
73464,,-10.361918710806332,-8.017653119476321,-17.72784207126648,-12.551936360367858,-13.276770733513896,-10.349214556150468,-15.859922077482992,-11.431592002443413,-14.363688347018693,-15.10136566357222,-16.454760396438157,-15.623792260554378,-7.988172474585923,-12.846789066825162
73714,,-13.2599030046647,-5.575825094148358,-15.498742532922734,-11.50736604465864,-13.435528607078064,-10.627184979508003,-16.18180745480613,-13.613084071681495,-13.381180620983448,-14.349057994009144,-16.52860535798783,-17.05555982169632,-6.676143196784716,-13.331651906201254
73963,,-10.861208423399129,-5.682427716229991,-15.080371194644052,-11.461454364735683,-15.881299967308404,-12.145533542255569,-15.847712850073076,-15.022029284994307,-12.86597318759082,-12.169886849800744,-15.841631283206103,-16.982233289405468,-6.994661565484349,-14.797762904328131
74213,,-11.470601638239737,-7.534384106755243,-16.23566905469254,-13.041715581431426,-12.24228703512545,-11.1541485123212,-18.81246758650111,-16.050435510248008,-16.489148802623887,-10.031416887845047,-17.137933394462394,-18.59805940009116,-5.731890853290926,-15.741984766835085
74463,,-12.780439638180694,-9.368335214214497,-17.146415864930894,-13.719349798966991,-14.196494294670428,-12.303400473104851,-19.829267296849064,-17.942395947912665,-18.48449188953602,-13.777178541879069,-15.377845738983073,-17.598340410834027,-5.112725769212493,-15.321775271008988
74713,,-11.288093610554473,-3.603762341879589,-17.586735017182004,-13.006297012412812,-15.245770787112985,-14.395826732683366,-18.48323349967371,-18.81842827266841,-16.448321405568198,-14.88224733870918,-16.080827308022922,-17.1710714573925,-9.544145890062616,-16.443991180508867
74963,,-12.895067000250048,-4.092699398810336,-19.906649589094062,-13.462233932368994,-12.841607544124429,-13.861857163762156,-14.301108303069633,-17.78900584377288,-14.321967632635744,-13.307589794493303,-17.75914806898834,-15.266888998905014,-8.698696193743418,-15.84868156283833
75213,,-18.979416606695978,-5.290870008543545,-20.552951835374948,-16.07858186149938,-12.872161297887132,-15.977562590407,-15.460325286920272,-16.23846481061969,-13.630637097301008,-16.88159347412342,-15.3604377217309,-14.221350803023094,-6.667833192151241,-14.489889849124358
75463,,-14.805818030552674,-5.817362579489198,-17.984184265627988,-18.000806382382052,-13.572805409084216,-15.625336995684629,-17.225880615621087,-17.24482912669955,-14.220741856751664,-15.07870273789425,-16.34164743405591,-17.56129292938079,-5.655649578209988,-14.856456594431895
75713,,-13.684632869520708,-7.31551655881012,-17.193367510615893,-17.862347726870862,-13.460068941797608,-16.11544962125591,-15.741168978462696,-16.542669803390297,-14.466693424738292,-14.108990034008508,-16.90935397502571,-18.21960449319569,-5.797712510012487,-18.205886446639976
75962,,-15.720968237409767,-6.9899205957950405,-20.210325408746257,-14.236920732372244,-16.421015192652014,-15.870766163526016,-13.795635111249016,-15.73258454177516,-16.324370784592013,-12.961206608637903,-20.12243871826104,-17.358726226800297,-6.053942502786916,-18.33548040690158
76212,,-16.067942293083185,-6.058944814879893,-20.043735796097177,-14.880766892820374,-12.94418011687554,-14.655833746411371,-13.8104276165906,-15.921715582033954,-14.720587120873873,-11.729691025991231,-14.453533561509886,-19.50825685817407,-6.604185012545599,-17.427020902358866
76462,,-14.077976211857951,-3.4257273945774607,-20.76570336701653,-14.781974612477818,-12.708004493141152,-15.42053282640147,-15.133474908062745,-14.952618884167146,-14.888171367602943,-14.252043860955483,-13.473845779960005,-21.290693949984774,-8.434627111476217,-19.60465681903332
76712,,-12.70537320791254,-4.159377425830071,-17.075899535509315,-13.56679496625706,-13.155545386546368,-16.01016816830704,-14.557113585300865,-14.020973707391,-15.020841550764192,-15.634491631081398,-18.50757458691755,-20.650299867056454,-7.5704500934780175,-18.806197627405183
76962,,-12.220523700466517,-9.58222867484808,-17.15432687009346,-14.152528165797538,-12.915478656821584,-13.396012809177211,-15.355443518688844,-15.957527666783786,-17.496228961466677,-16.124648821277173,-16.192924127770276,-16.049786636103672,-10.362242309223175,-17.07643541873081
77212,,-13.125120904638573,-8.962409074688209,-18.161141701186008,-16.74310399261271,-10.385408332556468,-11.040232463312217,-17.647131452104738,-17.169275552959867,-16.005022782634843,-15.002771525097105,-13.00400718495641,-14.50428447406751,-8.268655975222185,-12.940492738104098
77462,,-16.813761349733362,-7.560417857961559,-17.903998656948218,-20.561481747276265,-7.955498295103711,-9.193789884708716,-14.465845169702668,-13.528861404890096,-12.573571631074556,-16.74163244994633,-11.817602183632273,-14.230492505412196,-5.943167995528932,-13.600309399241445
77712,,-19.74962294030272,-10.509105263774838,-19.98757460145385,-18.21307045031945,-11.956097394146497,-12.842630008254424,-14.36880477783977,-12.520489133457389,-15.176776164334086,-18.57432683075437,-15.883721347041629,-15.413293115828903,-10.468831029161365,-16.218870841508625
77961,,-17.262935158638733,-9.730204298513328,-20.081500933600097,-15.67066481792941,-15.10592301647898,-18.033058265827982,-14.926832239407258,-13.706921942594976,-18.027351860000568,-15.636645359550965,-17.61645330421949,-17.923486573531328,-8.40335077257575,-16.081069498997905
78211,,-15.96193713585208,-9.210873373162658,-17.96734745963461,-14.690965074947917,-12.790464979931985,-14.71560877449533,-15.773501107607911,-14.588075030483978,-16.524236559042574,-13.010561361853831,-14.921706382482434,-20.98172191642962,-7.238958200749499,-14.58956921389143
78461,,-12.491400088920548,-9.216847975934147,-19.29219151976996,-12.294524090126073,-12.474536928140925,-13.435207734861462,-14.436124634123864,-16.221670194630832,-15.751953247956598,-16.02116720580013,-16.395218066864857,-19.108617583560783,-9.371216724535856,-14.016414295862852
78711,,-10.822474182003596,-7.91550213302424,-16.41751162772512,-13.32352156620039,-13.001198138038587,-13.489132129572978,-15.353423461992405,-17.194087372166685,-15.532431515658576,-16.53867939621974,-16.52171952826832,-18.48928801334346,-9.18185316115732,-14.290633521988278
78961,,-11.747993623095514,-8.735668043788891,-15.032096965452729,-11.624868310660611,-13.446333162082864,-14.096554302513244,-12.703216772418209,-14.846995789178392,-14.605449187947324,-17.742777803994475,-14.655723130545011,-22.047726061042887,-8.2270218726256,-18.137475178475924
79211,,-12.9408926477908,-6.711389646400798,-17.413733740908754,-14.042593841960546,-16.395340392630956,-16.8766529650608,-10.678740614788094,-14.57342322143887,-13.425733123427372,-19.52325341258156,-12.907094454765035,-20.07373108459432,-7.0622047872650375,-18.986685784250472
79461,,-13.812119831080969,-10.138397994396108,-20.70682895695169,-16.812786203018867,-15.381255112328803,-14.445926736620487,-12.490040348743364,-16.860240222440982,-16.933578384361596,-20.47245431632165,-13.587120452426396,-17.78873766604965,-5.54576719421894,-16.703380498246855
79711,,-16.152448215809333,-13.700725337049844,-19.254862064275283,-16.934856133368584,-13.760983602162344,-13.81212256999643,-14.468434834632363,-19.69116851259865,-18.659521244123983,-17.300006688179597,-15.666530553025712,-19.37181989431664,-7.736775658211654,-20.082354844383858
79960,,-14.188219560829625,-7.508515826168368,-18.869307687463763,-14.895815375677437,-12.53341087693968,-15.934092370796924,-17.531393174567853,-16.660852658500403,-16.536201677767547,-15.237206409265356,-13.57290631419119,-19.39027914931731,-7.323803099451929,-19.49679478496264
80210,,-15.11086890318612,-8.921572922949075,-19.24539793932356,-14.252339207969866,-12.468615279920732,-12.891138035803513,-15.036997646624258,-16.28292931836881,-15.241425849636569,-15.076470625544328,-11.164739113661392,-15.349204281712968,-6.738682295257758,-16.5738007626325
80460,,-16.33544276865441,-11.432095326362964,-18.504045787799228,-11.10561382792146,-9.663255233403628,-12.210452964295586,-13.254867390185394,-16.377771099365972,-15.855957963393692,-16.79231975218549,-12.35258634996784,-16.157596444073278,-5.587878357085091,-13.73205465377216
80710,,-17.858262803726962,-11.362494999941031,-21.180116827741912,-12.120698250392948,-10.590961027996126,-12.750278340327451,-14.75582080632164,-17.53071039292976,-15.554287212110689,-16.853651869579316,-13.78122101355414,-19.24563073645431,-6.324557438403153,-14.401110678494131
80960,,-16.63435268445311,-8.280297878291938,-20.78413127794896,-14.971518880904496,-13.602073747084178,-13.436545668066852,-13.487718386465945,-14.976369132360244,-16.07493950398109,-17.274102211622335,-16.87900585827535,-19.814839661142315,-8.166061070215676,-15.425938246057749
81210,,-14.798875208548758,-9.105530792293129,-20.899787187045614,-15.312542920324798,-12.645232848194826,-14.299568064633943,-11.796327948000108,-15.98411371927943,-15.62351455329159,-15.969069192203715,-15.54290023188206,-16.09801047287405,-8.123113673997786,-17.726225180569365
81460,,-15.187245962891868,-14.356028893770269,-18.99397421421312,-19.31729509993381,-8.898921008611646,-15.163574928910997,-13.8676991362034,-16.874282922664065,-16.869815186379885,-13.228230787048265,-13.573987108003918,-15.659598582039608,-9.947631619342983,-17.78265650958489
81710,,-16.532389846012318,-9.768494513260457,-16.811103765190825,-15.906477283309496,-10.735396266809436,-16.08939396285024,-16.782546935676198,-17.632699466926198,-14.62866458392498,-13.473299493400893,-15.048228047345503,-16.19796813214107,-11.979240074476596,-18.3099681960841
81960,,-16.134866616286555,-10.770885331598848,-17.340573337730547,-16.8109184442485,-15.11584873719575,-17.89393658254465,-16.929106478515767,-17.91881492707639,-16.848094528009334,-19.105056345929057,-17.07643897880356,-17.17407069423664,-9.98515941913791,-15.260062261455072
82209,,-15.856056760557228,-9.38330223022382,-19.85651128021674,-16.56575425046039,-16.941019571566123,-15.771693066602024,-16.076657006881007,-19.889258278487382,-16.89629417799877,-19.077598775343084,-15.16280332152972,-18.639760842765583,-7.253349421730642,-15.029205289724866
82459,,-18.798732088341357,-7.794954296756751,-18.800099427180957,-14.278076012653528,-15.203515590493142,-14.382458076887913,-14.729894303294294,-15.407788455924209,-16.38943182513532,-16.20132727335598,-14.746716762926544,-17.09901757481691,-6.722629456649134,-17.406011769072254
82709,,-15.179995797811888,-5.66606711430227,-18.56223125967488,-14.609682585402297,-12.38696370094376,-12.67686308076804,-14.25216523805493,-16.10508465872118,-17.436170517371785,-15.044671977961526,-16.071482885669013,-15.634255059383936,-10.469474256855014,-15.940974177806163
82959,,-13.688174953629066,-7.636618936113424,-15.300910175855156,-12.512347541285411,-12.30826779595975,-9.707037838510011,-13.994574146589676,-14.221301142444515,-17.32527563007319,-16.351098823364875,-17.390483959490012,-17.170952882957636,-6.51834213966893,-16.413524683253783
83209,,-15.275107310807847,-8.213143407491417,-18.254753357289776,-12.020034316564464,-15.83296488753408,-10.96731556706401,-14.576121974426206,-15.555650663492775,-17.261635681761682,-18.550687874493555,-15.652826061221155,-19.896369112063585,-8.16012171966346,-16.135692755378383
83459,,-13.00424072012466,-9.81004152506204,-20.154166617185343,-13.920438068077258,-11.89829975706618,-16.28285721767829,-13.95521096331833,-15.931710986078611,-15.090244289932205,-18.37154394840153,-15.07500955177244,-20.07871923898176,-11.125245342616187,-14.396441207179668
83709,,-11.945696792991605,-12.378618432381652,-18.222125797359677,-15.663335835035795,-13.34618338440155,-15.860263650831095,-15.199886375720691,-17.06035024805353,-15.93384763493952,-17.182723688981962,-15.88111133574065,-17.51750967112116,-3.753614576327775,-15.163688303783918
83959,,-12.426775224406724,-12.132427180261905,-18.835108809792192,-15.717950481292114,-11.120753276616291,-11.823394729550376,-16.545265009785727,-18.695023638649857,-17.9338964112727,-15.599885706704493,-12.386474705886442,-12.72798992612928,-1.7985494074760826,-14.62165581463066
84208,,-10.498187526879514,-8.978389289477736,-17.527268887986928,-14.766012585581702,-13.821868804904756,-14.42558585983632,-17.6598164517184,-17.965899241730074,-20.54141749360145,-14.093327264072547,-14.197964504991516,-13.224430753785583,-5.118013821314166,-13.036622152561698
84458,,-12.98994613109613,-11.140251960097729,-17.81186226579511,-14.89659741091767,-16.01377900444412,-16.972559582734515,-17.336239881053853,-15.29872140238628,-16.03687037645338,-14.904293576937771,-12.27888884712857,-17.51091461942842,-8.500601907916174,-13.989269891164495
84708,,-14.571571753084228,-11.740768791782203,-21.187950913753625,-16.194764525789683,-14.64477604987042,-15.85196442243232,-14.247000939683844,-15.50136635216009,-16.534874282219555,-13.733759106817889,-14.616748952205151,-19.093299167561185,-9.74460751302407,-12.74737057331566
84958,,-15.48558910863096,-9.073367279389274,-20.17053131924132,-17.7577303768812,-12.698679234109902,-14.398332305322484,-16.4482767035495,-17.292306893851517,-16.9936817291325,-14.968802903236242,-17.38071419298221,-17.898077060879434,-11.226594363739098,-13.53896575938438
85208,,-14.057283397744648,-7.983194073276564,-18.31679368690812,-15.130109189628309,-11.181544245199216,-14.880169381081828,-16.27920465967707,-18.94673456409523,-15.770596499186468,-13.730019585816231,-11.531289187253105,-18.521994399809365,-8.224532324836966,-11.089159550772164
85458,,-13.20702213431513,-8.876455432315506,-21.22604679560885,-17.035700160922943,-13.017106883273438,-15.324422656282016,-14.49335217719836,-14.372757158514116,-15.028259256509084,-15.131146798562678,-13.598423044304932,-19.929935326409225,-6.955417127115517,-11.6589988007929
85708,,-14.293630398135315,-8.080951294604588,-19.59561406696632,-19.73349531951697,-14.16884428105342,-14.452992258606692,-15.620325389782469,-14.512806815549968,-18.954360834193437,-17.292909937024213,-16.08269171444912,-19.9138195587584,-7.547706672309141,-16.400933467948626
85958,,-16.231468121198912,-6.773212013053456,-18.404196307604607,-14.89064003226246,-18.40924647946986,-12.401387220720675,-15.930164672765969,-11.639537924546786,-20.798936542737607,-16.590462281821246,-15.52552127960806,-18.932774791660645,-6.583674618382911,-18.606644308621068
86207,,-19.158949409740032,-7.571160761966658,-16.273412415909448,-12.394188474816556,-14.729780397588236,-11.425316187995904,-14.27070103413276,-13.218181268935425,-15.492292358574192,-13.351331374654494,-14.700215338077331,-19.65625688135064,-9.089694563230864,-14.380842265000208
86457,,-17.46747870509562,-10.183735609491457,-18.16734636551567,-15.534316509714513,-15.20559504312426,-16.014154083996758,-14.23804930346536,-16.519758750699797,-14.805567232256031,-15.034400126005504,-13.95555118271531,-20.15068859704225,-9.59476988937293,-15.294265944138331
86707,,-17.770782994865456,-11.43420213772769,-21.076328495302885,-17.138911497442734,-18.654981520333006,-15.227858493313972,-15.742515680443566,-15.69291031311532,-15.239205644326104,-17.016725695993898,-12.259671384809028,-20.019745403624825,-6.933931071919492,-16.49441278248591
86957,,-11.876240628557095,-11.84798058048946,-19.24102209157908,-16.936237720091338,-17.196668211957594,-15.846987540470003,-15.306033516352812,-14.512571196819026,-15.106981646342703,-19.36036963442045,-13.18508164942602,-19.47456282413254,-5.1482189729006125,-16.77255256382682
87207,,-11.239255736669032,-13.655780023234696,-19.01725090133872,-17.600110898598228,-14.693871499719275,-14.696353813192074,-17.038439420970334,-16.72623365517873,-17.51692338424003,-15.198141845517767,-12.547335992446818,-19.03411889241985,-4.997879046069801,-18.49967229691602
87457,,-11.538877286615914,-12.441967035009336,-17.927287948982492,-19.2196870545296,-15.322522476664826,-14.951454906578686,-18.817896263672505,-17.00060571531416,-19.07036798502499,-14.20638254229003,-15.633531852868106,-20.430018747061595,-5.933175680636699,-16.679202839363537
87707,,-12.314423953445312,-10.239945386939077,-20.00452081837104,-18.195933204424712,-15.073344171285989,-14.090660469244265,-15.440249083724751,-15.597039760808212,-19.100821615005792,-15.602959448996856,-14.20467406098272,-19.11161166745117,-5.906590850381692,-17.256564981887593
87957,,-15.12944302004046,-11.852319224097863,-20.473032621123263,-16.803861151309498,-16.900974786218864,-14.733722217043097,-14.131269227983385,-15.965090277753893,-18.814847579610333,-16.512828416317912,-14.816799653993533,-17.57954344993817,-7.529465696209041,-16.41035256568341
88206,,-15.76744185825998,-10.543681011031808,-17.18789470652417,-13.423075694429642,-16.26877046378177,-16.065188894275863,-15.43353134964232,-17.780701710691325,-14.128267508841551,-17.01481627212499,-17.08840309254461,-14.955715049552818,-5.689165171634231,-16.25946125665872
88456,,-11.783384693405251,-6.018987762069434,-16.427305746715696,-12.012690645376484,-18.01627879824149,-16.190138247915225,-16.552717626346716,-17.5043612122952,-13.66951034064519,-19.61233138519912,-14.945691327976334,-18.25251681009755,-6.007859503790423,-16.39648790793799
88706,,-15.214921558219796,-6.598286586941722,-22.15165292437032,-15.702160149595928,-19.47482627189474,-14.904851544386844,-14.73068081456782,-15.782111806857896,-14.822745436975149,-17.93268243958058,-13.534918188252927,-21.15217456668566,-6.674863382547549,-15.447840734980016
88956,,-17.62026035392688,-9.921135003709562,-18.68381780465454,-16.622471508234916,-18.90423721579437,-12.59970348686541,-13.21476788037854,-14.573105390310914,-15.898998453474222,-12.862945636448966,-12.793233112907362,-18.463612824330436,-4.354340343004024,-15.560332932703783
89206,,-16.58693254219741,-9.483274170347016,-16.282319608399554,-18.644523224092385,-20.499130778686258,-15.017330910911904,-17.16048803862894,-17.122826989281485,-17.393218641465115,-13.92098899960856,-11.237175036226398,-15.896521831910864,-7.971355672864442,-16.49073444481906
89456,,-13.17223260818497,-11.981060105523191,-19.296442055549544,-18.991537642813427,-16.495059021673036,-14.000087934791292,-16.265458467312616,-16.39542731531753,-18.3238755162488,-18.19691782548805,-13.482289596830144,-16.958811952246965,-11.632922799707774,-17.091020626293872
89706,,-15.689348809121803,-11.903606209551224,-19.99290471415081,-17.834646583011544,-12.301432514432593,-15.895835243503605,-16.899778616044678,-18.890759221048697,-16.67199390292663,-16.304390172791514,-16.834452909330164,-19.38403733062705,-6.663496838143704,-19.527291517026228
89956,,-13.813268870397003,-12.138537498146675,-19.44756539824961,-18.1846906778008,-14.354997978964969,-12.871095092658702,-14.7457203044973,-20.283471405954305,-18.843313009104385,-16.796842350573723,-15.70919288625352,-20.484042215011108,-6.18774249447891,-16.188172518271994
90205,,-12.105137410039566,-14.169413338373316,-19.9480441466216,-15.692247087069502,-16.02063826637346,-11.335697077522758,-13.314240542120734,-18.88824248796749,-20.348908808608385,-15.961146440957895,-16.69947145214562,-20.724502920975624,-9.227420352809794,-16.436173532115788
90455,,-12.483012047886016,-10.395874029462128,-19.46116263396209,-17.696753095640382,-13.60871737133479,-13.047803043788512,-16.15352233739834,-14.960728624359678,-18.321272742050517,-18.569166602986183,-15.699469618860151,-19.3787566232508,-10.634782146582234,-17.843462895585514
90705,,-14.106519677910796,-9.340957485777144,-19.036271192290165,-20.431703907855372,-14.02045263442792,-14.818583539840407,-19.50431440656651,-15.9677519808201,-18.31242229743947,-18.42040578981009,-14.728419956841934,-18.62112579401216,-9.850139256488342,-16.1172432053925
90955,,-14.216938884207549,-8.43470755018104,-18.649010241458416,-15.989537760760562,-16.032874616426728,-13.172727246813576,-16.17897510853551,-13.622830021623091,-19.954822524754206,-18.918024470588296,-16.35633752604154,-15.663935452522177,-13.819688296119615,-17.62843887180597
91205,,-14.317240749078689,-10.096443617119816,-21.137819210257128,-14.717291017120376,-17.992259011351674,-13.840918692475723,-13.687397314821084,-14.238572290229586,-14.394548060399508,-18.59701403570429,-16.35535197199434,-17.674400149270678,-11.722962425124068,-17.242282613100897
91455,,-13.764016938376178,-10.379913781462498,-20.62469209926922,-16.50353575129752,-17.942969581905647,-15.103735900909944,-13.570715523850788,-15.2666585460764,-14.156427186400103,-15.320875506832532,-15.416423422502294,-21.584836131373805,-10.404241178827874,-15.835278956000572
91705,,-12.9616089156824,-8.86903674324229,-19.982084544279715,-17.319301231728478,-18.83074322628922,-16.035058182618343,-11.607206817987397,-17.272389634263583,-17.770637047894418,-12.472606254075616,-13.719538968777403,-21.18329183844147,-11.971126703894209,-16.608534714660436
91955,,-15.51594661807686,-10.02540360695323,-21.2569683714024,-16.183084137701908,-18.23928019881616,-16.88435117767885,-15.392648421057457,-18.367072290835495,-17.872262982423173,-14.38479846780072,-12.503705131505312,-22.636072339344324,-8.09169310604296,-19.30701741066554
92204,,-17.614256456736268,-10.772663568886792,-22.76597898135867,-19.81514850295024,-14.61139751008382,-12.580129553210416,-16.384148206118617,-16.58409943545338,-17.670632725344056,-16.549568228513593,-6.253812494148717,-18.25244104650337,-6.57434445068553,-17.27206099540378
92454,,-16.168330311020103,-11.835388276131242,-23.22343768795111,-18.595291114801437,-12.8122312855334,-10.018769452579884,-15.804473632117926,-16.911512461365103,-14.892435850792234,-16.593693771211274,-7.79697078076096,-14.746619710921928,-8.091156259351504,-16.08673191690975
92704,,-17.361768409778623,-11.30769239572585,-20.481421669347142,-18.53977347498593,-16.374148582080007,-14.046928115139805,-19.783667238755257,-18.06322489489592,-15.132788478659062,-13.796348936026885,-14.964438547468834,-18.362899152605973,-10.2775456710657,-18.976077304341093
92954,,-16.614567311660405,-10.447701022313383,-19.36952891559427,-17.34522228489669,-15.012383602440186,-14.589542571352982,-18.909680525443832,-17.731167055970506,-19.350171324567874,-12.100813251355287,-14.077337945654431,-20.19126714130637,-9.9293106084825,-17.464358020685395
93204,,-18.033759088757837,-8.531563022193321,-19.815510566918547,-16.596319875795707,-12.861610892041623,-11.10933945052786,-17.000967591727697,-18.04513361449856,-16.030235630326224,-15.15352099277555,-15.99276460647686,-19.294025803948816,-6.973298804426589,-18.612734474030507
93454,,-16.050993978176912,-8.311979465441508,-19.83877352163969,-16.035000707583656,-14.455288404200406,-13.541716992544494,-14.992793737898875,-15.7355434051558,-16.0524035921334,-12.669274748462955,-13.889893403415376,-17.81058487721857,-8.371641363653303,-15.896391864050027
93704,,-15.656800755020548,-8.065366182719968,-21.15081644973468,-15.431015009825495,-10.40594555199796,-13.958463650828016,-13.332183545460351,-15.501711451566862,-18.13853922948311,-11.777220037469975,-13.84303966946012,-18.129229975439497,-6.700947434827982,-16.543488267521653
93954,,-15.333265545376964,-8.066454595254855,-17.991673945588627,-16.382517321092614,-12.19059903883254,-12.677234234642778,-14.53024318740406,-17.874447945979625,-20.103927160907546,-16.067293251703738,-13.4753420832031,-18.27069429608344,-4.995697904626503,-16.741373010752508
94203,,-15.390817457467886,-12.04311015164028,-17.17206091219379,-16.116486966006445,-14.883019962055574,-14.619655686623489,-16.33428869290145,-16.923868434653595,-16.98287637609652,-16.303154109845945,-13.41555273439212,-15.623069214789982,-7.083849131550409,-14.62706003569564
94453,,-11.294559849132373,-9.167969731706362,-17.149202462006645,-14.92505364016524,-11.4017914115883,-14.862131893560557,-14.864840887120518,-16.767026581154,-14.472543484153178,-14.547438115256348,-14.056682731402129,-16.104213888806584,-7.38596554167599,-10.690967693194974
94703,E2,-14.350814720065848,-8.3153892220709,-18.133585402260675,-16.668409900988845,-13.476143242934684,-16.83932119803094,-17.038083598642118,-18.525348920599885,-19.258029957374745,-14.08589599577288,-9.884624021189223,-17.02492740224234,-4.590745098541917,-14.252857487720728
94953,,-15.248337951429578,-6.199060279303435,-17.348861612002203,-14.692562775608028,-15.51422245960557,-15.41392505591378,-14.907814349195124,-15.658166385005606,-20.88448096530437,-16.13359637587857,-11.21431891003424,-18.16836075080216,-3.668167354779471,-14.131482219419986
95203,,-14.344097826810977,-5.669672226299507,-17.34415536651432,-12.35873131960382,-15.206773161978596,-15.31920843430598,-13.1817858432966,-12.952802103905,-20.55422628989486,-15.94778864427677,-15.478250784132776,-19.180651615613023,-7.38364703058944,-14.714260699651858
95453,,-12.33273147140368,-4.621497333048272,-20.97652722946773,-13.249027424737749,-15.740905531712276,-15.468628094693246,-11.203218845772607,-15.38005978948022,-17.811951592187125,-17.29594735087813,-12.54100227447597,-21.818651468474776,-7.737841969175476,-16.328321327673315
95703,,-10.650278130587909,-5.837935068725082,-20.243095367485022,-14.601824730051488,-14.3870457583569,-15.629352400959288,-14.242281030740164,-14.673832575378418,-16.041484036343164,-14.677494983141838,-13.749664291858751,-19.27008202634389,-6.136807048987507,-15.4976232046144
95953,,-12.995481746422197,-7.878365955682643,-21.816886184779115,-17.6266536467623,-14.68209771767646,-14.598586385180903,-15.35921207421463,-16.393698604745,-15.92817079357043,-15.030041796104571,-13.447170816312235,-16.73461980714357,-4.3951927037114205,-16.12175262872823
96202,,-14.139728230929236,-7.660653084422293,-22.05345927491556,-17.152762256152503,-12.106716648152831,-11.018879875172994,-14.832316411079796,-17.41391598973966,-16.1919115856938,-16.363420607778437,-12.406842883494292,-17.76333192850876,-6.140476759583192,-18.75258299780093
96452,,-17.48353454854144,-6.725300823624927,-18.43686570552675,-15.09365280471811,-11.707769916116188,-10.834064967820233,-14.237267630508086,-17.21894448096593,-17.116744454522287,-14.354065858684557,-12.952694757266867,-16.36100788443836,-5.453595080391138,-17.597106245858015
96702,,-14.16249451229814,-6.228840060242674,-16.323160034360278,-14.913570103575378,-10.975845242628814,-13.33986434492779,-16.123567820948136,-13.86282081593424,-16.589616118656387,-14.279433354765125,-13.678805621547513,-16.703364412656786,-4.969095338629142,-15.801805208640411
96952,,-12.932427604709105,-6.957218573274984,-16.49453956332218,-15.045487715774788,-12.160208586950835,-11.84416532951915,-14.913059162049302,-14.06008991785358,-15.532020222959911,-16.833559538166497,-13.934331451166557,-20.967406037599364,-3.087893138731003,-16.26766082275958
97202,,-15.39020170156734,-6.683527393251892,-15.832715057069422,-15.020423709117717,-15.088012618909382,-10.217762582834474,-14.436635540236482,-17.15111476194108,-18.920051830736917,-13.315006846057862,-12.514381840424685,-17.812952802657595,-3.43822730488521,-14.398618870769068
97452,,-15.218838054208472,-8.480123177692482,-18.26145262205767,-15.085305279584936,-14.56917167005628,-10.678563795906044,-16.11425780356139,-15.107547909555944,-16.375701675736178,-13.092668893337322,-13.111144802177638,-16.0505439693556,-9.222983063160273,-15.606892764595594
97702,,-12.970817093957434,-7.565601594652752,-19.120847683551045,-13.167734678719109,-14.795692854705006,-14.82326611903134,-17.979152819353878,-15.525266605470597,-13.876874345675642,-16.222902617858857,-14.634550613374085,-17.400414006095666,-7.222039472393957,-16.23960095967289
97952,,-13.672029985779444,-2.926962707503196,-16.59424708673597,-13.90922763205539,-13.610844911467368,-13.409623345412562,-16.812587047169888,-18.48257082864125,-11.376527362190153,-14.976347971904469,-9.347075963142409,-18.49666187873069,-3.991961633183221,-18.161624075057357
98201,,-10.762642632703518,-1.116925671961284,-18.54336543804968,-12.75624278622903,-12.263755456155335,-15.892333610688778,-15.163248805319098,-15.188109210603304,-12.275998016175985,-16.179453145959112,-11.47681957853734,-16.368442294357155,-6.33122447871258,-18.12555113448344
98451,,-14.455705948888127,-2.674823745645095,-17.994260334304776,-13.008255965300002,-12.744062595713546,-12.953205361586363,-14.664159676631366,-15.798792104682654,-15.017359198703028,-16.294432917337744,-15.78868547507702,-15.556615082816672,-7.108023890806634,-19.69723703293007
98701,,-16.964080583741136,-6.975863801181558,-17.39869851575468,-13.94138271414189,-16.333422339973463,-11.525115450289826,-14.064465840924962,-16.579128941170016,-14.486279523659633,-16.151836918380827,-16.652972612426286,-17.883714813278637,-8.789223662430537,-16.054125305948393
98951,,-19.80654877971457,-11.162358806592378,-17.048696621220266,-16.57333680878064,-13.185397008474704,-14.812658701877448,-19.70188373899545,-15.07219591852426,-14.3747846839085,-18.89050070934015,-16.258105645079873,-19.734965974666206,-12.971250545747328,-16.2371284941745
99201,,-19.660757789721888,-9.810183877957815,-16.87197214114136,-16.472574635778816,-14.76057266451672,-15.144028435728227,-18.96121906190461,-16.016160581690364,-15.506555848881256,-15.185871276079098,-16.219685266907046,-17.189248022219708,-14.467106671195516,-17.051599113225944
99451,,-16.363468345699307,-5.925932403710805,-18.52933830916845,-12.627423537685251,-14.892849110568289,-13.980432650566136,-16.353803769698686,-16.387078993109093,-19.85202878750546,-17.580176598809512,-15.407937851506446,-17.828017703844075,-9.427899956244442,-18.37685218940732
99701,,-13.451377728713116,-3.296665029179323,-17.0254083786837,-13.598005949180504,-11.257572814690622,-10.864421551766345,-11.916041924882864,-17.098673397003715,-18.24544910343321,-19.06454646747228,-14.059971815537862,-18.88150881350475,-6.60375065904677,-14.837512617907716
99951,,-13.45008832851178,-6.613808702811817,-19.55288237721805,-16.59356500325031,-12.27302807373186,-10.404438908321696,-11.997877863009409,-14.597045872362193,-18.84375265917159,-15.805142393770154,-12.620154333432993,-20.139654894175397,-5.562794424995357,-13.558170813376105
100200,,-13.613735980327908,-5.552548109648931,-21.33355164720363,-12.678976824865236,-13.061602148116254,-13.317932843469034,-14.281821165836371,-13.477560453602438,-13.723111835822715,-15.556416410147255,-12.568438116223886,-19.509871751555224,-4.228240111331354,-13.774793391107076
100450,,-16.509027288452923,-7.555646277124676,-19.28054430305483,-11.245738368794225,-14.656943927934709,-14.699012142584758,-17.154931601962314,-15.001925358163792,-13.81065743724169,-17.35751749957766,-15.188730752503618,-16.09269181868347,-7.3143489853654975,-17.780548374496593
100700,,-14.528978147682636,-5.37548684003501,-15.88346198548428,-10.940404776754288,-14.328735808910295,-14.295833360327896,-17.408669565566864,-16.53990049143703,-15.186078816561414,-14.556223991190524,-13.23169486185079,-15.955522394683149,-6.746783003709438,-19.43642106080505
100950,,-14.292680958226583,-4.09692152424656,-16.44188052004236,-13.341041557425674,-14.673874349351818,-15.4207200341349,-16.09282744945482,-14.202329249958288,-13.94868764104909,-14.663723122799254,-12.541994671842025,-17.37495342472968,-5.741684333742732,-16.77071733861129
101200,,-16.865600855561127,-5.379989040339394,-17.301179804004608,-12.14716425095068,-16.481560235439556,-15.753263108056236,-17.67698947614811,-14.112225901455597,-13.269400056436377,-14.895825649437866,-15.756014740859598,-19.74460522602188,-9.324985110742,-13.810886874581712
101450,,-15.543219352172487,-8.47186281147571,-16.58090875036788,-14.133700663774466,-16.69582430558066,-13.892922781822598,-19.33223994325205,-15.969903281311076,-15.677765573213174,-19.322996127751612,-18.35687014048448,-20.82644179543802,-8.395743061184628,-15.597810855920295
101700,,-11.7434688621751,-10.344832304457078,-19.822229655486964,-19.72739232778057,-14.795992443830796,-14.451671716287011,-17.68061299202888,-16.893746348454865,-16.678604552805012,-18.7973432261019,-18.670743011885712,-18.182219204364443,-6.940313883134712,-14.585604957646652
101950,,-12.967936301071996,-8.324543981875653,-17.637186630455503,-19.50996973407992,-13.918365466700063,-15.532402090604856,-17.81347910175271,-13.768732653093585,-15.641303087985962,-14.602392783431757,-17.967036921024526,-17.994607186693088,-6.518597007993055,-15.02976935637558
102200,,-11.330276118880011,-7.17286436083136,-17.943467437168113,-16.44239596480679,-13.19428718431904,-14.101938039013476,-12.541597782575298,-13.766671878822365,-16.48192753880789,-12.845545632154838,-19.757041725633865,-20.717111051231228,-7.339520913090579,-17.515612980236128
102449,,-13.478455071855484,-8.565119655908124,-16.252340982905288,-14.46473696643573,-12.26608647376624,-14.867798431955526,-12.413974858823943,-18.373715204014417,-18.02775121448675,-16.426023175814002,-18.03457426452493,-20.72693987323167,-8.21823836299336,-14.434364826093889
102699,,-20.80647141433643,-5.065382064800086,-16.539715234795544,-13.27858211463212,-14.97215329763938,-16.753300570930147,-15.3639569615679,-17.27097514121898,-16.855092987170494,-15.157476039959338,-14.821663504452363,-17.530641753089423,-8.514520519314143,-12.831028110662054
102949,,-15.592667814359686,-6.767365122360019,-17.54926804896034,-11.602570399398733,-12.991343249885418,-9.125832468080434,-11.922542505195857,-12.411640757816684,-12.598088726155584,-14.751575708798857,-13.865632905318588,-12.238524545502711,-9.138187485063373,-13.408752364741517
103199,,-13.673482969433636,-6.255946503009233,-20.648533209510084,-11.293450347467864,-10.38027587176544,-7.062073321923275,-11.036703612071603,-12.787388302838671,-11.57392313188695,-14.77400065059324,-14.845885840304048,-12.670767042004307,-8.640391965487908,-16.09211904019779
103449,,-13.984479278661174,-2.727314628302626,-21.157083284130657,-16.217264924509532,-7.625843956726948,-9.627656987121764,-14.371557939380954,-17.22880632383243,-11.49987598448453,-13.587470496401696,-14.399875742443724,-15.42357393912058,-9.541083998249317,-15.625081147047634
103699,,-12.598149296827382,-1.6657392582119877,-19.3781888323075,-11.678275634190513,-10.078778206205747,-12.918808176128708,-13.422651201927351,-17.218745375582444,-14.705057127294266,-15.22385454939158,-13.117486346634257,-14.948809280965833,-11.963490759849496,-15.31927334595358
103949,,-11.761932506512055,-3.3478568974083576,-16.162436354171803,-8.054126253172367,-10.132036852600184,-15.243410447702097,-18.118431313718062,-18.094038652209548,-15.416727627595998,-20.51434874084856,-13.330845720572652,-18.894046886374102,-9.728461517990956,-15.92275463560057
104199,,-14.602248912640263,-5.953908328201873,-17.657228423249318,-11.826015338887595,-10.113590183446066,-16.637214606272195,-17.964676090087412,-15.94372542731466,-16.546411724991174,-17.52737040781129,-12.563836591206393,-19.53254802204799,-11.33354112288523,-17.58289281102454
104448,,-9.128576915978606,-5.101285691314135,-16.008754217854,-8.12492678399998,-10.510503960042636,-15.524423110885117,-15.359508320261494,-14.834187447452084,-16.0111581290442,-15.270332715864368,-10.12747538426222,-17.772391805878758,-3.9938338625544567,-12.467410566705029
104698,,-3.708279833786473,-2.3558000834410997,-13.32890636367912,-7.114221108515717,-9.391011588384764,-12.07556900764138,-11.283624122912077,-10.238630749937258,-13.819597636072835,-13.387893039896774,-7.736343450477998,-17.80004412429147,0.6553247059212653,-6.255115166581327
104948,,-3.0517046797004923,-0.1076840922468829,-10.59594116729908,-1.6550068831477578,-9.66740797880599,-9.08725906432806,-9.115058495556646,-8.93127555711173,-13.4564390907042,-12.066374498387216,-10.971020404227335,-15.4237067960936,-1.4238492128053102,-4.859580907160176
105198,,-7.374281991580504,-2.3049338056963373,-12.052754373496516,-2.5478650470439583,-12.502955096602866,-10.810502714154072,-14.399378664989111,-14.287432872697964,-15.54547170391977,-14.644889559944628,-12.484709097365483,-14.858726833509074,-3.6218168565267774,-8.11826618506941
105448,,-10.437617082893867,-1.0891173459586012,-15.070993900611304,-10.62300213396953,-10.45441110170909,-11.590926697868891,-11.501386950917588,-16.786413884598005,-17.033014473533214,-16.21895905317752,-10.793982258902556,-14.476518354050462,-2.8007990422773394,-12.776766903013446
105698,,-11.978367435274276,-2.7495623220818626,-17.00091918973701,-13.967559617939203,-10.907554043700788,-14.139804902818614,-12.486746930855674,-13.507799588939683,-16.030326922982262,-15.679658411481723,-11.04048672286387,-15.024957908665456,-4.12233229439955,-15.089705893980392
105948,,-13.839862974061967,-5.534361363901739,-17.840950371861886,-12.739191480599008,-14.549999271361436,-11.64076154811319,-12.411511290201137,-13.84433462732056,-15.150816935273138,-15.232738661400935,-13.55637883848562,-14.928490731259654,-3.892812680062764,-14.107423038110095
106198,,-12.764817005463042,-3.833619073758196,-14.98846472868779,-10.228608985144136,-17.492499012895635,-15.26747341379538,-15.745082595995507,-14.752521184528714,-15.726124073430048,-16.470845808852896,-12.848172232405696,-14.361923640202251,-3.3723942053925957,-11.496704679459343
106447,,-9.620320546543176,-6.275024492256561,-15.870048062589188,-9.27470661764435,-18.60391650728221,-18.22084698298972,-16.141704486574508,-14.111085701047394,-15.957245820754606,-17.26669796179896,-11.390755065708277,-13.83458397691098,-4.3626564068401645,-10.98459272920695
