timecode,event,eeg.af3,eeg.f7,eeg.f3,eeg.fc5,eeg.t7,eeg.p7,eeg.o1,eeg.o2,eeg.p8,eeg.t8,eeg.fc6,eeg.f4,eeg.f8,eeg.af4
0,,-0.2341254337775898,5.64692376758193,-11.441231092416942,-1.0859582102039944,-3.995267840780165,-2.097207386283286,-3.6208102710364662,-7.18251850857908,-5.931382380806486,-4.750699945073831,-6.534952183774011,-8.774542386464436,3.0484337143761424,-6.007695022532471
250,,4.228009296653075,9.856702606142136,-8.404506236757172,0.1564906212673414,-1.7130002106587994,-1.8019079728695155,-6.449916596030954,-6.502702474358331,-4.5569924623068845,-3.3590760419905603,-2.98883580404104,-10.690588902437929,7.637228197667102,-2.9251285627577746
500,,0.8487902661895623,10.72420639395183,-10.218995923862346,-0.0455436789988001,-2.710696519036156,-3.837099261024469,-6.843892633735066,-8.244138988483742,-6.048666677643404,-6.680188116470571,-1.8421376659184312,-8.566816624653276,4.070342053965804,-5.562841837492771
750,,1.2136377336867372,12.344180005699569,-8.677593932256466,2.0434190338511766,-5.039729608431294,-4.57831647248259,-5.909917366334509,-5.477481521495076,-3.4841446231215296,-9.215245659256968,-5.10827364616866,-7.531342422836769,2.3592432451757213,-3.9787475056835055
1000,,-1.4085017770859776,5.597035142557695,-11.072128283290557,-1.1916540851726445,-10.070210959288456,-6.852298214825908,-3.509517758921733,-2.863006787206502,-3.525963619017209,-9.956819385956328,-7.047152194385513,-9.99507895006219,3.734457534208804,-4.933414080658045
1249,,-6.943925527133694,0.6924764356137265,-14.603842286536468,-2.2210379581390844,-5.858050790729362,-14.939704693831608,-4.624853618432229,-5.300220266504415,-3.830072179833095,-7.832896662919975,-3.718394898002286,-12.360544416099334,1.8978411657549064,-3.973583219655345
1499,,-7.745650519164946,-0.6648225290614479,-12.033817284651713,-3.2604312902338437,-4.444898668107968,-12.158385645757154,-5.260891291629419,-5.570570833826485,-6.54739585920789,-6.182197457042178,-2.3734178389964544,-12.785646671231593,1.7998064364173665,-4.102155618590372
1749,,-7.348108005469277,-2.7579850621367057,-7.5195232269618,-0.2400057055751745,-7.065415164502316,-12.04956419064084,-8.101422066860689,-7.334096179537697,-10.890615719995916,-8.135492450048886,-2.3910222432711112,-12.689741190100923,1.1188144513267593,-6.128864733219169
1999,,-9.331220311887058,-0.0572133888877653,-7.524792784730055,-2.141708754403329,-9.31187949030032,-10.359434456663138,-6.770433417607733,-10.321459516524856,-8.004787929189453,-5.504267889786613,-3.042676087786302,-12.704741014200064,2.476810842437659,-8.981333968971615
2249,,-4.413420488857687,1.45203331947561,-10.532192565953435,-3.7170392153289455,-5.525268313395988,-7.776086017908703,-6.008756333487267,-3.2799644443895497,-2.00507675426778,-3.492691078575338,-5.461353749511707,-13.4748663520894,0.3350191309497429,-7.315365932310749
2499,,-1.977559723543767,1.8644385842596656,-12.539248611192368,-1.7431952994575517,-4.84898315246734,-4.979611968017564,-7.224869598574683,-1.9663000230256529,-4.170750482080923,-4.481934084083726,0.0137617310319094,-6.05358642146229,2.676987377162771,-1.159618010199139
2749,,-3.3358497674233183,6.717176072643251,-12.559544967559834,0.4289228176652976,-4.142760713537378,-9.076753906977128,-6.724721385090511,-2.6339569164279952,-4.46322769918205,-5.713905174078985,0.0554655630875142,-5.0660440965973255,2.785931519345921,-1.4427115145525793
2999,,-4.539985925345087,7.605761664742959,-8.098646069907637,2.144461674513956,-4.117187855215343,-10.317181632552776,-8.279280498998897,-3.604242437123914,-0.1466452239709844,-1.2026483556628036,0.6280609067547444,-10.111765490566158,5.681343013328382,-6.270499589648844
3248,,0.3499566556254773,3.562654921602611,-6.720232759009398,2.928768762161666,-4.515607265084927,-4.238176938589354,-1.6865304351815011,-0.6396455876375664,0.9383766247399744,-0.4822079701223334,-2.151568410291884,-6.616404276649599,9.757567280341474,-3.1300869417855304
3498,,-1.5990607066811526,1.336847292005963,-10.96840564678386,0.6208594423707219,-3.403064943403668,-4.7346733082916215,-3.7834056830285374,-3.055797054087122,-4.248578788904161,-3.3533167889838373,-3.2759857712432328,-7.471003909544274,7.819917741438926,-5.623977387662911
3748,,-7.057561613877351,2.546474543560781,-13.077366646073836,0.1788938650719516,-4.489775431179535,-9.494968448894635,-6.86463207610685,-6.840953322019642,-9.525504347387558,-4.858985828963183,-1.45564465749654,-10.420480634495064,3.5233475973545425,-6.524713478542411
3998,,-5.462170623797888,8.696126180485262,-10.45644817949357,2.4196440648508117,-2.1103042525812348,-4.031797680284187,-5.368375791733091,-10.115426972282432,-7.403716729435247,-5.914427941593042,-0.3409613034023521,-8.167356698100889,4.692492866657286,-4.599151788587431
4248,,-4.130465905976665,9.198624476601474,-11.065951979158193,1.911801202270312,-1.8662158460933,-3.734703168477652,-7.666521547417759,-5.906746134749499,-4.029271143883223,0.1281627096134018,-0.9430970513926312,-8.694040192846474,3.568895469043634,-5.525044463650102
4498,,-4.902519217129852,5.721620796790303,-11.680235059975626,-1.475421461605502,0.5032467112175294,-7.640076177262443,-6.18532528223501,-5.868513923391234,-3.368867252796855,-1.2480866637015773,-0.8059934007044723,-8.416075080748588,1.989992079786476,-7.089330808157258
4748,,-10.303623214342675,-1.4517066981066913,-8.45893120496034,-3.5603235625709195,-4.571220725083823,-6.216562470389727,-6.107539091939866,-5.733665746023457,-3.646380694594777,-2.064765412464202,-3.302449241822435,-8.416557718379043,2.2734787444697826,-9.451265635843718
4998,,-7.127416881598876,5.638356100393592,-8.016405444281517,3.9636484338595,-6.737207092912706,-7.02531206873425,-10.692826557492763,-3.4623989794322627,-1.8772543843017309,-5.8737941676714245,-6.921802524232378,-10.176969955271469,5.005901974937941,-9.867272070808228
5247,,-6.338831441749796,7.246764039828687,-6.538555006373354,2.711583152458426,-5.169601062708212,-11.653836689704208,-7.6440231669306336,-4.649851717018677,-0.5743681077947196,-6.233796966518526,-2.9688049197976407,-15.209529625377272,4.545991589072839,-10.653445269498254
5497,,-3.852447872103808,1.444444888822785,-9.409439234701134,-5.661534617583726,-3.331714412581705,-7.085778154627649,-5.7500674935953375,-7.403968734553132,-7.344607074390387,-5.8568780417370645,-0.7101328473117661,-6.276157248362152,2.9426178259157005,-8.620921507460565
5747,,-3.962104996760983,4.303480811803204,-8.024208761793252,0.0078778257090021,-1.6416222096409985,-5.5917220223280415,-4.95396880131645,-8.141846404727971,-4.5825003473398604,-7.573307776652939,-0.3902806195139306,-4.683965460576069,9.75998664688678,-5.042702567511832
5997,,-1.4893820013949757,5.08050542216647,-7.342503106841017,-0.1498776952252427,-5.38784859991792,-4.219657299044222,-1.451182958448041,-3.8746612909505975,-2.8360633672424647,-5.582915360348513,-4.648596533485979,-5.499300485080143,7.629850857429034,-1.4464875490249527
6247,,-4.152594480295184,3.0579275350691324,-7.226552503623057,-4.49875637645102,-8.367723755905917,-4.609477465909468,-4.167260945966439,-6.209163817712803,-3.014781266229973,-3.770016685530322,-6.968821814000875,-4.826799200497055,0.5522813096698322,-3.122558643391809
6497,,-14.540997923945554,0.6185229918859159,-10.406302862249085,-7.413978416094076,-7.278971385695298,-8.46740210557561,-9.11378394228787,-10.804059503719808,-1.856346730490663,-0.5632220622422731,-8.011688578381358,-10.06739784721349,-1.044742848458377,-8.542576823410808
6747,,-11.170358309357605,0.2293229920959233,-3.701635752672019,-5.4560615033036655,-5.762233336537074,-5.97711194695788,-7.246460920048239,-8.305501492585893,-5.7424607730631205,-2.592703994245916,-5.676703149381845,-9.021375216598496,-3.88231844389516,-10.89234775221536
6997,,-7.634494852898202,-0.5218291888982414,5.363378460780095,4.211054503403084,-4.611776481268205,-2.1893459167804954,-4.825102153948092,-4.767156703559897,-4.315551990286028,-4.730164149711779,-2.917324510332586,-6.620756036597049,-2.1517649241722028,-11.477365947978749
7246,,-6.0834895891432925,3.784446760060769,3.4099858189680594,6.819812033411213,-2.4518353285015584,-3.107652943241095,-5.471741885185298,-2.800189808463176,-3.744845308885952,-10.304514092106968,-2.566371080729608,-8.918754807981074,2.485871472128634,-6.18668720861062
7496,,-4.950094587364645,5.813902539468755,-10.793609487023607,0.1549491078055306,-0.6150453376287659,-1.4025447343992306,-0.3409668954522667,-7.277043515822905,-4.024348662684329,-9.631984688307192,1.7801466000862631,-16.335259036167628,6.53201694200504,-4.303751364008749
7746,,-8.521650274660432,-0.2092011472752632,-9.998251406724105,-1.9875779827310496,-3.350916728134723,-4.766994279751378,-2.0109615459100985,-12.58830797478783,-5.793701141686287,-6.199347727847856,-0.3727497640804406,-13.124986390540904,3.0444473812586925,-8.110067454210398
7996,,-5.513551580989912,3.658620870202813,-9.954613106024334,-5.128613141970078,-8.070861745000524,-5.597269223582293,-6.567086341156326,-9.323712153855771,-5.566030835165128,-5.114302401129369,-7.0062093924417645,-10.177668797730933,0.5979986597669108,-5.20039025619345
8246,,-3.753029085049628,3.0132487320130865,-11.638767990381083,-6.883952813928489,-6.421501759297796,-4.517935947340729,-7.325227678530912,-6.848499017086213,-4.429978895915808,-5.366243267660401,-6.436832011620427,-11.885455649128998,-2.3378301018825347,-5.258200541306857
8496,,-4.155515338768801,2.852429500289272,-14.500919344242575,-5.036832999386825,-3.280923474363977,-3.1856006743579885,-3.224625212884191,-4.471230511296175,-4.859723896972731,-6.420174438260401,-2.281950081218953,-11.96489806422398,-3.349145932993538,-7.415154108465797
8746,,-1.7058279353438286,1.2612945518411052,-9.73266390374291,1.2386052322298255,-1.226149909943342,-1.7624935899625271,-1.9123351057074085,-3.9991648566204208,-2.8611628526290427,-1.955095010225064,1.9090914478812853,-10.50645140826748,0.3113832719782943,-4.789943632081593
8996,,-5.053203435121395,-0.5370242878490354,-7.043517432793581,1.6895517745780593,-0.3366410490009932,0.1167986577314078,-3.012818897560581,-3.929260338146091,-1.5334014170782309,-0.98791817639326,2.789563498503948,-8.797779650248025,3.1564125110770296,-6.549057960744877
9245,,-7.20881803557504,-1.2774683108112268,-9.73321842306484,-4.498710990359314,-3.5948470772019614,-4.046063368349912,-6.666182450866844,-6.833164818063232,-3.413803136866856,-1.933395950897332,0.2067582469752417,-12.72454484293225,1.7011966304659047,-7.264495393644737
9495,,-8.53505986847059,1.2284395916650157,-13.478889251760886,-3.200596618225972,-3.673987974710825,-12.932032385813894,-6.524184597873019,-7.546431185347473,-6.728640936727399,-2.654260142382462,-6.05225752545493,-9.889496294084667,1.114912269574027,-5.323684511984359
9745,,-4.499920201461664,2.734722453814796,-13.231814781573126,-2.054645795753389,-5.269773571607731,-15.370352091064817,-5.180700786503704,-5.627968519000883,-5.454078316278125,-4.895949040419056,-5.212719900096308,-10.758554743101632,1.5136812017904535,-9.297647743777468
9995,,-3.2932770574183894,1.4661648279062174,-11.131795118958692,-2.8691581264897064,-2.948573748431466,-16.670793156742977,-10.228801525119817,-1.8950560713244824,-2.674757420048599,-2.5631853586530062,-3.670093309147222,3.9605695545560216,-2.3348232228488426,-10.411488297316945
10245,,-5.581654376746711,1.7931609321076607,-8.813525839833229,-5.733924812786504,-4.6070278576290615,-12.747815228412938,-5.238382124322771,-3.276847922780433,-5.4337840535115225,-3.80116431028918,-1.5607018075493075,7.912848998588258,4.393433317601641,-7.402032661867944
10495,,-0.5821250482417386,6.988455126686861,-8.04435213450805,1.4157960487539,-6.420639380159087,-5.944301303115913,-5.108530735942283,-5.245109034991201,-8.879337404807274,-9.695535469263318,4.6166944237770124,0.3021458905806969,10.4467322853534,-2.940647317287135
10745,,-0.1056276385917549,7.21531731226346,-6.219644709938208,3.851632771175651,-8.491828982048261,-4.439046628438327,-7.43920831164142,-9.25860251866568,-9.147278705121884,-9.526097346263091,1.865235827744764,-5.544097913403785,7.435852032283281,-2.8280901441993804
10995,,-5.106461701272352,4.756122095128311,-7.658919022165903,0.1218481298449192,-7.451859329278898,-5.013050601888053,-8.841204802267562,-7.312075982921904,-10.445368619549534,-5.622388828608093,-4.816928209152122,-8.754134255004583,5.354468567371741,-7.174413785696929
11244,,-2.7754847073218465,7.580245064332766,-9.518712014243764,-4.165890581249511,-5.542813403484378,-6.714813245308048,-7.256232146886306,-5.668009112551788,-7.219424318724918,-5.627250371564763,-2.805312994597733,-10.943585749597826,3.443433261351675,-6.765410186114071
11494,,-0.8262528153516866,8.836332601844243,-8.95997068069974,-1.6164225999171944,-3.7980805555845,-3.639435149126216,-3.846247199560859,-1.4586529778370427,-5.353552282521505,-7.082522855395678,-2.62227554995765,-8.065109049252296,3.9629788841669775,-9.319626739634774
11744,,-3.593848111161744,2.981722803995006,-10.53591694022096,-3.078501115823226,-5.835618036548728,-4.8259197185299465,-1.9442209833207704,-3.770083507408281,-6.041504915574595,-5.214030310875844,-1.1944183101954304,-6.513012979253377,3.0878719403798147,-5.883651736283756
11994,,-4.676526013690273,-0.7551647369842579,-10.812006330046051,-3.851100450269491,-9.520253443484732,-5.655767835613283,-2.3916450204359343,-3.2321519604288107,-6.076369868241475,-4.370103150690245,-0.8226837852164988,-9.613717335149946,2.678059683835132,-4.081847398493317
12244,,-1.2242785536347849,-1.8004947671885034,-8.232958419690126,-0.5051603290728736,-9.2247955556975,-3.0351981133071844,-1.4040056273375805,-0.3460143266092987,-1.748091289932617,-4.254878975402545,1.271844259207095,-7.785442989032001,3.091473503412882,-3.5856591551235177
12494,,-3.172018842484176,2.6347726686438184,-6.308476386069046,-0.260091333294038,-9.398861112982589,-2.347676974109834,-0.419596525157723,-2.855952358788852,-1.9684549577795951,-2.435451766753765,1.9347115079355757,-5.891345434478289,0.5899773745007073,-4.022644265164698
12744,,-4.057364767891128,4.102275888716474,-7.772097371793658,-3.0004032406710035,-4.640036118100946,-5.540389282120527,-4.737616158250453,-8.166812321794321,-8.914682294411282,-5.529212021517256,-5.456575297969504,-9.671494379088118,5.313746905678172,-8.410327953797768
12994,,-6.148072755912317,3.913346810325215,-8.568994508662339,-1.9847171657192293,-3.857678222775424,-10.328647185358095,-8.048862835355242,-8.322179158204102,-10.846325700946416,-8.831752985133718,-8.17205908378069,-12.970862869263089,4.224509498820402,-12.99242176100064
13243,,-10.65829486874362,3.0650999151773237,-9.698718416008496,0.3069742260487146,-3.184195524762817,-9.341093913813802,-6.633924947689847,-6.083538642622473,-6.029338690484726,-8.307087579271418,-3.884216431257221,-9.283301250138114,0.5538621624449993,-10.699946928465511
13493,,-13.541215145527277,3.2514324630897837,-13.667000362106675,0.2023707847446691,-4.168085870916227,-4.817812182373186,-6.084768606825018,-7.771132718271683,-9.516464557485886,-9.531206837051224,-1.7758843047178865,-6.302195184212083,2.9825109172550968,-8.602833212739572
13743,,-8.393853725843792,4.93487227602878,-12.81675644844854,1.379955610806551,-5.919532214301828,-4.30188905729162,-0.7590212135808563,-5.682939821151322,-6.945346866913767,-8.912339668115376,-0.9039822144990568,-7.558955700131373,1.7980135914070796,-5.297765971461921
13993,,-5.00494596322822,3.053681105449962,-11.62186904343602,3.3165415160409752,-5.609594399659804,-4.044480953915679,-1.558318877061575,-7.405412648873356,-5.227705876107464,-8.481143173958863,-1.4440299250466166,-9.308022637288111,5.097163598185657,-6.739940725805607
14243,,-4.377684030666195,-2.27248167644262,-10.53426287334726,0.5518531179815102,-0.341220336645849,-4.304184720029842,-5.66102616677073,-5.872102519565315,-8.142393145068663,-3.380019108215163,1.7568175741656429,-8.755467260376417,4.861340756065768,-4.4743763684363085
14493,,-3.7462316302759335,-0.2623953017517879,-8.618097737855825,-3.032754654901214,-2.0472581814862294,-3.496870714242907,-3.284076378371876,-3.1501008732644227,-6.4466913232534,-1.8072753797946124,-0.1479651335033873,-9.2005487994858,5.75396078579932,-6.233007462222325
14743,,-1.0921497088445686,1.1254549310435082,-6.362975261238847,-3.1450552684726496,-9.609013116781428,-1.9433910666398024,-2.5422909669274194,-3.7716697504979866,-6.242404751726855,-3.795205108615693,-3.265095730444142,-11.885826252696,7.761801915376609,-7.833773744137903
14993,,-2.6511239625703613,4.792779320893049,-6.526034975166489,-1.0533807802727375,-7.212586112484573,-0.833190365235421,-2.7315081080334203,-9.03487177667045,-7.238306831836619,-7.8383378368074865,-2.303498997675956,-12.309458527623692,7.350355800739772,-5.654638230551758
15242,,-2.1486099689621927,5.110502262607249,-11.642392673021607,0.4699517417362032,-6.323450608171855,-2.070186011534733,-0.8344445785297308,-10.964455687065248,-8.971213323381361,-11.269043247677002,-2.2795089462494817,-10.707380854540997,5.49592689086596,-4.534574972654078
15492,,-4.557702946258868,4.769842613628056,-12.648945436961824,-2.160860744974704,-4.6897120256521,-4.172185446426495,-2.769267718961963,-8.911747659861422,-8.660010176643555,-9.79459447241488,-3.4480055860034025,-12.091231460859303,4.54949357764395,-7.327569295625908
15742,,-12.25491225669404,5.470793949624682,-12.6704877728956,-2.60666635042242,-2.7123135471931747,-7.139527718288198,-4.759999498137227,-3.882963204821297,-4.366809115609241,-8.257656707651577,-3.145884666478253,-12.67398077586518,1.8417984410101456,-10.074385541040844
15992,,-5.620071517983554,3.524025845996508,-10.383581200341588,-2.2175122599669383,-4.025032741486408,-1.7100182315893715,-1.065759908510411,-4.190214281602192,-5.2811625775799085,-5.859661528824685,-0.7503570367269302,-12.207108793455122,-1.1616500708781272,-9.430895706757042
16242,,-4.849870714685554,2.0848592206587475,-10.306696063530213,0.5167936646055122,-7.407933758422176,-3.2294641721940187,-1.3644273011530768,-7.38112057177335,-9.96219032531476,-3.834271604312689,0.2762801390280057,-11.09063319084936,4.026225058610517,-9.507232151854137
16492,,-7.222763388339671,2.9388503736277345,-11.266238224538176,-0.939639881389448,-7.101150106776154,-5.786442797256716,-2.5607053876381736,-7.538452142805712,-9.541789705756525,-3.230927384024996,-0.4070078887960992,-9.18435641608938,4.337574477640109,-9.714913829277416
16742,,-4.949089867122391,2.688596509831522,-9.84764126683039,-4.394408058362423,-6.317957867360025,-8.216037892199747,-3.6467504211311,-8.37265081053741,-6.794549927237003,-6.199350018013553,-4.779140093395002,-6.827683451488095,0.662358717202223,-0.7809966742248988
16992,,-3.2048005102541084,-1.020456499760247,-9.094587293830669,0.5349242971094605,-9.383472191028956,-7.4838354296600915,-6.673083040708607,-7.91076296207799,-5.775306583876247,-6.718924702547955,-3.3530535426423604,-10.378126399672109,-0.0401554686593569,2.695807221574575
17241,,-3.879580942484976,-0.8358889815938662,-8.233998370736094,-0.1835943483034454,-8.979396233763108,-2.921393156905224,-4.13059130692686,-5.172710534475473,-9.37328868532196,-8.177037924164452,-0.3710006674349062,-9.194590026863857,3.3831303689633656,-1.2440301743640134
17491,,-3.639540136616816,-0.9469870756335108,-6.9819730395032,-4.83200237443076,-7.850391505596441,-4.774553340979627,-2.986100315149592,-5.7891835972692,-6.978015324282769,-6.27342810131172,-1.9432340826552108,-12.673208088267424,2.0736054853350177,-6.402073677872023
17741,,-3.878018121277485,1.2169655541985545,-6.438005424214191,-4.072329707174803,-2.9925520545416173,-4.365331480732378,-1.2655816104025468,-7.409847176552295,-1.1887282966633284,-3.1877760970602487,-2.1532122465787022,-12.231818994660896,3.805895961247228,-8.688863611513757
17991,,-6.502567246656086,-2.488090332421341,-10.200077778753563,-3.5384650980528893,-4.054170011094333,-2.198540025278561,-2.5379054053179138,-13.182033573929928,-3.758399198765472,-7.2042808434847805,-0.9818409081966348,-10.123437252312286,4.738332864394633,-8.404115012686859
18241,,-4.990375552259392,-3.483049837159498,-11.222638300321671,-5.57294315125655,-3.6299386446482336,-0.9753278373679816,-4.276749214508328,-9.313401887382518,-14.301901555850026,-9.307950000090871,1.8243344363690104,-8.909119208744539,3.278600662405205,-4.124003003163085
18491,,-2.650945842756838,0.2132045360057097,-8.16491247476382,-7.848659580441457,-3.4224875911784194,-3.971280727126544,-3.485243091912685,-4.805832339595225,-13.613119515920356,-4.57813870077649,-0.3223159248633249,-10.677879004356,-3.153066763064301,-3.969901331188892
18741,,-3.619315573828526,1.5595799866755724,-9.77972837281201,-4.687874475296582,-3.98763387808708,-2.518593866243167,-4.183215545167878,-0.2396152158976893,-7.264739321994146,-4.934144795462086,1.1977627606276775,-11.382459173981038,-4.301744460681839,-2.08265340255429
18991,,-4.550479314874414,2.96959815474086,-8.86930486798825,0.4144805217362391,-3.763219172868286,-3.1273581421576164,-5.394361998851219,-3.589763869535578,-8.429712925469163,-8.359023952640088,-0.9657757428801108,-12.565398402849851,-5.617056237305396,2.393710077981458
19240,,-4.765275390956475,1.000929616292581,-7.743667154360539,3.8213001305892806,-3.278633135131201,-3.1760144199489786,-3.1641734897672533,-6.222689700595122,-7.925605600195821,-7.597307632234544,-2.8602872215378765,-11.723697882171614,-1.788280371749587,-2.94186137520303
19490,,-7.644620892380255,1.1842155723210015,-9.47783154006082,0.180320976361453,-4.910815078630326,-4.60237704044437,-1.9562989043984944,-4.1100017436690575,-6.732754185793839,-6.659663695627892,-1.9506567502356984,-8.525160521672536,5.217545927747328,-7.854411607683247
19740,,-5.989421640259965,4.334989860513316,-8.737923683927432,-1.7681162649983728,-6.597870033054788,-2.858168696633261,-1.9585937567160416,-5.974555518634236,-6.8528247841152,-6.608335792601555,-0.7653839330646545,-6.007611360074153,6.720083281231002,-5.129858263360964
19990,,-6.282130571464144,-0.5932475266613616,-9.33253234816247,-5.180435906891269,-8.136513382756576,-3.0156728927798104,-4.955133870543689,-7.196547493264589,-10.524614304517382,-7.442403171797745,-2.6168461437951707,-8.165032694559816,1.8893116104583496,-6.717717884618157
20240,,-8.753733212678293,-1.5728506126752826,-11.52085437049668,-6.523755133418198,-6.59437413278078,-2.497605469203805,-7.846955060583422,-10.01201371117749,-7.707438920595255,-7.438853673451547,-5.202055111594555,-9.545579516793277,0.2163455095179578,-7.924741068871413
20490,,-7.355769708116108,-0.2087067469444527,-11.70114901566947,-2.676080948621562,-5.369298817346156,-3.698695308837295,-5.005147350891052,-5.876210162281932,-4.156665242528987,-7.823947054561682,-3.472628442777407,-8.703831050496857,1.6739341470164852,-8.586612378523675
20740,,-6.592519997268158,3.3000184482101407,-11.108903630989866,-4.347319952250832,-2.713014450887527,-4.1049626649607465,-4.085961552914278,-6.347607058261345,-5.234278831246702,-9.242601650186543,-0.3533656576691188,-7.211816840588531,0.5335200633219195,-8.546263244945527
20990,,-7.07455487395209,1.0619877147212795,-7.822087014243886,-4.660239002902255,-2.080283092267092,-3.266251555171646,-2.653943193148278,-6.346476211740493,-4.403930338643868,-5.832096135062442,0.1991353730918928,-9.32075221810192,1.9326154747769488,-6.011790141303952
21240,,-6.205946650732527,2.002875939500202,-6.940348703257758,0.4160861111179926,-6.871174085384894,-5.053162615261488,-3.768011394993983,-4.62270519368343,-5.83032490725759,-1.947519705938112,1.3268462411030986,-8.300599115856935,2.927099472427004,-3.888907849060032
21489,,-2.4797874197355503,2.6551949950869886,-9.835028985882149,0.9162936759106444,-6.107418152725276,-6.66635536274804,-5.078912499269082,-2.0586358583526225,-7.085872743961255,-4.325734609046186,1.784915560790901,-15.027579427150105,6.793983371535552,-2.9441627469735283
21739,,-4.36218966477959,0.613808041975109,-12.09963300447952,-2.0008377111432902,-2.707290405369323,-3.98271063398321,-5.288242821958763,-4.059384254878302,-8.25997758549718,-6.59261329229257,-4.10550941455655,-16.31889789309588,5.760222577491664,-8.086131323526436
21989,,-7.769963479294367,1.459271506158911,-10.522163681071108,-1.5156602119235425,-3.621444793486248,-3.338322448953399,-5.666078264013765,-6.601076479173854,-8.830599627693074,-5.692308337717572,-5.404317748182876,-14.471465609557196,4.088091124423635,-8.960030876166385
22239,,-4.038468724832077,4.9190323739329775,-10.530362458405072,1.8050690111758876,-6.466690004814328,-3.706061451489899,-6.968779380308419,-4.421671516714464,-6.169929609602982,-4.647496500069053,-0.6912402737695421,-14.788320181841817,4.148247380448246,-4.385272201873753
22489,,-3.559152546048473,5.243853315593375,-10.65252598456137,-0.0851193022370018,-5.904846805303322,-5.809960655666364,-7.410141728348752,-4.304825190598647,-7.887166993554758,-4.67913247364922,-0.2729723911322648,-10.717769444582448,5.638909891910169,-4.6294768940073725
22739,,-6.67544744455098,0.5591937037858962,-8.841566023453476,4.043056047024372,-2.34384760793945,-5.487747399980733,-6.395290330738509,-3.158075567323269,-2.451569878666923,0.3050594144148542,0.9397805399120462,-8.804299117197822,1.9754658937360612,-7.570708216357163
22989,,-10.23316317318982,3.880765594571948,-10.058694737813097,3.498497496590508,-3.956066923448186,-7.96224679042332,-4.1030353248482925,-4.501634893124696,-1.824155809700686,-0.3333523799953538,0.6974010949250404,-11.57636300625164,-0.6318080476971581,-10.082426190831626
23239,,-9.289132112118509,2.491540862337851,-13.05817717494753,-4.207614119929267,-5.284303674572235,-10.03150694180652,-4.404621880169839,-9.142647366343136,-4.47844338304212,-5.716365264444897,-1.832802050340978,-7.302473279746664,0.9027573813245644,-6.592121325536939
23488,,-4.755176669892034,1.2250164146825204,-6.974350914738658,-6.858364115013136,-1.8553611982166345,-5.337660817930749,-1.637724001357067,-6.192890128640115,-7.872001237737674,-8.844056285930087,0.1745652224041725,-4.011668811422783,-0.3712486865865869,-6.528208613453799
23738,,-5.197183875326161,0.6965777095451932,-6.400358275870235,-5.917906834552754,-1.9733652959834085,-3.8061275430026416,-1.226587186080755,-4.196707893260911,-8.644307751839296,-7.125760562753869,1.2955970298378996,-5.511770677279131,-1.836224072405128,-9.723974148753936
23988,,-5.19159809556796,3.779338609334847,-6.313200580273116,-3.08348983591302,-2.4401708110744877,-2.9839089657073803,-2.8230392982376125,-3.527916078651052,-6.914963169931248,-3.5603542728015998,1.8159768828292,-10.400529987533316,1.0807589303633274,-7.802137213787223
24238,,-4.5814316177597805,3.025308458683491,-6.441554834098087,-4.814130093206339,-5.043422802420351,-7.163644566282827,-4.802956036927572,-6.490701732924458,-7.460968153089835,-5.341007016911881,-0.0915881724318096,-15.411156419963062,0.9654815529182106,-9.022809223681277
24488,,-3.2735577277282117,3.134117915949282,-12.155417208857967,2.633602142639533,-8.183509795691394,-7.496056291408699,-4.658368757040572,-11.729586957914211,-6.105414961849158,-6.613355129122239,-4.358702393160904,-10.429165023791068,6.119126585323469,-2.743280541823927
24738,,-0.7196653497216899,6.866126284540809,-7.895711047190889,7.867803270821058,-8.218065117946832,-5.117136847539547,-7.834670482652831,-7.601121466124127,-6.556587086566795,-6.522557853094833,-2.730535273246233,-9.732362751596856,7.295838047592906,-1.385985317439033
24988,,-1.0724234051785215,5.330190403919771,-6.555590614655367,4.095169933035455,-6.145441294138465,-5.241520759655916,-2.913875373319023,-7.289588014369722,-9.764159993959392,-10.17451201657536,-0.7883924268746763,-13.294161081845656,4.912415748612872,-5.989663937522628
25238,,-4.589345106637719,4.856375214057048,-7.374297530058059,0.8978243684726175,-4.143809507673609,-4.639523301750471,-2.26374028265646,-4.623620723562556,-3.950445133359985,-10.294303619758178,-1.453368892154013,-13.487030609151098,-5.076235013081733,-8.941087942320522
25487,,-3.5764857957571023,8.581697482486229,-6.630506115700521,4.256466317129385,-0.1305188606187564,-5.092199865128803,-5.59760600977632,-0.6128765934249932,-0.4995307076059024,-0.9857945968956492,1.866638976711417,-13.18755885967551,2.440473110329494,-5.87687684618241
25737,,-6.030241645147512,8.322147412520557,-8.11973598884748,2.0351820685373525,-0.1686911645000817,-2.4959913210781104,-6.5297595362971785,-3.1919657553097136,-3.077448040160035,-2.1241756185429206,1.4229006191610267,-14.878731175480809,5.968517579879861,-7.714487985774541
25987,,-4.627786177984356,2.714922154906437,-7.1620221632555,1.686735427607112,-4.96326956023961,-2.034574032027389,-4.539885348060726,-7.532736200284549,-9.295918511700211,-11.008257767273015,-0.2912292398460909,-13.723023371916964,4.82762973489279,-3.758040339174084
26237,,-2.917072463727508,1.166868548269175,-8.628017129970107,1.205523055750194,-5.487785807693078,-3.8201913736077215,-5.901830558120452,-2.4431960433532987,-6.777979429335978,-9.23165311498799,-0.7797985327007312,-13.73659794065562,5.706522961668206,-2.9994599489434286
26487,,-0.2636210569845694,5.365251417021062,-11.497654497059187,4.217133968715218,-3.0180088534108367,-2.3324341477856088,-5.262273273962219,-2.3448853233039646,-1.998311298859404,-2.9388090602186745,0.0875177327033466,-7.64789402673305,4.516307695249398,0.2371252654374707
26737,,0.229298728790689,3.204393693454888,-11.315542626394722,-0.1452514205961441,-1.7907113103355203,0.1894855232665699,-5.505384638419891,-2.725435372512077,-2.9437884145384223,-4.331746390029809,-1.1795533873889847,-4.222460269246328,3.286082239535965,0.2274764681305305
26987,,-4.795538514858462,-3.069355546775965,-6.703393922789229,-3.7446364494127975,-3.3777286355095235,-3.791135285928541,-8.216956737799578,-5.029364595553163,-6.308061960334896,-8.386413542033932,-0.486959230980219,-8.99831615220516,2.520201758074168,-3.8574704348329214
27237,,-4.487782616622102,-4.585227025395207,-5.235576784521364,-3.039110833123254,-7.920281491440322,-5.103621541948184,-5.83663589916752,-4.957945405740247,-7.352922079764209,-5.274425561072462,-1.1350191699874923,-13.236106489274803,-0.7183424813298469,-4.145915570007834
27486,,-2.018872595083075,-3.141786095707841,-6.979302175025057,-1.066773476701318,-5.896832503847921,-1.849622429656648,-4.186939364038576,-3.112709851562492,-9.088881484981064,-6.874735834970865,-5.173211720901916,-9.267958117856294,1.3542290701563562,-1.5082243080504951
27736,,-2.4711315096578548,-2.680283331024706,-9.567701604943444,-0.870728214821025,-1.2886324474558133,0.8696445768121114,-7.365502545584462,-4.547589421071195,-9.193874390613512,-5.324075529344212,-6.521129529595759,-8.204781546512915,4.635044446673891,-6.013436230996657
27986,,-5.942664294518353,4.936843340300646,-12.226577630494717,-3.893305701608859,-1.1627189419885997,-2.297249853736965,-11.165731213435247,-5.9823268901148605,-7.831843730878511,-5.035688300073998,-6.791089733842997,-9.955528658302397,2.4898694818270286,-13.223937779973978
28236,,-5.9145336535158,5.683953019710092,-10.723329102013851,-10.42223591615417,-4.523885839652514,-4.120724657416325,-10.687725726775302,-4.623517397341978,-7.357504608285167,-8.558102466334816,-3.183784168806543,-11.491328676629715,-0.8509471293557975,-8.630176314583979
28486,,-6.596955268079727,0.1970120873805609,-13.395539013793394,-9.32463921887406,-8.252121489043287,-6.516158936920197,-7.553438573235816,-7.475105680726937,-10.70760947654129,-7.907432381112666,-0.1732201908489236,-12.665494664625308,-2.590030859823782,-7.208472524451908
28736,,-4.323594479704007,-1.8870459426262205,-13.328014504158904,-6.061966218555769,-4.357333066812341,-8.322635375962928,-6.890735110229004,-4.700182572901356,-9.521557597790007,-7.787185645093242,-3.84157784659932,-15.422584067891268,-1.991720943831209,-7.064930414933897
28986,,-6.434244344006126,1.597873886055704,-10.368054290693006,-4.238647264475841,-3.6186717528976855,-10.388445887772033,-7.198167816684186,-5.089720376701026,-7.382468347261217,-4.267659269446449,-5.108727834128921,-7.455276398311019,-0.0997204551628923,-4.899362438990411
29236,,-6.31810448743519,-1.6837298968423655,-10.867426082511152,-0.0964587658842836,-3.9449976903021255,-5.900563904676922,-9.631872780398725,-3.98382742491557,-4.2669954236267085,-4.207625956401508,-4.134944746672191,-9.102812620435612,-2.0142946519073703,-5.18995431750839
29485,,-4.844584486984637,-4.150293363813331,-7.942999406517467,1.3474313937532154,-5.000687478792853,-6.390049527207678,-6.147089521577533,-0.97068123949597,-1.8889988276263876,-3.981109248511692,-2.4719885458988937,-13.685565653030991,0.1109475295756806,-8.612822860573656
29735,,-4.630037812245663,3.8848675696167527,-8.112687071063837,0.9623130160566764,-2.19936563725561,-5.940946527058168,-6.315183776581065,-5.024072275113294,-0.0325071514875945,-4.471496012032235,-2.6282258492988846,-14.275830538647234,-0.3205200267622809,-7.404633138721048
29985,,-7.8187818671848515,4.904620755088228,-9.866583686718398,-1.826128497160497,-2.6793985731190286,-2.804137219061592,-8.691974225826192,-8.326964147125741,-1.7091644664464565,-3.841199310952424,-2.6765475451109384,-10.564228223608348,-3.1002419999843096,-7.565107787427213
30235,,-8.324032139525842,0.898684373280396,-12.799175041471688,-3.886361579038568,-5.334256576969562,-2.3940733706558435,-6.224644256593988,-6.9264942647993335,-5.963289224090107,-3.02870838678788,-1.6809986781317074,-11.69054114240232,-2.5481351720441388,-8.887941482792586
30485,,-7.853123162316344,2.8940548731073843,-7.699569058663903,-7.901147049888201,-4.826608178775427,-5.930287518476968,-7.465644321693449,-4.041133328750525,-9.88107689051803,-2.3197989499302945,-4.851683603269924,-9.693832072583769,-0.250530769056151,-13.121664682747078
30735,,-12.947540358169878,3.51657957169596,3.253260730918605,-7.1945494977117965,-4.12868205065387,-5.395309610321849,-4.782182202685322,-4.1612451030351725,-6.742076403230483,-1.9211526542565207,-2.771061573645051,1.669621754920949,1.30104210435479,-9.381733636415278
30985,,-7.857378246397112,0.9849048952323164,2.1175259683794465,-0.4866902240883167,-4.0904003991664615,-2.7912950715205014,-3.108432672283369,-5.890791044669491,-7.479099777520874,-3.638238802327735,-4.718652444419066,1.2534894836445631,-1.1221732881848026,-6.962064063355392
31235,,-3.3468732931032807,-1.4476750778890963,2.50752463249227,2.592501820937927,-4.922790881986147,-2.2604737808496416,-5.706598842553472,-4.761301096218188,-8.220672204426089,-5.49840906197441,-5.045052288790379,0.1095312192281978,-0.9019711167987766,-7.145086907041217
31484,,-4.8880142108262215,-2.435972316034695,-1.2586218005642424,-2.113015037517972,-4.080586777715174,-5.014024387911884,-4.2300587157527065,-8.310739468520627,-6.587959485239669,-7.78221352352187,-4.86689596352438,-2.305899843977244,4.574543190797801,-6.691482897257327
31734,,-6.139831504448318,0.247426178421815,-7.699303105070944,-2.0244091173784167,-3.4355072360404715,-5.450928035413831,-5.79854620670517,-8.267413600745149,-8.877938828489988,-4.662552703970732,-0.6009958612697518,-6.819180262880752,6.391467264347047,-7.668582120605924
31984,,-5.934596266292854,2.4992233416692686,-9.279358590475626,-0.3801312861893962,-4.1683828715873625,-4.336221057481487,-9.22863836844684,-4.870650109908167,-6.047495607278682,-2.362768791190419,1.4748032080292397,-12.006403824200774,3.736658454160919,-5.235507495382732
32234,,-4.974781040110038,1.5795756339868778,-6.154283219327556,-0.7588488332871712,-1.647833564873589,-2.2651573198586696,-7.724312294067142,-5.630058836563246,-5.223936883905474,-0.9647550257506584,-2.2455554830056723,-14.923568473396454,5.668036081465724,-5.0883887723365
32484,,-1.8697491274835445,0.5470858427999893,-7.837295133636841,0.5464307826970122,-0.3792236804184068,-6.091129915982311,-5.60379621574044,-3.68867092242382,-3.5237979501467933,-0.7073948799608363,-2.369795982385144,-13.070330147506317,6.824507610359463,-5.79765314924785
32734,,-4.188421582144386,0.9014686198603028,-6.659731446155144,0.8124957517359648,-1.11827674938739,-4.195757772136993,-5.331899776233909,-2.494213746541512,-1.195567168720174,-1.7297087147346992,1.279985745447998,-11.945461662456957,3.747319854274078,-6.997695211592322
32984,,-5.493938470294922,4.995414812219297,-4.872672790929214,-1.03972135651699,-1.54677002491661,-6.423342154216832,-9.427033011379226,-4.310614193747938,-4.080116425523908,-2.1630214005223807,2.797053119313187,-11.421641006046436,1.7110921622706643,-7.815846160335369
33234,,-6.112410622004468,3.898056334273961,-4.363327669032614,-1.0435359559040438,-3.7487009328938754,-5.388299032310351,-6.866967558881225,-5.416590684417418,-3.41625814141836,-0.9224590797922148,1.5955888142532282,-8.166259570906986,2.451937053490264,-5.873388387500539
33483,,-7.772671575076371,0.7660709360996769,-7.233484725884272,-0.968726151987634,-9.347804916701245,-6.047897441716776,-3.851538584837793,-5.499798995407257,-1.185975081574305,-3.358223841190365,-4.643240976619477,-9.786612319958811,-3.164913623148022,-8.251114090445915
33733,,-10.341267057139206,2.5198780305304065,-7.495942658821333,-4.572574653040146,-10.908731108060746,-7.498371862227665,-5.395365573183223,-3.6458485223937616,-1.5888365308834316,-4.010336902013798,-3.915133338029494,-7.6125226014825875,-3.3368019653567598,-6.583738734228032
33983,,-9.774102101247074,0.8352364570725221,-8.964792924251148,-5.644301602570572,-10.602893128027343,-7.983381626198581,-9.202016598366257,-6.756112391108293,-6.149547450030727,-7.331969018414696,-3.7633938508270512,-10.05750866925906,-0.9736063603700976,-6.813194476622455
34233,,-6.113561501455265,3.046300343900692,-14.216909594704166,-3.983579404120156,-6.010923980418524,-9.121409812789668,-13.783578705419426,-7.700746040878286,-5.87342533320494,-7.033782992795103,-6.308979013664691,-12.057823990027794,3.020704602564753,-7.341190986311105
34483,,-1.836419856661834,7.37735595260975,-15.653835394354264,-0.724280305715081,-6.366858745137202,-3.394472337898416,-3.495322829928917,-7.335354179413899,-6.547848925753362,-8.761625524356234,-3.686498725150275,-7.698257480467268,5.928594769839703,-3.5052042569313477
34733,,2.4622692964113577,3.33170582926537,-16.876708848777017,0.092360008929643,-6.056965530101186,1.2077203549693118,2.267768079394239,-2.6780819813412835,-3.133578751206512,-2.855612836463086,0.1559587137731636,-8.145512524881992,2.5030291068280377,-0.929152989614527
34983,,0.6291353802244103,-1.4432878192550374,-17.089539566174295,-1.5673107944059874,-7.907195730988514,-0.4008579972381648,-1.2226164084815858,-4.548012919044303,-2.8231700022041144,-0.9567539657034462,-1.0241136351959552,-10.35428061538596,3.3595822509915725,-3.755181945406554
35233,,-6.83459088235972,0.9688816717067752,-12.200445475693318,-1.3755762174590247,-5.230079800002151,-1.429098778432603,-12.650268976881948,-5.647559574542229,-8.409817277817758,-4.923970341934933,-2.927479126645146,-9.450841389299018,3.865018753446192,-7.181614594965133
35482,,-9.05256481579334,-0.1230280258170188,-7.968529700034532,-5.597415194542319,-4.701707030186013,-5.777160053351613,-13.131775559812544,-3.2680394975835085,-5.654350489544323,-5.256508734390928,-6.691919925906489,-9.22642097733573,5.757882419221582,-6.501262761437348
35732,,-10.308552324014777,-1.312234174086576,-9.076418068893163,-7.866280714388976,-7.947967178371598,-7.262190951090766,-11.646223752906335,-3.745249569738733,-3.939204633999286,-3.8637578081293302,-3.6766326563410665,-10.301824349619322,5.068582465682195,-9.137244522613589
35982,,-9.314641344491282,-1.2766955808346632,-7.600033533984572,-6.940022720200911,-6.651359444644581,-6.391990783729431,-8.30960220235455,-8.648291501212304,-5.689231353775347,-9.303178040780669,-2.904181228837221,-8.357463508011575,-1.2831815548459051,-7.945839348615853
36232,,-9.56431371046045,-0.5123831602327079,-11.38672252779969,-5.643321366347744,-3.653945349401992,-6.862263954260839,-7.131983336551251,-7.190190937734594,-11.032403400384618,-6.255055652361503,-5.241099817451877,-8.54260484471483,-2.375791011287216,-8.844842900554138
36482,,-8.41845155485213,0.2788172400820904,-14.160405755588291,-7.372426545475788,-5.207474671501887,-7.0809245793226285,-6.977337813571884,-7.180826206355631,-9.04174087914706,-2.889175047366609,-6.754579307030474,-6.578817751854658,-1.2179306282926765,-5.512886512659038
36732,,-8.423390995101702,-4.88211298013205,-10.08218879689082,-8.635174844630207,-1.8644222636193977,-1.3456402076058662,-4.84859851015215,-5.486819270175807,-10.400103846225704,-4.816078582265989,-4.802652589230195,-6.817958218903097,1.3907208222956688,-3.716619033792939
36982,,-6.52967899711469,-4.842092852802199,-11.36220792851562,-5.37833154394998,-3.343165836798219,-1.6580999395392926,-5.714607591343278,-7.966886719687132,-9.645170667548925,-4.665624053131371,-7.664777982663767,-9.738974957287844,1.6499612518800888,-5.474005837367386
37232,,-6.0436701978481295,-1.540409206864337,-8.686479102616033,0.4896125102657291,-6.325463886469414,-5.082573512533922,-8.155553093641611,-5.140148054703565,-4.404553573646509,-3.28514203797212,-5.388027443366294,-13.352477122641178,-0.6244029255191988,-9.201108423475873
37481,,-6.797965504918544,-2.065845346323453,-10.777897713997946,0.1512304757225119,-8.052914830609318,-5.629220565835084,-4.01542112941799,-5.848191186279288,-5.303155327262515,-2.0625655881891958,-4.530793544396827,-11.57033391174484,3.102039359585735,-4.100076854712854
37731,,-8.409077715036497,-0.0505163900447154,-11.02018340284362,-3.464739975339838,-4.434246715472395,-5.459164253754727,-5.922941542262664,-8.657093912153407,-11.631414138572907,-4.196003822197842,-3.2296030022561606,-12.72294201658963,3.5035561549934844,-2.9482928346309816
37981,,-7.172072460622242,2.423170506659947,-10.280127779546394,-0.0192612208814624,-2.433573913671721,-3.186173080414977,-5.384551015830437,-8.134594102364016,-9.07375713247459,-3.411705170008309,1.870110516697656,-8.9934958799533,3.141383691192547,-5.210592194321717
38231,,-7.592179124481371,2.059644733651976,-11.040611588147009,-4.491253620131102,-4.058358823415023,-5.738128500901483,-8.742172257904127,-6.066850146123129,-4.822382415810854,-3.3277663369742614,-1.427559951064122,-9.618670644989171,2.9590769230249547,-6.629436720231089
38481,,-5.645296732774419,1.4210202788387751,-9.427082321900858,-3.4409372878586177,-7.295932669496565,-10.690591268354726,-8.8841140478722,-5.1311059469424345,-4.148407681265828,-5.679862069099356,-5.72752657721156,-8.94848392423458,3.668979540468241,-8.085169919323121
38731,,-5.749129206436114,0.0071341021855748,-8.491467789812354,-5.755092000029954,-11.675427029487912,-11.610707805806996,-5.666589614001511,-6.996248495990676,-6.251518432694324,-8.009199113636928,-3.122748849781328,-10.840160800712578,-1.770959774375175,-8.799332674442974
38981,,-4.812268143853602,-0.2496536714506109,-8.522903378489016,-7.394419665652316,-7.133613726868154,-5.927837377725021,-2.229229336334524,-6.0453271721047415,-4.708245196283647,-8.431180173467759,-2.278969010257692,-11.110190546667967,1.313539858778638,-5.372910345469178
39231,,-7.406423014655559,2.286156123886552,-7.412798934530639,-2.704857543376617,-5.08782525097878,-2.358315977171398,-3.531542574360219,-5.72619648997064,-4.441221383991718,-9.37681236983406,-2.3652800312953444,-11.857049021449006,6.433007573597608,-5.281387547651594
39480,,-6.027493622787176,2.3309593910345305,-9.114335517888396,-1.454364840671542,-5.214688081626063,-1.4225579035532938,-3.2136401747447128,-9.08225201916817,-6.246207012130651,-10.343695025247888,-2.625601698478099,-12.548003947509862,3.481222467221265,-8.711015400316878
39730,,-3.0146380660944594,1.6012643403950872,-7.2449245270022224,-5.316840334791905,-1.1722635491602305,-3.298978084704036,-4.120717872812513,-8.639008131874894,-5.702741424352822,-7.994260287231077,-4.22056378596297,-12.173383918158711,1.2880152251218284,-9.843220300809543
39980,,-4.8247859331294825,1.1027834038096465,-11.902641495220674,-8.928637314033045,-4.005319122165478,-5.09329831085484,-5.85376163884775,-7.953641454214893,-5.664176006657497,-6.285409383085042,-5.589146825496151,-13.032616270459634,2.672285501995733,-10.299468812389936
40230,,-5.463698341261855,-0.6840398135532767,-11.421721830157912,-6.244177566837218,-5.111234824292525,-4.945285666906349,-10.36743625067588,-7.450799166258872,-6.617029559705374,-3.237526947095219,-5.12376065687817,-13.343863346025028,2.5639670310242613,-9.748411909710915
40480,,-6.148195962277177,3.0816990521801624,-10.979946717912188,-2.3049897894511604,-1.2658379867004002,-5.384626069885311,-4.999034590195274,-6.435102156862772,-1.029390114345487,-0.996740766385049,-1.096884535476629,-8.076307552085144,0.394922463094438,-9.239202597338672
40730,,-3.9123731590469046,2.95800857165069,-9.090893314166047,-1.4218866925966909,-2.742908952949352,-4.881334637879044,-4.383742052299441,-6.2972488865073295,-2.2224407638306563,-1.6420360692537048,0.0437406669644307,-9.24747193839145,-0.3612901848719999,-9.8960373844275
40980,,-3.47217549479506,2.602884009198976,-10.02968563240553,-4.636098108434631,-8.613859344927947,-6.180045068440792,-2.6506051210129358,-5.287004297693541,-6.644224323614645,-6.178255596570751,1.01425152294634,-8.196896070928068,1.7889505298044197,-6.4125478636084985
41230,,-2.659270744751331,1.6886193922176127,-12.090422577294826,-8.7824730753092,-7.715226958754339,-4.3751332461124335,-4.1855159379097415,-4.161548320200869,-4.990604227317964,-14.127159584456184,-4.439621322681687,-9.705937008654857,3.4558561253251483,-8.9242302440343
41480,,-5.190104164319155,-1.198279190333364,-10.592957742872626,-14.952549885412232,-9.188872016110896,-6.019570618998223,-7.769240517871891,-6.597757273028982,-6.281933245074348,-15.739103451266368,-7.664031782017391,-12.013641094231836,-0.1032394329373985,-11.512246372781876
41729,,-6.298233525100797,-3.2227285138297908,-11.400893368376314,-9.775857170267969,-10.29300287674898,-9.775750262112853,-11.14811879648224,-7.850304699328828,-8.754534839179941,-10.900635722271108,-6.7220730277830585,-9.596040889774692,0.2975886433227031,-11.552929234466191
41979,,-9.010187976321864,-2.5438189978628047,-10.938489951172537,-6.849484170555314,-8.697861805079999,-11.80000700504335,-10.841350388562132,-7.126675803175253,-9.454658042579348,-12.161946758242472,-6.972429367883233,-8.027228032188502,0.8982151367366331,-11.49208939003941
42229,,-11.08216635220166,-0.6831118131920978,-10.30900147215998,-6.856074647299111,-7.145664960191173,-8.967477746773326,-7.93137677124095,-9.54617670075489,-9.034415416691465,-10.462693965986157,-5.045932491181361,-9.169856775493573,-2.3857121889205306,-12.807619806003622
42479,,-11.486425984175217,-1.0995138538532898,-12.919727864033224,-7.840549542858184,-7.415135077256295,-12.485313746926153,-5.835095876204703,-8.542317897001666,-8.758664266630852,-7.1807722703558765,-4.4072600462482345,-9.702242451894394,-0.6292463706805007,-13.198105781601422
42729,,-13.145583683748116,3.0312667098055246,-13.02315012370629,-11.52988328951137,-6.471539925742005,-9.659881628513904,-5.360051066867846,-7.082878706513547,-10.54808322139939,-7.901934360274145,-6.982558502593307,-9.585386270984426,-2.2363680183821364,-13.138846304446744
42979,,-12.539928974538814,4.981764278719526,-9.765343332769907,-7.412256922911636,-9.948939808699032,-5.625981329522168,-8.107130029487802,-9.0996081825948,-7.760517232281032,-7.130560229798373,-4.638306184976367,-9.187102037473265,-3.896691315689413,-4.933021078287755
43229,,-10.137437984276014,4.612484758499416,-10.071204950457268,-1.6162688197976052,-11.112469613454454,-5.367650052791102,-6.008401859936058,-7.868680976132197,-6.801285349990871,-3.421984129240581,-0.4725595921651673,-11.570621257097564,1.280563279380065,-4.006572560335058
43479,,-6.6620409877163365,4.070012999704287,-10.390420639224097,-1.8698435648412053,-8.988810148922665,-3.1442025405881653,-3.0760396813076856,-6.996956766167512,-9.118208091665435,-4.468495389443409,-3.1299414018983613,-8.10416386045387,2.922425832372922,-9.918531415051774
43728,R,-3.869654419178829,1.4437210333988462,-7.911065683613855,-3.929805001341558,-4.814930741012026,-2.5867397558997087,-3.742792563702322,-3.490709844420381,-6.690057084938782,-4.985600328828268,-2.5601201884612994,-10.486876512321576,0.6876332646557031,-9.82363561089537
43978,,-3.043596298304758,-2.4291319998057306,-8.75954998829766,-2.617138400543229,-4.771133328291976,-3.5818662753099444,-6.205097218371104,-3.2980508155707584,-3.29511383676518,-5.410564880492106,-2.0246341791822453,-11.0312980770564,1.800739620348128,-6.360086119627959
44228,,-4.823314273237194,0.6234274459922715,-11.400087427180924,-2.194979678207744,-5.991054699063113,-2.6494032602443864,-2.293151873377786,-5.819293203274821,-5.114920698861457,-6.377343798510151,-2.2635848923942303,-8.72759127451446,2.285816590138573,-5.966762317526312
44478,,-3.174468306549117,1.4722319553586631,-12.089304241854666,-1.8414874772108305,-2.781072686294976,-4.42409282036461,-4.611075227519661,-4.878588410353069,-7.522726382771849,-7.667645409631224,0.4906923922739748,-4.922729363199766,3.8453583335409967,-5.50717343229628
44728,,-4.854049800220536,1.1046718552563046,-10.438400851076942,-2.676791699413225,-4.324513240343993,-6.012879045471679,-12.644244565098123,-5.815695443802468,-5.691926221376676,-12.114837157013168,-1.6099460080645909,-8.064979805845107,5.552216189033045,-6.813129797939395
44978,,-5.658709334591307,1.3793956137305314,-12.792297228884069,0.9140162649931108,-4.661518922895694,-6.171604598943924,-3.944077300536621,-6.5554216464494806,-3.741647676221973,-1.8877651117525915,0.1320818168045436,-7.069335093838291,1.7307778750939635,-8.769684566347436
45228,,-3.8929333087428617,5.630556808288746,-10.92568610189134,4.114613197576359,-7.844490303450876,-2.431492197029335,-2.25275020385749,-6.33300510336389,-3.3213809393440954,-0.5807271335283866,-2.672498897186908,-7.347812413180568,1.0911661164195654,-7.008268556942888
45478,,-4.205874856471773,5.521284356861987,-11.418991219218386,6.007432932249543,-5.334361785910849,-3.4113141796179374,-7.186604257239214,-7.631014751313517,-6.016388075217467,-4.4993459832065295,-6.962949287761505,-8.158348509341169,0.3425520693765549,-8.943120799319482
45727,,-0.5394255564859183,3.746835849589424,-10.621684251862042,1.491746013220626,-3.226287806941971,0.3592733901179088,-5.419398287040923,-8.996685170793347,-2.986388226677858,-3.425847788839267,-0.3448603219161039,-7.505239643519492,0.7705527830108971,-5.859689771921333
45977,,-2.356778097989233,1.015426367833205,-6.832644177318143,0.0876241072646999,-5.101951236816152,-0.7545279545084789,-5.579918185294583,-12.543940189361846,-2.9037908470402902,-7.47057991778536,-1.2922386925504872,-7.948375595620841,6.860885972924251,-5.526912209735263
46227,,-4.357221000509429,0.538966943231751,-8.586563189888121,-0.4773872485559598,-6.442566725616821,-4.5847313008942345,-3.723448814467068,-4.550805854717721,-3.706969839700888,-6.920361955929795,-2.945654943361479,-8.220410422752153,6.263905991979595,-5.559667871365026
46477,,-3.586682215967851,-2.8605051935249204,-11.959140250608955,-5.244542403570362,-5.920555096775307,-7.502884964781012,-3.931324790211951,-4.760244239101157,-4.4342121310830205,-7.937522307802238,-5.631278027292398,-12.428189563309244,4.766192368310053,-7.290758123436402
46727,,-4.132631162951161,4.742940235966977,-11.38868460638016,3.8733197178140015,-4.460156446050088,-4.365422015696878,-3.624347316893792,-4.622933835847866,-2.145038900706309,-4.655981487233261,-5.50801153913406,-13.986831579709314,4.819590082250035,-7.369520191223784
46977,,-3.860581787240757,8.280758342776767,-11.906873438750624,4.000371592328808,-4.522157570180502,-2.812629430652247,-3.893040569370283,-6.773192092035871,-2.937133514783309,-1.940736396507208,-0.0945931529947711,-9.501448427865055,6.248458838083145,-6.549013951821221
47227,,-4.30700626848647,8.01862789194285,-10.544740440187908,0.5163457846780796,-2.962391224599417,-7.02984232104521,-7.136987910547838,-7.96753052353845,-3.1320498168079123,-2.998044050793596,0.2225960071680005,-7.078277135511937,5.744110759037973,-8.893401875050474
47477,,-6.612938456024876,6.385092134512384,-9.57866438233022,-0.1816510091461784,-2.0125207230491844,-6.1092067621050825,-4.183672179989985,-6.684253376457233,-3.724055517230575,-5.080064875064144,-1.1733335504722249,-10.85788265950301,1.7152766988704429,-12.253567409206712
47726,,-5.750963307899762,7.671814279200177,-6.798242736782618,1.1027744039102894,-0.3248386191062209,-3.368757354468236,-2.972901538651938,-5.250943043776813,-4.119863285413439,-4.174600721566603,0.5204866634041189,-10.937917295253037,3.0905646788572843,-4.933058380017117
47976,,-8.088007368860433,9.246039111215527,-6.492231608392929,2.600696341226313,-2.5144058465800145,-4.964585620072456,-3.4367256455107995,-7.540918847371673,-8.47370616690432,-7.214926325379091,1.1505567133736254,-9.159289187877365,2.407023975390608,-3.689720963595105
48226,,-9.489562515212018,5.1297270923307225,-6.332922415690351,-1.24724399322889,-4.450145631546381,-5.83215742520193,-3.1319928302851743,-10.854788288147317,-8.902824699618638,-3.7069658274534234,-1.2009550008651693,-8.818492862429926,4.845198525146387,-3.797067035815884
48476,,-6.687740061155386,2.796663225923577,-6.353763582595545,-1.4781079395275507,-4.151188650656909,-7.209261040738739,-4.9724459848782825,-10.91400215151513,-6.751468952186126,-1.924803300274128,-4.388992876386474,-6.774519627962342,3.491720963763816,-4.228197781046077
48726,,-7.515106080371976,3.5997969438784083,-7.776255358844598,-2.574272208535233,-9.375015180905274,-6.146022033765597,-3.078186343491347,-11.593875859522624,-7.452121153088695,-3.6585645273212712,-3.4284020828474526,-8.075019877251432,3.6947024431756095,-9.47784176110785
48976,,-1.4557144618508162,6.116180940322511,-13.821818640373946,-1.996263879036317,-7.944044685723755,-1.8795930973210104,-2.067780305763897,-7.952504035890332,-10.406747696140584,-4.387328552947867,0.1657182342640019,-9.044340497571325,2.046547076253305,-2.982334705103714
49226,,2.877446593683999,5.611479292365739,-11.439212290476464,-0.6225424126937722,-5.468121393257725,-3.535344342098786,-4.823279343731553,-1.4364583275147382,-4.7668160030308,-2.814811726956903,-0.3260563271385148,-9.549977676978257,5.421789051833521,-0.1200199257013406
49476,,-0.6701219852835922,2.9429431992765416,-8.803109818125808,-0.2693781314237413,-3.493266781074236,-5.000838857937691,-2.670919132048512,-1.2739247763062496,-4.060885120465152,-6.546908531275727,0.5688075226186953,-5.006634051772089,6.869255909828773,-2.5419169966958988
49725,,-3.672709756046392,-0.2260386422920784,-8.416545715765999,-1.7099695827855574,-5.660422468850236,-5.541588022648191,-0.7698613764066522,-8.538336739567757,-7.476384500578856,-12.208736633245856,-2.532482130848333,-7.387487777033938,-1.3764980846717396,-7.437422430887369
49975,,-2.6033808852070783,1.015806801166513,-7.379260282336806,-5.592334179201441,-9.606524840884564,-4.025999385772446,-2.8091872759048693,-6.263864889108889,-5.831272543845908,-4.289174952848793,2.563737764309782,-9.884624119238246,4.151192707356525,-6.212206792657589
50225,,-0.1393276872461932,1.6202717760029062,-10.137642212140108,-9.9025126063846,-9.66542577227618,-3.484026641964116,-4.424303461577956,-6.548102298711994,-5.659363921719301,-0.2217441561877988,-0.0643765735522346,-8.604695115544432,7.999156332626328,-4.117615820411056
50475,,-3.6153670429090496,-2.0004422246557363,-13.513453116816878,-7.0461672906308745,-8.877764379598926,-7.300317956370661,-6.334190271734449,-8.115240392543862,-7.818000794978156,-3.1953842424786254,-2.190062022568123,-13.453836099159812,7.569110184561579,-8.824709963340661
50725,,-8.37252922947553,-4.941516446872263,-11.736897214481752,-5.982484022705248,-9.623956621280676,-6.368930896202446,-6.537834042281453,-7.565543362659763,-12.120600636173917,-8.769699248325853,-6.562845242724192,-11.931004009488776,5.137047610455912,-11.975316783132373
50975,,-7.33440039532972,-4.0468891182683695,-7.569516820586366,-4.88522601013415,-10.02727750556124,-6.103732367317347,-8.331422815684448,-4.509018243981975,-8.374813398288804,-9.545435392496415,-3.7140835371214056,-11.331770208063752,3.208052918774837,-5.722958862737283
51225,,-5.514903341722945,3.060798436685908,-4.485090757075817,-3.953955480148776,-8.97125235002182,-10.37379604574513,-7.6448814405868015,-6.647874642618802,-4.157815053023917,-2.718965205648568,-4.360373124511757,-13.228397995970248,-1.8139063632765235,-5.488226878185529
51475,,-3.922859284275695,5.7973235237150025,-8.092359499681436,-2.986062809686578,-5.408083713155312,-6.204529449220418,-3.5197319251570613,-8.017961522680942,-5.621439720243672,-3.0259220889698693,-6.374670429457522,-10.72954222773635,-0.8967495077589062,-10.150845026939296
51724,,-6.84518666096074,4.12805907011922,-13.233965435469203,-5.408258135012957,-3.6139587864495737,-3.205630692218894,-3.723888323258468,-6.768288341900206,-8.629064544776936,-4.692437174348357,-5.301383582271648,-10.739778988947648,1.8788003914071016,-7.631020581576976
51974,,-11.300944765795617,2.7814493384106065,-11.202048072588171,-6.198162705431692,-7.104493550598484,-7.778335403257534,-7.6011884484407055,-6.349224605479478,-8.241953930977349,-10.750798317526511,-8.517154583212239,-12.759780905308029,-0.1012133297195029,-7.078079538386138
52224,,-9.99505387928643,3.031581431270326,-10.882228042109553,-2.089245344581434,-6.14430858170322,-5.165857096707775,-7.835076174338584,-7.8721217844069,-6.700460590681603,-6.900081088039762,-10.260829530110575,-16.129710342053677,0.0743334558596419,-6.626232180390766
52474,,-5.414754666290799,3.9976070500753167,-14.598142957098847,-5.103255110440642,-8.299693991373488,-3.7232924786034776,-6.678016724287895,-6.8555026171232605,-6.914818147244071,-4.584802524703274,-8.200014762395938,-12.454817664395769,-1.7458487553999211,-9.738568851353415
52724,,-7.523643762002415,5.47910066482984,-9.84862968465414,-7.392118085328912,-6.945484556925241,-5.079749201415316,-4.395277446843485,-6.720380530665039,-4.856287755292575,-6.13831990428134,-6.242087786359446,-11.943734133425396,-1.6592444771106405,-13.186044718568454
52974,,-7.01051427749359,1.2844011190961846,-8.804895005531371,-3.811893447276668,-2.818645752657962,-5.54789143213419,-5.879209464813537,-5.418441528862752,-2.2148720624292366,-4.157396745096848,-5.998194244679183,-8.405815451129271,3.684502026232494,-9.108094292546852
53224,,-7.855713580513694,0.848053351230858,-11.194180207033998,-4.8830164777810365,-5.606697881480127,-5.591333163384906,-3.508535464634845,-4.904190955828399,-3.07495358425807,-7.4356762313607,-8.018149949238875,-7.469661908381645,2.2404140086446853,-8.226014023310665
53474,,-7.438693048877585,2.895268627433685,-9.33258739381931,-3.711577931582197,-6.88768257565298,-5.197093715039147,-4.520966393249929,-9.180736503143892,-5.128460305048057,-9.39507611652703,-4.271337043407747,-6.360508186985044,4.2243846998713295,-7.657659735663333
53723,,-4.400491248333203,1.2493499881531545,-9.29264205079676,-4.450533027860553,-2.919675077038348,-4.417559044781281,-6.909063892613223,-4.626916974360396,-8.162081667900477,-9.305481431049463,-3.767784213206308,-7.758042388784549,4.112226341637437,-7.283833037966016
53973,,-0.2665720866222839,6.594607099124349,-12.684752984959836,-2.5713621343015096,0.0658555511314728,-2.5633796552244674,-2.3701714551860773,-2.2617611391779486,-8.053010678271997,-6.344712650924896,1.0959791106734498,-7.512170076286462,-0.8799920069928915,-0.2871181774731105
54223,,1.91338270514986,7.983688628815861,-3.650543123754207,0.6990844419870318,-2.306222483282765,-3.558107705157033,-3.373957526091496,-4.054041518108605,-8.581757877361198,-8.966761323198986,2.1070168558122986,-3.093503461845834,-1.1716414964945323,2.232183553259098
54473,,-0.3326648370346456,3.3290405349356096,-3.4998365800311246,-0.7657205949702833,-6.260027668917248,-8.653671069405396,-9.288092781450851,-7.520643339955034,-8.679623677884582,-11.741373288732593,-3.1180777452859214,-3.0553467854224974,0.1255091761897246,-0.1012362250867133
54723,,0.0463383026152797,3.959531108086336,-7.160468449166356,1.24907057892627,-6.325469960384943,-8.734141436835415,-11.042909849527344,-6.17387707672921,-4.824291653155106,-11.674584823274778,-4.403709415888347,-6.371028939966884,1.664188233551192,-3.529470348174732
54973,,0.0419443419979911,2.398715110632425,-5.119695998770258,0.2005808080363213,-5.50228361533355,-6.935187794362106,-11.529418881514085,-7.245371094396292,-4.932644348158695,-13.130673455740798,-4.945234424797312,-6.488887998749671,2.668939137684224,-3.749136409907549
55223,,-1.119557810648424,3.296666821033771,-6.174019577031965,0.2524768198292679,-3.891798016417095,-8.704273885670643,-5.132851733823685,-7.386476280929605,-6.293833174311061,-5.41333094367824,-2.109246795002881,-9.946932815442771,4.134423494416486,-5.012055026268798
55473,,-1.818163762209017,2.189810140434974,-7.187698758268293,-1.4518166456580288,-1.2889865411202672,-0.8492100906656017,-3.3352229725751235,-12.150676353519492,-7.626772465296348,-5.20922889037549,-0.8872426290009666,-9.0586544169976,3.4719484093915653,-4.0524231346155375
55722,,-4.304563732275014,-1.2574009660433645,-6.3297038003378026,-0.2963889520339362,-3.4526849321858184,-1.1334121058045925,-6.667290697119464,-9.74836816194039,-9.170004893759168,-5.697431168348304,-3.6242255510140833,-11.533435617384797,5.258242403456423,-5.813737288673691
55972,,-3.517382564141578,-3.888109633165194,-9.88019223405843,-0.3705558841617594,-6.668011656870076,-10.350206207678028,-12.327073806838682,-5.760043871979765,-7.248612395401397,-3.950863624190456,-4.060908275951457,-11.576444637971438,3.193416083076931,-7.928483605094597
56222,,-1.5815654577285765,-1.6751176330427966,-8.563249251671314,-0.1831918426549567,-7.627163783567533,-10.832251980294815,-9.71335739395027,-3.901223981906034,-3.4130628882938296,-2.815345819874264,-2.796141789055644,-10.62445629419858,2.7790958037708307,-8.342820771597278
56472,,1.3012916494115498,1.272478925934177,-6.447958912801674,-1.2288825904659892,-7.29738433553424,-5.479817491182885,-7.203907535346636,-2.2822690778573027,-6.0835573246320855,-5.951096658536298,-8.227445091175827,-7.591511404398245,1.841022424383958,-5.368496610760802
56722,,-0.0422198522386072,0.5690541410256638,-8.399718638753422,-4.872246646330719,-4.002690731517372,-4.358123661322394,-8.78266735662714,-5.853467236380597,-13.959717072913346,-8.533302165784704,-6.824000812215485,-9.407889191082132,2.4127706154146598,-3.565554950737393
56972,,-5.638539047868328,-2.5277723167692883,-12.00307039409206,-10.393562279795429,-3.0263827215939605,-6.1524260427050095,-14.136334218285452,-13.047038924940482,-12.537638425791569,-9.25722699793676,-6.426986888035165,-10.545866034331764,2.2834937621799227,-5.734782599554713
57222,,-8.049719867777533,-2.5759672822850312,-12.472498178153328,-8.643220946782057,-5.799666924827357,-3.792524133688388,-10.290818046363515,-12.034335157438589,-9.934400426720416,-6.718751040398377,-3.094307973199081,-8.045713822977124,2.933346231584653,-4.856999105077151
57472,,-4.439895001890906,0.5849985497383319,-7.676348889994258,-5.791597420817621,-0.6860603093289737,-3.044386641943238,-10.834230817560025,-8.08611819554639,-4.920218342659192,-5.161216297136994,0.145258199074413,-8.388117860073644,4.148130171243065,-6.249827106233559
57721,,-2.562529144249571,4.825974973748057,-5.228629442846002,-3.50283262191534,1.702210726367034,-2.35073758860462,-10.504469414957445,-2.576386395768702,-1.4086272276086045,-2.407451849553154,-0.5605831825560671,-7.38808815510076,5.324274986647258,-3.127652049831028
57971,,-3.959446426405097,3.8407396243402223,-10.510775674069285,-3.4562572038819,-1.527140112507003,-4.6225772634744136,-7.361852889893644,-2.7067943998863115,-2.3915394157108154,-3.5369853612050166,-2.031482529469536,-9.272733164107173,5.835216338699505,-3.0321629206554546
58221,,-8.12670808428223,2.2921716713798705,-15.05336933392742,-1.2756677931151543,-2.9126698374547755,-2.445801212204463,-7.192495000692728,-6.348696945390422,-0.7378185778207146,-7.284625094225243,-0.5710761852203375,-15.395487362624884,3.611166128409629,-4.39844216244064
58471,,-3.4772430034304858,0.717543432606096,-6.966403125253331,-0.4993369503553252,-5.7739607316267545,-2.500789591700714,-6.555492453842589,-6.1551862623293605,-2.492571798659213,-6.539965469729187,-0.3752211384514755,-15.69571585231731,1.1663548994171449,-6.352773907659439
58721,,-2.024754967471166,-0.1167898103142254,-6.010535427251354,-1.5818601666144072,-4.982011392352115,-3.244066886350383,-3.5904274633505167,-6.77798184944705,-8.585808335390224,-8.328465436141412,-2.954303381049873,-10.12073416313765,1.6132634154776282,-5.637913589128818
58971,,-3.973992980121563,1.8585765279959312,-9.216836134342149,-1.880696297285707,-4.351645717519534,-3.091637394710545,-3.547260752017827,-8.390252946421061,-9.24561120664079,-4.114722164411666,-1.301516831085224,-11.730796234497156,-1.613351656438904,-2.144930026427232
59221,,-5.456816514948533,5.136878741140256,-8.674468229715043,-2.277777517758944,-4.697441672319646,-3.964041916806132,-7.8828995952942815,-5.686061640199664,-6.054733627095331,-2.156342125756592,-1.60028416578089,-14.57729370263418,2.2148730521241,-4.118244699844102
59471,,-6.264637460239056,4.315183889412225,-5.061040488485008,-3.218203228537213,-6.255812780690652,-10.391744733962252,-8.25561025928732,-4.476956554377649,-8.031817768012598,-6.110093745341643,-2.807813563741691,-12.6106091724262,3.64570158365546,-11.313500650436197
59720,,-6.731931313583991,3.895310361208432,-6.253706977879864,-1.6882052156390228,-5.036649332709951,-9.243247375466275,-6.500759723758334,-3.644201849470868,-11.031814202655156,-10.429075708325865,-2.5443295135782544,-12.138131025245931,-2.2849912588652592,-10.50244849792028
59970,,-7.577646241844935,0.3164882354804735,-10.606437389768203,-3.6032695790407407,-7.273838467890073,-3.929301096065148,-4.046640002820723,-6.509800316089235,-10.905040616156292,-8.776708418333193,-2.0046049144695264,-8.429759609240005,1.919253274114776,-10.470657195729263
60220,,-13.098456804793605,-6.338231749271341,-9.606749025314668,-5.854658799349916,-9.302508728118816,-7.424838838433394,-5.620115865306994,-8.55826627066543,-9.790713555955698,-7.541979921513211,-6.454880572650817,-10.3964107110231,2.56684685489497,-10.164558878539442
60470,,-2.956996306482246,0.4505279090585728,-8.769505588553475,-2.984761342794221,-6.188296103536469,-6.070928264237185,-7.580057159709331,-8.388548683026789,-3.7539510620928978,-4.211814781763305,-4.49886857899338,-11.00525187828496,-2.3207089391126363,-5.995830708086948
60720,,0.078633073352203,5.7407449803260935,-8.6045582268355,-2.726031597535013,-5.104732647568662,-6.247957181145333,-3.468277101949415,-5.184524113537727,-2.591409892212591,-4.020984484705526,-1.3881529873720693,-11.88338461328626,-4.0220521341915845,-7.583144502028684
60970,,-4.623703682246301,4.045729960794974,-8.627183364063054,-1.8153957253776083,-6.618933816572996,-5.311064326605774,-2.7919073081995025,-3.311359667638436,-8.302786396278846,-6.0170367764662736,-1.061077206614166,-11.576969862692156,0.3612849379194577,-7.263288317473985
61220,,-8.726777459006192,5.367674621986085,-6.659175156983991,-1.7973329811282202,-6.354141924726705,-6.082415143674854,-8.701510104439343,-3.940850657322693,-7.339205071751431,-8.449781351110886,-0.732047202997778,-11.26389398636663,-0.4513610773493597,-5.627260987175292
61470,,-6.58878304480093,4.425035042664602,-8.999942072245593,-6.0697228364219225,-5.4127246294458695,-8.501855365488092,-12.32435577854869,-7.396104622763671,-6.274363029176918,-8.739138484365116,-4.701580575791661,-7.888678530957705,1.5482905071169897,-6.470269771286235
61720,,-0.9821615693145684,-1.9272708226547923,-9.570018521210836,-2.397182670875816,-8.395307641807403,-5.808730837413062,-6.546084071478287,-10.107534710964964,-5.523814395383613,-7.393537020972834,-9.325962587003776,-6.634866603618676,3.579609391470893,-7.262652153279069
61969,,-3.14799398694213,-1.9884253490037984,-10.643394073549617,-1.0964103864092989,-8.268601925208893,-4.104257020412686,-7.246976172702539,-10.820999931162287,-7.01662218778579,-6.523272685260483,-5.448745867127388,-8.514115650699248,2.292906562629191,-7.544431578569533
62219,,-9.645335921193931,0.5361270671774843,-13.888240374344898,-1.771686294169382,-4.240638832445633,-2.6388239983791424,-6.781547663085467,-5.842660678517184,-8.637799190451142,-1.6644647060798787,-3.88448803274764,-11.761923147857026,4.970961546065411,-4.629423135484635
62469,,-5.9171585194377565,2.224846732108112,-15.190622240476907,-2.756244496363691,-3.73559107555272,-2.412565043176708,-4.769481969003096,-5.898428978142284,-9.382031583057849,-3.0306599211837346,-4.603028943601788,-17.86805505297613,0.4447176199364121,-3.2312467561312026
62719,,-5.944737785539439,2.481028526032902,-12.48407752044654,-7.166794408366649,-7.158010446450179,-4.840232305757103,-2.940281836930562,-6.800511156116732,-6.866276375204249,-6.524797907234379,-5.4166723949026485,-14.024093982576993,0.8201758418828099,-3.9743565524445046
62969,,-6.431978755462619,1.4914902372139196,-7.857738305799639,-5.229059875282175,-12.49738794198806,-7.42722238424557,-3.97852982838518,-9.844674271081534,-5.597812407288624,-5.03841679992978,-8.172893048728493,-10.265403209252716,0.8737716497821122,-3.627820596603218
63219,,-4.6886067410410135,3.800590473802962,-8.670768372428997,-3.0597280804532296,-13.013446625400316,-7.225848422614066,-3.3571320092292867,-11.733462405137988,-7.6254546872044,-4.217881260933567,-2.8008750872270314,-8.73223923285314,0.5271724204116477,-4.225240594339981
63469,,-3.858375563847383,4.496497327352396,-9.946304846061777,-5.278610968704244,-7.03477302494401,-3.587719413784749,-4.290212275095447,-10.169651082218875,-7.670460765874186,-6.212948174672062,-0.242727792308142,-6.867703639327029,-0.3590907550822854,-6.049265204726798
63719,,-3.2842858382504234,0.5856516796335303,-14.925206757144316,-11.82364269022269,-5.086840947840518,-2.1047180819452933,-6.497058829954396,-6.802585894061888,-5.4667178942947015,-8.803723975522246,-2.5356064533676594,-9.250484775286544,-2.8155430427851837,-7.15336677888088
63968,,-2.76665764765698,-0.2826684236865707,-16.18851399958889,-4.471900187176443,-8.01414171664784,-1.908439197901135,-7.816561456837093,-8.372019097294558,-5.592939480522025,-9.263321513735088,-8.043043273104235,-16.61433830082394,0.1755314964503568,-4.883222843065998
64218,,-2.201571859593461,1.3323597859077816,-14.386180858779165,-0.6411612916944545,-6.042712499747726,-3.765039186286796,-2.9079297586841064,-7.377155903408256,-5.16214987918136,-5.2816804144201885,-2.086869403041481,-10.476754823748688,2.3341061851417684,-5.615846621662586
64468,,-2.8257546115829624,-0.1347247592068046,-15.433119472129404,-1.8860154204784176,-4.264595970411483,-4.6929951423394245,-4.245793761846908,-9.857948118590029,-5.917131631030963,-2.7822776579555453,-1.665694701787944,-8.7679082535097,5.244780768336872,-4.735553188947745
64718,,-3.9758213134741696,-2.315303928601509,-12.048984123700164,-4.775050696634039,-8.163824834724489,-5.1764411675561455,-4.68891737787229,-7.806410285212287,-4.250455195910414,-4.559453095769928,-5.16572305608765,-9.95900206222991,3.207154086282089,-8.670865340430504
64968,,-5.760259357047891,-0.9700109508887068,-8.97544288213721,-6.230350407626814,-10.4615338315166,-5.163748389571766,-2.798544144935804,-5.661130205764623,-4.833940757525352,-6.818552721399688,-2.485464274939923,-10.086954653531096,3.809366369915911,-7.770675219092537
65218,,-6.020617245180877,0.604805745414899,-10.412204182659233,-8.862161172720091,-9.010721884017917,-5.48401149854615,-3.570817788910745,-6.153676372775499,-7.009603627282724,-8.001753855091549,-1.951154868590596,-9.806183926269492,0.8601223569894129,-7.498454325223475
65468,,-2.886250404084736,0.5929386358877855,-9.417585829799425,-6.866379337530221,-5.6596153176989485,-5.602242404468804,-4.878445410111728,-2.3230620539551023,-9.1888069087704,-7.683314575454503,-3.84571430401284,-8.021191560501533,1.7901787769784616,-5.898561780205148
65718,,-5.413952481214763,1.0929550573007472,-10.001458432142735,-3.8924774149394414,-5.003635117354575,-8.441210670635135,-4.448764244931013,-2.6185534356096625,-8.043423690741381,-4.051543621435934,-3.8215206322451634,-11.574182212110667,2.0252778727263303,-5.531780148990382
65967,,-4.732988959414282,0.1605396621497642,-7.0188520676637145,-2.187324064983306,-7.582349792834867,-8.454554766574706,-8.617341469162993,-2.733035584576732,-4.002573326218552,-2.712748353602996,-3.362334068602,-15.760484127522036,0.0372696688605483,-6.875398116998756
66217,,-2.301036632533501,-6.722705087064092,-9.402560857852803,-5.005201535563958,-6.689058821023695,-6.945682479179447,-12.084890744593244,-8.448427165951033,-6.393975598735069,-3.2925320457819125,-3.758233409018623,-11.370958035766868,3.527127304870989,-4.867517102561273
66467,,-4.496734218723333,-12.094425172055146,-15.815283628609407,-7.763721065296274,-6.487134427356396,-5.964744067653327,-12.395677150630844,-11.38511431445419,-8.8907168844096,-5.880860776211112,-0.8992278805367814,-9.3389633517934,5.95264470995002,-5.512773945451568
66717,,-3.3410163713402685,-1.76156859263899,-10.251494650824922,-3.252941253583552,-5.1420065744988666,-7.288101052610624,-10.779771923100778,-6.850498817697614,-5.08466546446842,-3.948797860706072,-1.2136407008344854,-8.596575751023185,6.825775170483492,-3.747955837755611
66967,,-2.829286251618277,0.7362733915805075,-9.388842386759933,-2.273878597874277,-6.626521133190303,-5.502264128803725,-9.13930975939292,-3.595504631837445,-3.8710809737411225,-3.266159952526832,-3.389232697895449,-7.468510401438349,3.8843433741493953,-3.889027205354585
67217,,-5.641123867538759,-2.747705068261181,-13.020665558476669,-0.519874709282471,-7.533636900350417,-4.205426142442867,-8.054643466379336,-5.5189155373411625,-7.764004215504464,-5.363876660552745,-3.522764369835316,-9.57004465391306,-0.5343341473976583,-5.743589719374835
67467,,-7.179471294724866,2.139656474490184,-10.646805794667436,-3.206085852635942,-7.746436353636704,-6.341976554144897,-8.829380337253014,-8.32244100783599,-8.707133577724765,-9.086168145703189,-4.156023406927678,-10.79675998480798,3.2552187288308114,-8.724682108835388
67717,,-7.040690859640561,4.842204381271223,-13.08159471150772,-6.096614339503362,-6.4515353411705245,-7.605747265898577,-9.092546440833637,-9.327802290095931,-8.445911222595798,-11.412508497750247,-3.71663999997078,-11.373634700305164,9.159542781161145,-12.30959257013228
67966,,-5.856563787279915,4.099832600486332,-11.43474412214545,-3.900029555732561,-4.910318007047687,-6.354291681401872,-6.927943787110489,-12.09552505020591,-9.89202711070915,-7.001803931362264,-6.514615776848345,-12.877987249239972,5.365093422513918,-14.136991363649615
68216,,-4.316531168595557,1.3082356021290054,-8.04569677153519,-2.018804553582745,-2.5107405623485404,-3.7742287293483674,-7.748717094615065,-8.795851437658067,-6.577527252216747,-3.086936888267303,-1.9456127822917415,-9.578315867353613,-0.0818590672704326,-6.852074963988422
68466,,-2.263652648243352,-0.1777302257484811,-9.892316733989206,-4.235224385198357,-2.3551212170127784,-4.656479410824625,-7.526104254712513,-6.284036445410082,-7.145576249424215,-5.3635857399941465,0.3914783287797033,-6.488923852171064,3.207387032746833,-4.092228611058484
68716,,-6.27119577936189,0.4386109127349949,-12.336446369291084,-5.907958785191961,-4.408227478964976,-6.67966015032743,-5.022573330664986,-4.017825637397862,-9.544119624807973,-5.9645263838620295,-0.0859541825093408,-5.360210209142214,2.5389551832668342,-3.913863904589305
68966,,-7.003161064454967,-0.8692288264542694,-11.0681357721082,-8.172547595810894,-7.389110498295706,-2.175056036596007,-6.327312496539857,-2.7824226531501712,-8.254145143286518,-5.051222814624479,-3.838086388938983,-10.720017444017367,1.2010073236634418,-4.552473261109268
69216,,-2.1538510228876944,-4.272926040948712,-13.039879188602663,-11.515950453569973,-4.444094115686341,-2.01156422820621,-7.49535611190271,-3.151092455650798,-3.844605082002648,-4.932381922721171,-4.888764487530554,-9.2820105812838,0.74845589511439,-6.309350833643044
69466,,-4.504560528196576,-3.0962265247212786,-12.955437362034273,-8.821003505346251,-4.599094362736772,-4.388407664967594,-3.664924128977427,-8.182750228211523,-8.162654707857524,-10.497283147336583,-3.43326726866654,-7.970489115773941,-1.9263428448682187,-8.341668004018889
69716,,-4.589435638609642,-2.1261871354406106,-10.431797423482802,-3.610498240688616,-5.115507972142872,-2.999111546632194,-2.852640739291059,-11.672216920852476,-9.065266902176988,-8.408414408204383,0.4573933479539676,-7.024690645365624,0.17835625775109,-6.923232179032349
69965,,-4.7740841770723375,-1.0769268557510738,-12.709562226049238,-0.3954933075826932,-1.3730903229931035,-3.003684038437646,-2.5963230808355418,-5.208047228119507,-6.897048703286824,-5.431788490313348,2.1787760354755465,-5.472009899147992,5.081831578254096,-7.669396091126533
70215,,-2.095282040504113,0.7964206181941567,-9.44439475407471,-2.110428110684568,-4.152676916579042,-3.1310667538653565,-3.6883781081056175,-1.99165449457747,-5.734525629245832,-6.588506612214578,-2.8560705341426065,-6.934119593099095,5.364707040045122,-6.87430513608552
70465,,-2.7448362226971064,2.873024232781213,-11.588452166355676,-0.6198031873741616,-7.627510260010096,-6.351598369884517,-4.069325823598959,-2.00616365541932,-5.137729838806156,-4.552522879750757,-4.176764110587956,-12.176880709598167,1.2063782227557542,-8.410324226231761
70715,,-4.796616276193969,0.740985490703664,-11.860647755027385,-0.558476084035975,-6.923471176598631,-9.913782809079844,-2.4051733193662987,-4.358256909864946,-4.701663683149696,-4.60305416193146,-8.017426554125809,-15.607732466781933,2.5120085627904807,-11.717819108626813
70965,,-10.888675336745797,-2.1527346785745767,-14.454961716664894,-2.73366917673898,-3.3738913704322004,-8.699123785703947,-2.902864680092402,-6.149284305287609,-7.15808551788313,-6.441917868937187,-2.754727650355515,-10.589155964099724,1.780306955290062,-9.696580917905012
71215,,-8.110236702104865,-0.7193763094870693,-16.343225103199945,-6.639072009891178,-5.270125180379896,-6.04021529572699,-1.524781133126372,-3.2691997456071387,-6.691444133135334,-8.133642023697446,0.2711612045455298,-9.408665130975155,-1.6591199593941206,-7.373933268043478
71465,,-4.020982661267506,-2.146688751126909,-15.281229734549866,-7.963816561087322,-4.986035526464038,-6.876751419877493,-5.954049311047208,-3.583077801098412,-6.773823374560357,-6.958531771535016,-4.069159993086888,-8.9012581581405,-1.4275911872711826,-10.300774716830116
71715,,-8.095790781805142,0.0455334756807524,-11.104341814921668,-8.706629616184292,-3.822491494681887,-1.700904819496464,-8.292096986760974,-5.1428151976414505,-7.624780083837564,-8.065577749941248,-3.036119182237517,-6.283314496073692,0.4381519325826486,-12.32698770150715
71964,,-8.415812692865646,2.7197254625419944,-9.331746808952689,-4.987082424164123,-5.845217377865101,-2.938397765290313,-12.30361729828234,-10.248887941181865,-9.23268052926286,-8.016327108440908,-0.892726801841347,-9.057172825607138,3.1451940776015763,-8.201320031849365
72214,,-5.179024287589506,4.8249854653655815,-12.4570374208704,-1.6195990201649832,-5.263307425828185,-7.337267389287902,-8.403252468370608,-7.769430986678279,-6.308167885951442,-4.563857659374133,1.3344393419524494,-10.25391253769383,-0.3048276202914469,-7.543522971135017
72464,,-5.05696894355966,4.08055559298959,-14.277739670096963,0.675247046072962,-1.4632768481358078,-6.593985122701983,-5.153869127004606,-6.7600522493550805,-6.659432311438129,-2.0848227758291857,2.248695480174644,-10.009891207857963,4.410326910633136,-6.089819554748342
72714,,-1.0169974639233983,4.833877778966029,-9.899831104468436,0.4583604637367874,0.579353070479408,-3.2747712241325355,-4.504730496900362,-7.701920690433588,-5.768649591927466,-3.806426900081304,-0.2251046228747538,-13.22194425350282,4.548684309045292,-2.333774714057038
72964,,-2.5459904699400155,3.974900150831476,-8.646195785926107,-3.863888654658992,-0.7912640027667411,-5.388867077677254,-6.637686884913888,-9.218629992867692,-5.594696333014077,-5.426916725076797,-3.628599928590632,-10.262563416466088,2.2263409207217286,-4.293951775083392
73214,E,-7.531429681358347,-1.0205332528449125,-10.433046402547756,-1.3781509764268274,-4.646309856746095,-5.463219997515411,-1.770429089491672,-4.917527273838661,-6.798733810109972,-4.147837245690589,-3.4424747966433444,-8.845338555280144,1.0284159511092947,-4.227347531615797
73464,,-1.3775231747186645,1.3971707781042473,-12.014929408722,-1.7285214230725527,-4.250856889599926,-5.871017407512051,-4.706852525720203,-3.787011716434217,-7.295534856546897,-5.031839039760749,-2.501820149740621,-10.62752870872815,-2.5296788513888058,-3.808393377276691
73714,,-1.495465340810194,0.448585093897234,-9.621689405625062,-2.842005273892239,-6.029424735640726,-4.645437888042579,-6.987692428662179,-8.949049240709948,-8.336800291038877,-7.76897896258733,-3.572708625503977,-9.593796184843384,1.1680372533993593,-5.277211157514465
73963,,-0.379554369163313,1.3459927582877538,-10.346258970081124,-0.0550132050981662,-8.024561297128427,-6.722052226892513,-6.777757137210658,-7.694330173179273,-4.233201080783864,-5.833810286155735,-6.072123955795121,-10.9595573549588,3.797182835583844,-3.3169278042917534
74213,,-0.7660487339769027,-1.6266412179294656,-9.989104209249923,-1.776754787183572,-6.23331502609239,-5.424652234556694,-10.191782343256053,-8.757066461908662,-6.770058703495416,-4.058549841441871,-0.367130335905779,-10.574413084560597,3.4033241101213947,-5.714723070606237
74463,,-5.821722144860747,-2.8911172724494048,-11.989027939683847,-7.55280874165972,-6.187150673413628,-3.8501718496792,-9.888350014508424,-8.804718019393292,-12.054172490762552,-6.038641585164772,-3.519722069818979,-11.34740610114994,3.335144189241741,-4.802467526089399
74713,,-4.554921793497845,1.914376819930318,-12.994688903524668,-5.870831281994252,-6.332776625208293,-3.995468217704277,-6.470534394069957,-8.248390955861613,-8.900580939857779,-6.19492245827971,-8.725622402706408,-13.164154639570626,3.0717591331054845,-7.053872655698426
74963,,-1.242812662662765,4.336282697836005,-11.388333687086938,-4.445873183354776,-9.34925616389747,-3.201215335624319,-3.6818263315846127,-9.120085468748275,-11.01945029889916,-5.2215651638258,-3.0809183657411787,-13.567805787299116,-0.0586116711318404,-9.75559612783378
75213,,-3.88032357270606,-0.2325657938470221,-11.546939470969004,-7.064662971470716,-8.940286722099756,-6.003689396556613,-3.393720418519566,-8.7949346669882,-10.83586291919566,-8.26020573398482,-2.940593167701,-11.582068348499352,2.619100077899664,-8.248437699635328
75463,,-5.791817411707312,-1.1053515739978004,-12.863746489509976,-3.1100938849333746,-5.111461517875345,-4.744913155520637,-2.3880130935580683,-7.092501211966727,-9.35348792164524,-7.110467457709627,-1.1656839905870284,-9.402228804426183,1.559987969463462,-3.9776580648080753
75713,,-8.017592505354589,3.1265269001151785,-13.932717467298051,-1.2642738075557485,-7.24165190072388,-3.521745072417141,-5.477229079849427,-11.069400273235225,-10.513266571528868,-4.204603051575307,0.678734368604806,-10.509953769681552,2.5110941151488646,-7.882260046892528
75962,,-9.913711488861876,4.461915413978859,-10.798022670548312,-1.95070377781194,-7.781930575252931,-4.871637900430208,-7.0121267988095575,-9.76942692289921,-7.107124069573381,-3.8478513558279226,0.2062945971456215,-13.576377148359066,2.401779850100496,-8.506897003279239
76212,,-9.637726979525484,-0.9214431082027544,-10.216534908280588,-3.3593806931384336,-6.012433561011243,-5.9473276891785,-4.88394767392991,-6.45799118162198,-7.820983101796328,-6.461105550548454,-4.710610009114475,-11.820954827897662,1.0011306139112215,-6.333027128509972
76462,,-10.030925866310673,-0.5227124456762245,-11.247764548834912,-5.4393833419351445,-4.224113834926058,-6.075839777063546,-5.122415731621059,-6.363532999581361,-9.20556079341229,-7.08692006210911,-11.188495392522956,-13.549201824246994,-0.5607648163921733,-8.102935441651601
76712,,-7.274963037595066,-1.5930423388748916,-9.565623493989987,-7.341427384375586,-5.56732289687077,-6.7544564513208725,-9.154387035801218,-6.661257839704909,-9.029700719600664,-6.560012542347947,-10.620540867267572,-13.394467117489574,-3.3021415292866974,-10.890026568257063
76962,,-6.086612871753008,-0.4482436231542596,-9.825679012902352,-3.0992301801387456,-6.14725102546924,-3.3139337135692104,-9.613568076359432,-7.325993386195995,-6.634749199215176,-8.118195470433655,-6.328481394662532,-10.63217780025732,-0.9511636053037508,-9.79119672595591
77212,,-6.9389715543256205,-0.5950492469112554,-7.891408427292148,-0.309475910568331,-3.798179545615472,-0.9306312987763704,-5.220576902065331,-4.068937139090868,-2.0279342946753243,-7.47375287207978,-6.766731502450016,-3.358245577827446,4.470199313556061,-4.206238680034023
77462,,-7.183510394790426,1.5831520590556023,-6.8577333986212405,-0.9235793845844896,0.0119005446427923,1.5311276344406433,-6.6635756441675245,-4.689570898685298,-2.7449665326200208,-4.094929101317524,-4.104780790107265,-3.5147980925013877,4.69059575642134,-2.2585103639252773
77712,,-6.9678231636731125,0.4649228998639265,-6.8426997134694645,-6.546987771018006,-2.948424083410905,-0.476455409261856,-6.242678369636014,-4.213650046349715,-6.449224049175996,-3.8151532796069914,-3.505579586054448,-7.323302303386767,1.115104173535841,-5.062565504345362
77961,,-3.725085367810712,2.0319000122500834,-7.319787369507392,-4.872050601326297,-4.040962107849583,-4.363424211929667,-7.173627267760351,-4.04875534399309,-4.19043183535233,-3.287570586704183,-5.297658207416605,-5.511080559721884,-1.1402284784051218,-10.77711370572252
78211,,-1.3922584031596716,0.1123535396695376,-10.682177737773468,-4.087685389968216,-8.599754647703746,-5.231447776668327,-5.53912800313499,-6.151487997962476,-3.8656336487047462,-4.15210219716267,-8.320985739818386,-8.31465198054834,-0.0211894434254773,-9.014998130177576
78461,,-3.173221435196385,2.4312013189467527,-5.965528451432225,-5.406080640712708,-3.410726614993165,-3.992300234070159,-3.451521252803164,-7.304872406328659,-10.217907325864658,-5.482476823995119,-3.806817898615566,-8.336072199055092,0.1659729952895102,-5.235596406048852
78711,,-3.4552584201752663,2.9550276589148403,-6.612164159481956,-5.789844397954145,-3.52048799370419,-4.3574894256307175,-4.097274882504418,-10.514359584051345,-13.821022671484958,-6.8414949335929975,-5.095274277212606,-8.27402285714634,2.6850226556605823,-3.406497661151527
78961,,-4.928747631586917,1.6617254320355097,-9.549043029479728,-3.686095926732325,-4.6733189310975884,-6.314774767083615,-6.187246986663759,-7.4328311458800815,-11.48669455181082,-8.479272609195762,-3.594554793637535,-8.38599984621936,2.805834838966767,-2.224425881548611
79211,,-5.204829482955242,4.278858115980288,-6.034737085528036,-3.17566011435868,-5.870348623454605,-3.7003075699342416,-5.031794004887992,-3.730542678263343,-10.173689308725647,-9.84267163271416,-0.944703939288833,-3.499366513640567,1.2280268240355483,0.4005169750788933
79461,,-6.9576797670866615,4.316711836168238,-6.390934934073403,-3.899488378314562,-5.496846836362214,-4.206815328085051,-4.777988073344094,-3.816611383413082,-4.063877813982555,-9.548906505933454,-6.525169274041617,-4.364366347775281,0.0405688140998959,-3.299078076530595
79711,,-5.645678161132768,1.4953093337671368,-8.153857084635398,-2.402160482585108,-10.020663971961458,-6.595857763841701,-2.601764369102133,0.0013608542855738,-0.7618361002387333,-7.277766305725109,-9.969192230713826,-5.2377308514629615,0.5706190567151415,-4.978893238251214
79960,,-5.626621246042756,-0.4976607960202163,-8.232029245921916,-1.6044778960653878,-7.011496780621568,-4.144027471748991,-0.0525702072940598,-2.351591513838228,-3.796725816025413,-6.693727761598927,-3.856798560709727,-9.370178626813985,-2.148318782848748,-6.180734192883546
80210,,-5.74759345681896,-1.0544015747091715,-10.415018912125706,-6.711271359153823,-8.89070097668796,-3.8841383542767223,-2.6695848030035787,-5.757096652494846,-5.904675512518126,-6.712773318865814,-5.315813846242879,-8.335279136944255,-1.144692907608955,-4.673115737677559
80460,,-10.635879272405653,-0.962991202319453,-10.946290182170705,-10.67758079809398,-13.139442735388862,-2.218046209879281,-5.074049302675414,-8.713826264821936,-7.062174877321372,-8.448933415250666,-4.630575082965025,-8.431201691656225,-1.67818241967677,-2.823602942220227
80710,,-9.101302668792348,-0.8958885240645532,-10.725305540908693,-5.34074527418726,-8.805389714331008,-5.7145389255801895,-7.749288955564073,-7.368640103633334,-4.845810845918768,-5.259502160152131,-3.953569363913767,-5.584997908415624,1.177190672026801,-5.719636290398144
80960,,-6.394761670569475,1.102686288713873,-8.968053868073522,-3.891143668865359,-5.459789236622983,-11.892628559388385,-5.331497985754004,-7.786122782334961,-5.59161779235298,-5.199154703964679,-7.069955485284938,-7.09519703609777,3.26793509669381,-10.37399808879064
81210,,-6.615322462264106,4.403870680625753,-10.741389190874484,-2.777476226364461,-0.3258333315389142,-2.651761209469502,-4.2640342869652486,-8.614906621956388,-7.104556385980488,-8.69834949514008,-4.114761122068224,-10.57230937522956,1.060351890738496,-9.432212422456022
81460,,-5.052749417160274,2.186186768291169,-14.361572940835249,-3.0179151963776487,-1.2651806341621503,-3.127755810072906,-4.1805373954336735,-6.324831060850836,-8.172892104770455,-9.225655630286628,-4.632974103390463,-14.22066745826606,-0.0413335943505142,-9.349267875466229
81710,,-3.9242225768810814,2.5215557413937715,-10.48328149745075,-2.0262681585639672,-5.603581545348363,-5.965229500334298,-3.388802229406122,-5.777160383247022,-6.671117429838427,-4.191034599977909,-3.589516294419428,-14.16343609913733,-0.5192178489949355,-9.523665605122384
81960,,-4.173828587278417,0.977806252321559,-11.141569746813484,-1.2996749226695714,-6.683903295705729,-4.292825688764464,-2.685487820501617,-4.944772125309509,-2.572128484091607,-3.611088353403837,-2.556265257457137,-15.648740950373314,-1.460318105833062,-4.752454240213862
82209,,-3.701321264819788,5.703772138676769,-11.81733555244817,-3.1083510579676665,-4.69491465941757,-1.126097640071912,-4.563927573918958,-3.7672661726168704,-1.9745287481209253,-2.3106187245815515,-1.277570386481276,-10.867110645574131,-0.9418185769521544,-5.041713177536722
82459,,-4.011247368656644,4.032387000194435,-8.37746703214137,-5.741331298606367,-5.0902468247823,-3.1148170115918186,-7.183304391208544,-4.355192795485159,-4.343198206080356,-5.9652741246398655,-4.390200813965199,-9.109434214845836,-0.3291206253714505,-8.164057840433983
82709,,-5.290183614861094,1.6487783212137086,-8.991001288927254,-2.644930835698451,-4.98611488299867,-2.7065491065852543,-3.790775692540912,-8.240301977963652,-6.550725230489391,-7.955957673114703,-4.512816110780744,-8.774491736418632,2.994840401627349,-7.575011696848439
82959,,-6.390099838844821,3.5633269849265616,-11.669267079931489,-5.4965267818311725,-5.521660761857458,-0.1375199768763478,-1.7167641989465408,-6.4063256251593526,-6.517445946196526,-5.76773358338964,-5.087672211807508,-10.44481310707354,1.3547984222576397,-6.312126450862686
83209,,-5.581852466877502,-0.8526289522900019,-14.20841749417998,-5.377439511578571,-5.280703407153031,-1.254445544481516,-6.520925613088794,-12.222182668539377,-8.619493299532227,-5.572135643563837,-7.210168034608488,-9.302375459828149,-0.7766539769713627,-8.347705014989947
83459,,-6.62507174271928,2.1830091474586064,-17.77404228065478,-3.392326220577002,-1.712044871249159,-1.6818064826465458,-9.963969205331098,-7.973809144737167,-6.231015609690104,-3.3618116679350907,-4.191986796134829,-12.734520608920375,-2.4249597962710974,-7.173064425962005
83709,,-9.668630302929484,4.376396908508913,-13.7863477609298,-2.2252655279006124,-2.0184601676915643,-6.636171105093593,-7.871676738107698,-4.636794731073088,-4.122210886222352,-2.7497800084127566,-1.6521954993213994,-10.760955605250986,-1.3125825393822188,-9.53367722776377
83959,,-5.963817180985301,0.7674721639616267,-15.535454961033633,-1.0291425199583304,-5.403834285228907,-8.963895633914966,-9.46534459370496,-3.839872620250699,-5.644467011140524,-4.340364922158025,0.2432808551976105,-9.896039913013816,0.8897435574709307,-7.939995954143836
84208,,-4.200207122495399,-0.5738795664091917,-14.269619108594192,-2.603600039187849,-5.158787235590361,-4.611176825134804,-9.562740665404572,-5.12044133352907,-6.78514708317242,-4.38151606281173,-0.2752463075869175,-6.675218393072603,3.909082894020506,-5.9837691919363065
84458,,-3.865220511292966,-0.8022772939628489,-9.504027162106665,-3.763692043445292,-4.398081123024471,-4.798414338360111,-7.985181440145742,-3.161608154627322,-7.94831650357975,-4.655425325998842,-0.1834965374946532,-5.889040612632516,2.156533936242944,-7.232196309685953
84708,,-4.463752483856715,-2.747181979462461,-7.51856796491313,-6.074129523458023,-7.21020475198214,-5.307718016092236,-7.3984046705243,-6.189589786961864,-8.29966313371093,-9.376655941529007,-2.286713513668836,-7.301656568046704,-8.171869340955439,-8.997872772287304
84958,,-9.59804953003482,0.5400783594072665,-11.137253732533248,-5.846159903585187,-9.348260011972087,-4.644051519048369,-7.299597240412315,-11.795962189320754,-12.77559853819659,-7.161999826134618,-2.7201842834242878,-9.190964126097114,-7.239127460717843,-7.00661807612748
85208,,-10.14551111599354,2.5138418384549057,-17.468844957226146,-4.36304725605651,-5.908720665929225,-4.407153435371608,-6.625471287045714,-11.87248695414188,-12.311644466553982,-9.863721175838789,-3.5283874960085635,-8.73515282730111,-2.549995149781481,-6.781770796809134
85458,,-10.516486351787016,3.7997552655469935,-16.183691894450483,-5.658201692502047,-4.991716365779116,-6.399982368416098,-6.692384436332653,-10.494683218350168,-9.320938841713833,-8.567632416223894,-3.7670294943591696,-10.489359704724496,3.4851005264961765,-11.115686272325789
85708,,-6.198440419698904,3.775633779506784,-10.149572268025624,-8.055296952168243,-5.275027532250395,-2.111848619025969,-5.411765865260253,-7.468630100356149,-5.233288085090184,-6.240587976942261,-0.273323589567552,-11.09302493431742,5.720137952902481,-9.202365158069874
85958,,-3.4654053819375585,7.633235136390201,-9.492841236094105,-9.027089911525112,-5.119389057303195,-0.7759496439137559,-2.7038218317364127,-5.6278000513328506,-3.419215155008951,-5.376725914009695,-0.0294456221669714,-10.35581497868353,6.947458055648497,-8.60800506058408
86207,,-1.7348283289868462,5.638716609515541,-8.875897332392007,-10.286335202112868,-4.009525904276149,-4.049064745833059,-3.68423370186398,-5.285930485937699,-4.046473455168802,-9.754558306558708,-4.055110355458505,-9.428319577011454,5.42813691992314,-8.639933396690555
86457,,-5.060859899883505,2.1353543896269427,-8.06538463422872,-8.60091859866681,-3.91883487201246,-5.98710621952924,-7.902595176205885,-5.710585597444847,-6.47458304264362,-12.613986758812212,-3.637734506503653,-9.231466776123536,3.3366748731260056,-8.478658648936907
86707,,-5.976977999326961,1.3467051982761191,-8.64891977079885,-3.70489537659392,-7.510510674261972,-3.0218185309154637,-7.571528884027511,-2.590333815558161,-3.858764468012713,-7.665650408660342,-3.587193544816316,-6.032020315712797,0.7416073173151474,-7.070958183293611
86957,,-4.141830169785782,-2.0335470628988386,-6.588204666918406,-2.093200008794617,-4.014276586049567,-3.738640697951843,-6.9675566107032605,-4.508639605959896,-2.7481648818135795,-2.8073348040411368,-1.062931429487982,-9.252192567014724,0.3987486366456778,-6.718296016174215
87207,,-3.569836207003154,-3.145028173669664,-6.895824969047845,-4.853848226495585,-3.468811730217757,-2.3948718782100675,-6.209193888133409,-3.4997506485822245,-5.744143228084159,-4.482633580858793,-1.1578168474526924,-16.385183880908073,-0.8865057854500922,-4.246249182640431
87457,,-4.681929147310553,-2.856838380133404,-7.370906862395405,-8.249827847964248,-5.5065565219157495,-2.6161365008548225,-10.57873925347629,-3.086719233655116,-5.804120497945133,-9.349318289235782,-4.355750871142439,-13.25588814038532,-2.247549880127954,-6.376425216171046
87707,,-11.067850372947207,-2.1178041740201303,-11.531948139252137,-11.998813918241709,-3.82815283095671,-4.74550654998061,-12.6343520826563,-6.149348402690483,-9.139581837066984,-6.394120543188326,-4.336651831176556,-13.2034923487229,-0.1055750032362897,-12.101681874249463
87957,,-10.67173532008278,-0.6235976531438927,-10.9425300337314,-6.234153792906306,-0.9472196862875688,-3.7140425403651993,-9.872702592417962,-6.726637005926075,-5.268492934380491,-3.524896563588212,-6.3623091327456045,-10.323047205579243,2.311935756438628,-13.00640315124355
88206,,-9.246461812238982,-0.1615900687045983,-8.438482821542713,-3.329326991834428,-1.6611900336450935,-3.7030907563062794,-4.847364891345215,-7.987917602393474,-3.852615585438871,-4.277193898663888,-7.681578270262049,-8.986378452014868,-0.5357541734340889,-5.819273978943244
88456,,-10.788292186774598,1.3947487435149353,-7.600431156258192,-3.954544777940103,-1.867736808539324,-2.21735598746528,-2.7137247205443904,-7.700761774315026,-5.359946748513541,-6.821486032086793,-5.948147015415128,-11.232804340826108,-0.3331073584874575,-3.323782467135785
88706,,-9.101019169199285,-0.9271033705805408,-13.511435471769564,-4.837879092748078,-4.141439088037423,-2.407252903185379,-1.5570049222579032,-11.001014982164236,-8.275326031470264,-8.829815951936965,-5.2277631798790605,-8.674656046167312,0.1484456994355479,-4.300095341641452
88956,,-3.1395128077517342,-2.1862909886253905,-11.260286660729784,-3.0715170814899397,-3.5307515949526582,-6.383816102945156,-3.576900434735081,-9.685076840470048,-5.544805092729957,-7.12404077316117,-0.3874117361541467,-9.471451930454522,-0.9151542121099266,-5.07646587044823
89206,,-0.8913611517929508,-4.582102863659796,-13.885196095533544,-1.2253505901302488,-1.0276723350298038,-2.584291116287446,-2.8815451349724546,-6.590326030339005,-5.1302223256010215,-2.0492481420788327,2.441717161363162,-11.086251056769743,4.4214273063387575,-5.2192534152042
89456,,-2.895366618604984,-4.303852828009125,-13.577951234267587,-0.4536857346037621,-4.101399437374039,-4.775368552421958,-4.184921930178488,-7.223871635263896,-5.290117381894344,-3.7811721604577335,-0.3792432579588984,-9.698966206515047,1.0155336982824672,-6.35183240287211
89706,,-2.691841432865529,-4.555576424423715,-14.768963389051798,-1.8318162192177976,-7.169880726890439,-1.4735061397390337,-6.541937524120202,-7.082786899666916,-4.248894343278831,-4.27552204633577,-2.1578485641118923,-7.57505188067165,2.0867623690468715,-8.638995845057803
89956,,-3.5170252179124235,-2.830799295874613,-11.1138762755693,-6.510246923550339,-6.481677682693489,-2.44850286944927,-7.479437710206145,-4.551231476308662,-6.234686826040484,-5.782894034610731,-4.628615846082111,-10.15582569979337,0.3127429038987923,-8.060364465644922
90205,,-8.262892014344944,0.861524721212134,-7.446396004197489,-8.621699895676393,-7.49454449436644,-5.7424603284520455,-9.20100971559004,-4.481393587753958,-6.933574090009693,-7.368529844453276,-2.9449063139632847,-12.798388483066391,-2.6379660533660267,-5.905488828530854
90455,,-10.608297011302245,4.01490950513153,-12.955043156695831,-4.542267648673925,-7.409913812711055,-8.359550889525181,-5.412802260808536,-1.262770507700948,-4.956254716274376,-5.710813436980969,-4.580854698716108,-10.892163963010058,-2.9454180403653685,-7.512246549936304
90705,,-5.9594295039314895,2.825328781434176,-13.823685678271158,-2.129839820134368,-5.955927095805844,-5.55623138263908,-2.029810302032193,-0.9654551435672276,-2.775825171266341,-2.342380854481089,-1.900636136200609,-12.022672814464457,3.768638084564526,-6.400881604859735
90955,,-5.795547841753138,0.8350899822671931,-12.039445572000243,-4.188799286547945,-3.765511541542947,-3.3450075391756693,-3.5685819995500685,4.4895116802784205,-4.691554506916691,-4.10421164395096,-2.48198820807593,-6.281134046181874,3.474678272972846,-5.903814646707684
91205,,-12.518973409622465,1.5541455526083336,-10.96437259471892,-1.749061664400127,-6.949384982159803,-4.051850594814455,-3.004104714800463,2.4746271301449845,-5.435517623690297,-5.915145548972832,-3.2744452563706803,-7.585821244179954,-0.2889687355004061,-5.985668604959065
91455,,-10.713373475615205,-0.5424978856188479,-12.422715617889825,-0.6894656489618544,-8.03819792167381,-5.818530662844995,-4.7404745995288735,-5.004534997149401,-6.794724267186481,-3.9948346536609054,-1.0976225486344102,-8.129795883342833,-1.7441495118824804,-5.018888312625711
91705,,-5.16479669826542,1.62767132065882,-11.189477367443958,-3.7139469191493824,-6.603985153881064,-5.851360457915463,-6.19434107391835,-3.741187454676675,-5.758282375541115,-4.883820216105101,-5.953487333786006,-5.703316455654836,-5.972839881499638,-5.222746602584895
91955,,-4.358764500687078,2.127208765015593,-12.61847322383188,-5.2162115120205605,-5.49909373993602,-6.28405522754932,-7.029585285267547,-6.243093892603926,-6.07547183189709,-5.407641505112294,-6.727518614291865,-6.629065630229744,-0.5997157661050591,-7.334454526136205
92204,,-2.595544256079778,-0.1082462668520537,-12.467960140336697,-7.697983356575255,-5.314652096685675,-5.93523292976186,-6.5581439916509945,-6.717803213073608,-5.847463032497403,-6.375488971570401,0.5951703656871603,-8.210128265907985,2.52009437418721,-7.9101958028851165
92454,,-4.186072559043358,0.6929440536975287,-12.2066471705598,-0.3966437762194747,-7.682015230141692,-6.431755650339186,-8.904482856986364,-7.2264336028299745,-5.613379798425825,-3.787804466122294,1.301132113967067,-7.57198340845996,1.6002539246770255,-8.281971600131527
92704,,-4.353890312652402,3.804994859990491,-10.94171535991446,-0.7995768986263798,-5.391875991719354,-2.5300447908789407,-5.782714774999569,-5.726641922258592,-2.7758336827060948,-3.667505866096658,2.129190831602832,-11.10888279208754,1.0291563830028416,-6.247331814799843
92954,,-4.937173491195905,0.7246211267108831,-9.629910723918384,-4.650939945631871,-7.064820968388368,-4.158015906841904,-5.843351729807328,-4.906246818549503,-5.734573067076787,-10.6506185373307,1.3393627775046166,-9.725613994120213,0.1833436501096111,-6.235310471723519
93204,,-6.874867400839941,1.3431289690434858,-12.092809943507586,-0.6281660951336661,-5.503897674997933,-3.48772352926543,-10.99986435622583,-3.355731003102897,-8.198565041646924,-5.231204361343017,1.273738526318058,-8.888387835387906,3.246590140551331,-7.724598678399487
93454,,-9.450539580056972,1.0722577613347677,-10.786041247834724,-0.2108449692324002,-5.477297532474106,-2.263038134524405,-8.862877171473148,-5.100987814931525,-8.460890842921918,-4.139891673650597,0.9577180566927536,-6.8995807708537615,5.227944490840671,-9.745155191912392
93704,,-8.27100095025308,-2.182104119784579,-9.637865965432594,-4.731390257299736,-5.817736153867241,-4.848837521122257,-5.86654940754591,-5.761513636215967,-10.070010398053377,-7.154498058981041,-5.812794048674702,-9.38318419420259,1.4943906995480258,-5.049188953761909
93954,,-3.326612494382451,-0.7002049558534271,-12.922956352696929,-7.33905233518546,-1.538098699482845,-3.494955268248418,-7.419451369656843,-5.318535565391796,-6.605680249942361,-5.078448225184514,-6.943200057539194,-8.727225880871087,2.9059064884141343,-5.071213496768884
94203,,-5.204089886168215,-0.7579607660000888,-13.405005563529578,-6.200309885330782,-2.1451937279995232,-2.7464583482361733,-11.39034770075294,-4.680840650308793,-6.448056778971301,-5.571453223517667,-0.237202496539777,-6.981384304052336,2.8532253124054856,-5.136560777926915
94453,,-5.518198649962053,0.4482148226053945,-12.396268523236603,-4.1587176984430245,-4.821179478959453,-4.977446123201827,-9.183124799837929,-3.350026949279635,-5.237746468774236,-8.173520645162709,-0.5918451451988185,-9.186529510288011,2.5229106775148287,-3.810081207456261
94703,E2,-1.4275408353819352,2.391460810882386,-9.75739295196666,-5.493634251353746,-6.292734417366571,-3.128132803237928,-12.12206535925489,-0.4012885135784695,-4.096464584393164,-6.022699974113449,-2.404792576323543,-11.720748572345984,3.763718834820285,-6.990688660568497
94953,,1.192613422695202,3.1167674562642507,-9.66384606454356,-3.706936473558579,-6.959772930791003,-1.157908959455783,-7.249827602145037,-2.0495641200327963,-7.305193755137839,-8.82428694413454,-3.946843549816233,-10.2033929654133,3.608126253257922,-9.677165012123991
95203,,0.927315565611873,3.039450408916311,-8.329597623942268,-3.2801216616108886,-6.100771348439754,-1.5690957876672544,-7.569623345526393,-4.768522541069505,-6.188441066849296,-6.8964440376278535,-5.35984547586315,-7.8971434064848705,4.764165412828347,-8.571902339807037
95453,,-1.7834279672538749,4.790703232683927,-10.894317219770484,-1.4559825082171998,-5.206364450364848,-3.6807017082654254,-5.135930543199311,-7.1621129757765365,-7.735362941828857,-6.015795777235919,-5.865097672900975,-12.304205024921693,5.987194248612445,-5.679448082902386
95703,,-2.2580384927238715,3.6779091423291552,-10.456683910199276,-0.382327024445615,-7.713354056618627,-3.8929504932395353,-1.940048997909932,-8.302791529949253,-9.444223171650313,-7.517380969370376,-1.9541824977502031,-13.086180587297616,5.3862049615818535,-5.923267029619939
95953,,-3.7481196699843617,4.554836575152805,-10.01126176418332,-3.464156967218685,-10.428913743020145,-2.7086773602795344,-2.284505543516238,-7.716772853328289,-9.499051699351607,-6.3736969777452295,0.0652254209752589,-9.443041307327649,1.3990836404943114,-3.263121504355311
96202,,-7.557423290475689,6.758897890499332,-11.166360974915516,-2.077355143383805,-6.417549547985556,-8.554626060463498,-6.144754749747593,-8.809614211265316,-5.886082541041439,-6.221848623407402,-4.76408806271581,-11.153217833430366,-0.109584815994731,-6.954444093738481
96452,,-3.032433188280148,4.275196578874572,-10.432640383115208,-3.5659033780493115,-1.1136255472411971,-3.784608330610087,-7.190046659545075,-7.876750007398626,-4.488223076424318,-7.23468899083217,-0.7035959620402422,-7.724498997661653,0.2189839435217404,-6.022948625715905
96702,,-5.310945905793407,4.47126318322872,-11.134906548246494,-3.5389944502193247,0.8015996045977586,-3.881896853028055,-2.9340129048528745,-11.580965976722329,-3.695380322848101,-8.586374173512928,-0.5783199576803731,-6.720266007408412,1.6011847688581262,-4.862643642635764
96952,,-7.73273522124576,2.6705933243142708,-9.178075675424273,-2.634960098951236,-3.767872537556172,-5.66235858855058,-5.6448007411626335,-11.61387015771368,-4.278440044279747,-4.4841748850730845,-3.82344338234198,-7.840857359058319,1.9126871932655287,-9.67055006075234
97202,,-8.442751154805027,4.337935270612382,-11.907759719694306,-0.5916842915624009,-5.490444002756392,-1.576822811928237,-7.05316278211405,-9.112892574453062,-4.803094998236019,-4.040476408793953,-3.1503654395835445,-7.817871946814767,0.8518463765124019,-8.31298667504101
97452,,-8.7260319757104,1.4475118113322405,-13.594128509405138,-4.195076079266396,-4.448768127029442,-4.03847286301424,-7.965327101004912,-7.812183266680275,-5.869569952088365,-6.104814799095184,-6.142620476801948,-12.638599005925242,4.15884160148602,-9.151780182308269
97702,,-8.531864790096437,4.946915503482531,-11.07936757432703,-3.713577189429607,-2.687491671651423,-4.3448887398094405,-5.121742096746798,-12.050519208480186,-5.375326101219105,-4.7157694009840085,-3.831680482550152,-6.645522276621831,6.348887195202352,-8.423804154452302
97952,,-4.583965922599239,5.488898116023533,-10.401248772892435,0.222405227220224,-1.9181701367304291,-6.543714734120112,-5.945543454046376,-11.613810342133968,-7.736931999260238,-6.3063378069844,-3.2704751852988294,-6.871683908811301,5.394262608227755,-5.327921742617364
98201,,-6.336908241052561,4.086491562115972,-9.394910281726895,2.260191658753945,-2.898025103185864,-12.870707113824515,-3.095558663428404,-5.011749530084417,-6.524238459033885,-2.372369481938092,-2.870704433176209,-12.105519389257758,3.3798247815433884,-5.062043605436223
98451,,-6.460967793533428,3.800923852913491,-11.391593127803564,0.5949970982983415,-7.354571157103848,-3.912755591139145,-4.126112832655822,-4.173299362198161,-5.402587250702445,-0.1970356822642011,-3.2717560306673,-11.087742356793742,4.234993181106994,-8.59892901202433
98701,,-7.341525745465254,5.142083686929685,-12.388304605720457,-1.1650704562515095,-3.380468454005061,-1.3137459534919893,-4.869492027921086,-10.249172548403092,-5.674493617239889,-1.9212665968295848,1.046213574626025,-8.943801891831594,4.4779349836431575,-11.535499547801876
98951,,-6.165385092627807,2.753776818495479,-11.047047129600848,-1.2132017876769476,-4.47396977900438,-4.987683285754411,-8.468435140951055,-7.607740538843897,-6.5948671811389055,-3.785389190588906,0.5777991899943743,-9.722125547812068,1.406716013896265,-10.81173486138013
99201,,-7.808503428143025,-0.8695999772646414,-9.781216378625576,-2.8991971121590767,-7.156400991717227,-6.552756582484357,-7.02183412786713,-7.210786198647768,-3.7692174955383297,-8.030055069401413,-4.540851926648335,-8.266307828286585,0.5589002605972608,-11.899097403471364
99451,,-5.298121234508232,4.704203604625668,-5.889859118254034,2.562763431424808,-4.708072854608658,-5.308261132766038,-5.746101092495508,-7.432463760850112,-4.657219319581816,-8.888358407882876,-3.6252319787353744,-7.038497474462217,7.567385289945312,-10.053114381469555
99701,,-6.318364123436685,5.761130224937369,-5.624251984657207,0.9870058782085316,-1.915655058132586,-3.1649998296777597,-2.701528093616189,-3.1859069087107006,-4.7887443221474655,-6.599583140639089,-2.80046155771454,-6.0199509053390665,7.012316023698371,-6.558459387511978
99951,,-7.282640853515736,4.927710864726003,-9.884080516883028,0.2875957504372565,-3.00825787003382,-2.459081886877038,-5.180983912763606,-3.996832939698721,-6.381046108899772,-6.750062601636464,-8.061752240742454,-10.74724769882218,4.297218906930608,-7.874154084934867
100200,,-10.17337469580311,4.030036369514219,-10.98117231774153,0.609438222189191,-6.708413131495526,-3.0459818683391293,-8.596726517728406,-5.724523294388328,-6.7948926756156265,-3.7289793244816334,-4.754422131939066,-13.65690307744376,4.077826877428833,-12.171507615835807
100450,,-2.8832721038485376,4.12494299229624,-9.14046116285238,2.1343345923184827,-4.77487847289561,-3.173728564041646,-6.742211042254061,-5.385741202714383,-7.97519088796276,-3.696892497348543,-0.8845071426157103,-11.563928799092691,2.0956713899830417,-8.141578388881223
100700,,-0.4007487836784925,6.051428567082414,-9.853644218477765,-1.0851010766882376,-6.571961414029451,-6.9095594574351535,-9.537884022889603,-7.972619520135698,-8.031161880551172,-5.500247345516804,-2.160306336786244,-9.969117724676538,2.715140055637236,-6.704095296995003
100950,,-4.238981774595036,4.015908140742237,-8.637126765687972,-3.662112800183699,-5.887286005180012,-4.463244311454529,-7.162937741276773,-11.948220792495729,-6.282523196143098,-7.967063266677804,-4.938195168869974,-9.651933263205594,1.0337432624648568,-11.546974981543794
101200,,-6.340773105380286,3.120887269188368,-6.117960145974099,-1.1694505469167074,-6.372742075005812,-5.964438804407174,-6.708236619605915,-7.373403112589568,-5.149939635668045,-4.424761861265738,-3.536520493571814,-7.854177928158569,4.822457859153256,-8.812839154406603
101450,,-8.832325794321092,5.959413515810028,-5.205057093314486,-0.3650150045921524,-3.586987616120964,-4.056419263092774,-5.733231535025574,-5.523995182971144,-7.749526937736543,-1.9566792058851168,-0.4097346921855521,-8.446325980924204,7.537007200478596,-9.159630355422896
101700,,-10.510574865867074,4.473437674566231,-8.424325693088507,-2.2434157589099897,-2.1018610947082244,-1.1522595181056263,-3.921309752124124,-10.297509363263558,-7.78741726236081,-6.96572663940635,-0.8182786086381821,-12.026523055374618,5.145764180349649,-9.105144655761984
101950,,-9.213684836201397,4.0917872729660445,-8.46142718151443,1.9808961872586317,-4.473403726162606,-3.3593244822377457,-3.510367608458078,-7.492995760123745,-5.427062472371067,-7.71441296201488,1.9793431437742448,-10.367951308744567,1.1654942623563904,-4.73586546317414
102200,,-3.127395206146076,2.226004537879902,-10.286164151380088,-1.2758055329071074,-5.872702531771487,-5.302885888390176,-5.954841499702608,-6.851367825077622,-5.5273913207355205,-5.890903838576621,-1.447901075370386,-9.294940613775184,-2.790089064038037,-3.27791006752753
102449,,-1.0389282463704186,2.3110294188163567,-12.20063242902063,-4.073857778645051,-7.741427688246969,-7.7254260083485775,-9.599568167652588,-4.440869840622964,-4.006647715107511,-0.5776298456751915,-2.4357000550558987,-8.871231078648362,0.820576819757928,-5.992548068283686
102699,,-3.1989609316515595,6.797215949911221,-11.055668092800587,-1.8873592640224284,-4.940962034698333,-4.440981169629911,-6.634344973495979,-4.290248082283244,-4.213653477193226,-0.752465811675541,0.4932185838043289,-9.601181204237571,3.8454739882782834,-8.906504095200754
102949,,-5.404897828218946,7.448611375040953,-11.521550365162412,-4.957001617867628,-2.7759823187486448,-3.1946519556541024,-3.970740362061276,-6.362201433663071,-5.403125997686664,-4.648274816741576,-0.2463329777558426,-8.2266656768831,1.1908834711978635,-4.223536180725699
103199,,-3.922437070883381,6.392529538725913,-8.683833325160988,-0.6995530038737554,-3.1328135816682683,-4.444305641284693,-4.239072454019146,-4.123979205795106,-4.919389225108582,-7.810983371026046,-3.985471300066135,-10.269339523611755,2.617466157476913,-2.481942884951621
103449,,-4.538935268895851,9.535663840467794,-4.874637697314791,1.6120638237637797,-5.524545929339396,-4.816116970418002,-10.15900404640686,-3.845584473769822,-1.8418561743062285,-4.1397001074407775,-9.042654110857251,-12.712658203926203,2.131765215851775,-2.6324753699573487
103699,,-4.2873136811144015,9.924001024479582,-9.291539751894572,-0.7047671396989235,-5.353351966710315,-3.842618491028673,-6.121322309473277,-5.656428855933582,-2.752477032054421,-3.533350216639197,-9.774248977625302,-11.587951461097092,2.389378794159899,-5.375592427437472
103949,,-5.613696990460638,8.108717834571767,-11.234338757199955,-0.9213401459008196,-4.2077309885196055,-1.829399489804912,-2.4500761838258405,-5.768588040327645,-8.541544992598306,-3.924060527760084,-2.9994453989938643,-9.955261574100373,5.6167488162594745,-9.591407617042451
104199,,-7.716091509907498,5.300449221424223,-11.78238868059534,-3.95466544098456,-4.994447422878135,-2.021880957172052,-1.6642019909030423,-7.75544142141393,-9.14026220436541,-6.604960709405652,-2.3235947319375065,-11.068065051722728,5.721913347948724,-9.056959157132551
104448,,-7.564397876929564,10.180178565782654,-4.299724314063709,2.38439790727727,-8.41098411154803,-5.798034726724591,-0.7916133493387143,-7.187332816634026,-4.996149621704719,-2.163552990691748,1.3588170951609688,-9.250815177869246,5.413445165342492,-6.819062392780881
104698,,-0.1832973325341861,11.570428383199667,-3.310445089544257,3.89723524114094,-6.167687753268457,-4.517306665520144,-2.761613617880317,-4.593170987398982,-2.698329746524939,-2.6094833550912804,1.8726025254854184,-5.920941783618575,4.43259741395289,-1.91926139896108
104948,,2.289201266893093,8.903302607050062,-3.6358182215461183,1.6717003943175734,-4.388678438597497,-3.6914872528870624,-5.5137230013083975,-6.422464997397986,-5.85188510846137,-3.463584384968504,4.809419703322909,-1.143005919476134,7.535515217623717,0.8188524898417371
105198,,1.6227567360624295,7.7181734671667,-3.456777537268512,2.0481733369985324,-5.663358356073437,-4.670913833914393,-8.326250742291768,-5.355834882255827,-8.056820989502391,-4.525172792046391,2.043886296248163,-3.3772402576939515,8.587640598636211,-0.2021664240034976
105448,,-3.0830237669281386,5.377593720311804,-6.482959630018867,-1.4271624376985517,-7.145590807705738,-7.12514451697968,-5.749244976777334,-5.061418382678433,-5.011170069031884,-3.745940757760021,-1.3211548015941774,-6.782328888488149,6.416629895339062,-3.5918225752747563
105698,,-0.7024618934226573,4.683524857652753,-8.840189992648888,-6.17590890121548,-9.276454459676623,-4.995469612730174,-7.303936657604051,-7.849092191122004,-6.249136381524487,-3.3134126574415816,-7.007854535133316,-8.518847141222482,0.7736248510255015,-5.924944800175839
105948,,2.8603536000072927,5.145088434689555,-9.604331431695352,-10.673680424220446,-8.20804366084608,-3.0277174342575512,-6.62165200487452,-10.485153813924594,-9.832618412442146,-5.029964183976812,-6.407127680829476,-6.949647394312258,-1.3351158401879029,-0.820159246471557
106198,,1.943454432837925,5.574454155437399,-6.852006693066901,-6.526627077922197,-4.396416749859041,-3.975488962388245,-3.707064832253498,-7.352720347197927,-5.170709685009792,-6.839503819208894,-7.491583354768643,-8.947478247962955,3.0939089392481867,-1.894196042172944
106447,,-2.053920790661405,3.5965780064032646,-8.757938382598157,-4.808107292419167,-3.0115402137788108,-7.082260520795661,-6.793508090894791,-5.07683293943821,-5.665390519448236,-4.033412882172297,-12.28669168607868,-10.740672682412988,2.1520001153566746,-5.27403344727012
106697,,-7.219621616064274,2.792322530282607,-8.461751954954986,-6.3192221827263175,-3.6956749730287455,-5.677589426553825,-10.110830486944351,-5.8181672968131934,-4.866785894902094,-3.5106562046583614,-11.229545345405825,-11.476360733279057,2.49960254393886,-3.711688728035445
106947,,-7.371338007207786,2.1425030108558776,-9.016126109231903,-7.758967753296044,-8.489227095341729,-5.95765945729045,-10.715386522065764,-7.465451909268013,-7.461498086918277,-2.5658314695708686,-11.326011339968014,-10.55420603888293,7.035095321638182,-3.140677583573209
107197,,-4.579004668996052,-0.854653768924291,-8.768188042345528,-4.596460654522736,-8.412132142209977,-8.632927440027167,-8.661057895196858,-6.968973885846827,-6.081174010779558,-4.186151520719631,-7.990423249548017,-11.384200148900732,6.33703170468756,-6.462619147774705
107447,,-2.5684261912090363,-0.939140304499812,-7.121586300042536,0.605781892667273,-4.080364663054576,-4.371880819699546,-4.94108518770941,-6.204584584781287,-3.4698063790965303,-7.797972483876491,-3.4238305743812,-9.06597955912571,2.3997671537952807,-5.963142905139457
107697,,-2.093942828945957,-3.4245902030574573,-10.089452269390843,-0.0570691600223807,-4.311557523719318,-3.811189525364924,-5.402080478345159,-7.186337268018569,-4.897759905048842,-9.015750849171376,-2.1391621964462395,-8.447279690590188,2.2934789452244004,-3.501044735306256
107947,,-0.6233489061538731,-0.2106939691597615,-8.882493458766014,-3.773445746891546,-4.770159810977147,-5.969157296879858,-7.129284513086359,-5.484646462616461,-5.613591802501561,-6.9568511984282,-4.283552043478343,-13.042181495481715,6.7933933176467285,-3.5460325804620147
108197,,-1.2858614785300737,2.053288020512168,-11.400661824895028,-5.176521945185799,-3.4408911988925284,-7.581846425521713,-5.417135231951832,-7.107742035942492,-6.363155943738232,-6.599106123566426,-2.6634132034878277,-13.820911048249746,7.123358729447091,-3.9619665152474703
108446,,-2.922974914752241,2.9998387825574278,-13.75807334522925,-3.979620156659406,-6.443560977229701,-3.0028565628698454,-5.489266074014827,-9.180728739965822,-7.485394704956237,-7.060468513698522,-4.853993860924489,-11.725069370307532,4.533024714018211,-4.024649753994319
108696,,-4.2608796116966055,-0.4831268487276012,-10.17919472178498,-5.391022543828802,-9.252089295181596,-0.7461148035642108,-7.1784452122856655,-8.673036259103785,-8.89005608597933,-8.685941175412834,-3.1985953275704384,-9.98488465260545,7.355290156752274,-4.560200908530029
108946,,-6.856489010402424,0.2156548453072951,-9.45398077761508,-7.739750760120989,-6.030746176382106,-0.3254542715400185,-6.441222723921937,-6.199382457204276,-12.345713475410228,-7.727670579932493,-5.301408815383919,-8.765153173751646,7.540994519667762,-6.317632781598319
