timecode,event,eeg.af3,eeg.f7,eeg.f3,eeg.fc5,eeg.t7,eeg.p7,eeg.o1,eeg.o2,eeg.p8,eeg.t8,eeg.fc6,eeg.f4,eeg.f8,eeg.af4
0,,-2.007958083393537,7.011348644837585,-8.475255150482155,1.6270625209919751,-2.953897541177178,-4.482947265408072,-4.824158143689728,-4.2314707266841305,-6.678235745281983,-8.229334977338011,-1.5211551404833257,-8.791857266365973,3.759691068396773,-5.031225749542374
250,,0.4206286655775257,8.757820100069008,-10.969876249725525,4.1069114711377495,-4.113860025087269,-6.778374747910463,-4.020774539643316,-3.259081774860248,-4.481263160100278,-6.178777931148948,1.119666223298901,-8.748245764530568,6.116977827634615,-2.8732908546363944
500,,1.459764064111243,9.86353173399868,-9.019205006142226,2.122618693637019,-4.374045237916434,-4.577922167786353,-5.789339838645854,-4.211790619128259,-3.7373225842339943,-3.693576913332674,0.0986545261490094,-9.969572020394445,8.65815375474557,-2.776713507879076
750,,2.9374310579692904,12.48645108932669,-10.447417468759228,4.165449056059954,-1.6947035773092232,-1.757193380511001,-2.583109226189805,-3.775316172443537,-3.907378986694174,-3.9666986987040014,-2.680982808772198,-8.591732807781742,8.018475894720101,0.7477546960616397
1000,,-2.7785363736292985,9.428617876918448,-8.783562552002952,2.0358245103049475,-3.428202498850772,-5.220253346467195,-4.854136090232781,-2.75064049164897,-5.7483596215254105,-5.463521231751825,-2.945006455524108,-9.320065912595856,4.328299616555353,-2.344835092431324
1249,,-5.6921926961383775,5.082602850109426,-7.061393827794986,-0.3826979725763094,-2.141039088390371,-8.216849219079347,-6.548453734211186,-4.168803662041411,-3.665666077915495,-4.672765586257538,-4.064814004791994,-12.023799312406103,0.8691317676556514,-7.317054638293672
1499,,-3.819758501542615,3.44224129854273,-8.96649845217287,-2.6273468586203625,-2.514437146818365,-5.258687684521797,-5.269933889657542,-4.516224097243236,-5.267783743242723,-6.9205767192611125,-5.86915166025819,-10.094304462261691,1.0318308242660486,-8.375706727174551
1749,,-5.067594843105749,3.796397208289541,-9.907277276295597,-5.643245045902392,-6.588077520955212,-2.3421242379938634,-5.983446270204924,-8.369544643004094,-9.120091145430129,-10.041273882893847,-5.028586875510491,-7.607260470224388,3.8969380543510894,-8.115863221989521
1999,,-6.826302940881005,4.919026210778633,-10.430927633238532,-2.8350530422956384,-6.021802396430827,-6.815614189808517,-6.49340640704036,-4.817604835580252,-6.0174594954497485,-5.801261579781797,-6.110416856772135,-7.574735697921133,1.5918077944009614,-9.700375473249498
2249,,-2.951143633813775,4.711864164475934,-11.076376654401583,-0.9819438552820292,-7.483863278289791,-11.61932047881175,-6.929588826901569,-2.0655861928994588,-2.8838747110483256,-1.3525821781190372,-1.1873003905267605,-8.65630460095918,4.002095172644614,-8.191781149678109
2499,,-2.6524170372368343,5.255793405770886,-10.548070251022132,0.4287402132027362,-4.244873691872947,-8.36707393086478,-6.349556810075664,-1.563164723492878,-4.136523528083488,0.2409280845817929,1.165315881409404,-9.46558385467979,7.563370517259775,-6.255048536827818
2749,,-3.4011287497111624,9.235626492445547,-10.577714982127128,0.8383647007240598,-3.050875771291845,-5.391156912273493,-9.35849277069526,-2.992948343432769,-6.4356756777076205,-2.370165711048482,0.4732116929656266,-8.987891216885199,6.490594519071884,-3.089794351046592
2999,,-4.100748347552033,10.740124481101532,-8.221956243576557,4.1809306504422015,-3.787152246810941,-4.494362797250532,-5.029232447869143,-5.772135565030321,-3.199823129464181,-2.7614894978705125,-3.697783204101152,-9.096498886079646,7.118114037049167,-4.53391965039437
3248,,-3.509902588293243,6.43688395986199,-6.98024596481427,1.2099555471131076,-4.207596718599368,-3.3466509104953417,-2.395581262595564,-6.136491870461316,-1.546136368842528,-2.6005723066595325,0.1017884827546797,-10.613633020436588,4.715182744300749,-6.357760876239931
3498,,-7.119117308288915,5.530738149680087,-6.325587305916589,-0.1276297682195218,-4.059223618173964,-5.985167655863108,-3.540203994173305,-8.009926312754978,-5.742070801934816,-4.068266431980482,-0.2508072984735292,-10.385436297040236,2.185104209203876,-6.275717329859982
3748,,-9.33917992319746,5.939373283706347,-8.524662283167736,0.3177060898741273,-6.3447104840022215,-4.502817980583895,-4.677492093142835,-10.291279875840306,-7.164322829129209,-2.798767723028795,-4.975478799044534,-10.642991870601245,3.0136926606172976,-9.489824305221935
3998,,-6.398998582948287,5.128990308376753,-12.80350575980104,0.5750036196259176,-5.877016308977158,-4.953174185398785,-3.737822804786832,-7.849352602213415,-6.281265594162928,-3.4692515518192164,-4.305681749221295,-12.188295056666842,6.054276643854262,-9.97923135785262
4248,,-5.644292338897603,5.8719064284886935,-10.735172959769836,0.1671757759390275,-4.140867569779873,-6.150974885422346,-3.2296027225389112,-7.237673498612879,-5.663739020642371,-3.605577299645872,-2.0861816129920783,-10.569123547923391,5.889078863210965,-5.867929146804566
4498,,-2.6636457796659005,0.0988599489831336,-9.884929145655088,-4.351920637154744,-2.693480615397943,-6.092479352069918,-3.730574192865818,-10.42641928836636,-7.559119124139918,-5.668032074753051,-3.865769094223083,-9.888510510319884,2.4988486195599875,-6.894122554871237
4748,,-5.679994984476005,-1.5434426695972137,-10.072945155785444,-6.871949242293052,-3.888438129625993,-3.617735084773368,-4.416412446218336,-9.513220977909052,-8.13703594307434,-5.754791136056867,-3.314975137166856,-11.308626537681189,1.1882906647160456,-11.858857267551112
4998,,-7.540890300491836,2.7279595733824995,-11.374350419819468,-4.110751737372702,-1.968629142088815,-4.505557222110817,-4.953399840048455,-5.074508383772322,-6.913942701202243,-6.022379026631946,-4.593483720094722,-9.674535066635322,0.8367695032060427,-4.971438279070868
5247,,-2.293043049652665,4.950027015941182,-6.150908876208282,0.7651120394129102,-1.1308830382974275,-6.080468067797882,-7.070405146209415,-3.806086854883695,-4.540779661236419,-8.164148393468572,-4.94790673032587,-6.98984505690713,0.6204067213334913,-4.38613487318791
5497,,-1.044110789715789,3.097396325953862,-5.0406835157814855,2.660339985343099,-4.88097996047636,-5.706033211083628,-8.266515561360583,-6.618833830291204,-6.139050799339713,-6.619657027031663,-2.559241912725284,-6.525824563277314,2.2796829855328755,-9.89967181758898
5747,,-3.0922886377849395,3.668954935306232,-11.121268709861068,0.6776167898591563,-4.730984496363217,-6.151558794382694,-9.410494412007605,-5.13726558524545,-9.22443026125206,-5.20817181098014,-1.37631907742132,-9.413778405708628,0.892677356380847,-7.060331205967147
5997,,-4.220250964391092,2.9290507042061376,-11.907654957460087,-6.285000186989491,-5.59523699944611,-6.8158895463769085,-9.411713010551695,-4.366808760900929,-8.075657735000485,-5.298330102724477,-5.963069570468903,-11.8343735500288,2.574082657039964,-6.68160220430355
6247,,-5.788353145647607,3.037349588920524,-11.745443556080904,-8.466332265017178,-2.817063063331715,-7.238714906078768,-6.262094232365443,-5.572946911378905,-7.548043157155168,-6.102699417140616,-5.702757562816303,-11.186116575453568,1.0793854346171108,-8.158496517032678
6497,,-9.186951566453466,1.2744397792039075,-12.917447064707844,-8.063356412502287,-4.631209395662416,-7.526106694396017,-6.04381756819933,-6.34220901812637,-5.422512910824868,-7.100440121745298,-4.317772550862557,-15.069368835730742,-3.7039589789439793,-9.781712554748395
6747,,-10.643910071789616,0.9652462474562038,-9.659978269670702,-7.292978165254907,-5.64488298702272,-7.622036123376345,-8.648554117417294,-7.373520291075913,-8.414538470902167,-5.232678143512408,-2.4159051161856744,-16.98386481189489,-5.52293082567236,-9.214126081340098
6997,,-13.069965466500362,-1.5294521447420093,-0.0063411804895189,-1.6206293769429765,-6.438979555293796,-6.853659530790642,-6.227545838416559,-5.240752437409459,-12.2853193269877,-8.633999203987429,-6.165180975712401,-11.98288038928488,-2.778147095901995,-7.0325790598000015
7246,,-7.219758129963109,5.431436757712152,-1.1098704538796702,2.7277849756813333,-3.665005000857196,-6.450824454910865,-4.586762000613401,-4.923155868638895,-10.65613914078722,-6.556132586462987,-3.66630422340322,-10.79818257922524,3.159846585441852,-8.432431134165114
7496,,-4.154081431813152,8.522244932959822,-8.411375141765035,1.3070007468825926,-0.3877731304433121,-1.6683051313046695,-3.775105020266248,-4.7040129032077225,-5.146642257356028,-3.951042562776678,-2.8455861030077614,-7.643401281797583,4.619078028368033,-5.948031608646573
7746,,-4.722195508995659,4.869310181566332,-9.07287153710136,-0.3933853161587168,-2.077335051721273,-2.6837217173375407,-6.468460322164795,-7.722017600155967,-5.227055290958732,-3.615029764715751,-5.728149818392144,-9.647475916773496,3.357444782880325,-5.787086794476618
7996,,-4.713450902480119,1.83780128834898,-10.628939345788847,-5.597042591727293,-5.414152562490152,-6.593383174239508,-7.574122609602439,-10.908497289993374,-5.603157413275682,-3.5330950144001303,-3.854238173758581,-8.129853507416811,3.0005934362079123,-4.268597962296075
8246,,-3.3638104850379413,0.5718794235923684,-10.53045195562535,-6.507281784094419,-4.950985447063562,-5.853530038132664,-5.991000523743452,-11.778282158318143,-3.871851453031221,-3.6625053957167184,-2.4892650710662334,-7.69805568474029,3.033824319794656,-5.438441183357741
8496,,-1.1304719541233903,-0.9590793488223937,-8.985316673756511,-6.862355995380796,-1.171668015641444,-5.156976420731675,-4.668068104563043,-8.618413502399283,-5.616111283409655,-5.274321699488331,-0.6594242074476955,-10.20112501573652,4.179209840369192,-4.994382232678229
8746,,-0.7682296120968255,-0.1543663056809388,-7.717869361205835,-6.833041454647523,-2.3942450737901826,-6.430909993071468,-6.281367201736879,-5.5188498652724185,-2.6445120378405704,-4.569838602073974,-1.5931936712023185,-13.266796924302726,5.529285419164927,-4.06275414001969
8996,,-3.0917816388074453,-1.3889926530587813,-10.478367825353423,-7.2829926796730495,-6.54678207421224,-8.703130090624844,-7.595981593829309,-4.95602275178201,-2.335033101770551,-6.388451464084401,-3.814970350016565,-12.12685755755686,5.815572529511127,-7.286937225382479
9245,,-8.435030076802978,-1.4529080219074957,-12.65919506593071,-6.194061211571949,-5.142351200684201,-7.333649327338197,-7.784433605347263,-5.53256530297619,-9.094914920792998,-6.901435617081547,-2.3742575948600937,-7.079686339242337,2.183957664350657,-7.685276371772414
9495,,-8.354640985124353,-0.8418475268196073,-13.230124727934566,-5.241802343823418,-4.860026170469563,-9.88593365281122,-7.280046398319756,-8.018139908377954,-11.131442205685786,-3.980726435068056,-1.243151291582071,-8.557604802518897,0.8386849176508969,-5.8714175020816
9745,,-6.126999457615449,-0.3503262424653872,-10.49912474729788,-3.327409145323838,-7.002763623912687,-7.314845113268782,-5.844401058672881,-9.179022402651608,-6.214709875199649,-5.940152914190076,-3.8944099614458354,-9.480746048974078,1.5613437452958292,-7.311700949569156
9995,,-5.796153705010751,1.443965907163789,-8.83540266162424,-4.406653934201707,-5.670869713941099,-6.914210289059967,-5.844384248511851,-7.638318948325256,-6.64795135444866,-6.624216177317644,-1.040482395473226,-2.9698855312082384,1.722965555647301,-4.860531513304021
10245,,-4.102651554462139,3.76717615257294,-8.206367854725716,-6.405486316153911,-4.617057667068543,-8.468758155273497,-5.426472641215896,-6.021176188233134,-8.717198969501577,-6.445302160695105,-2.61476963150772,1.002151954341124,2.344853663651468,-5.46548345285268
10495,,1.064803612973304,6.637823033458404,-5.892463477885922,-0.1689244867751531,-1.7660229514432937,-7.16194985173372,-3.875706875663128,-4.176543326655533,-4.070232378619701,-5.117108664674506,-1.5744062399549164,-4.8660097396592406,3.3352362749497537,-1.3896723169789098
10745,,-0.1580730331594848,5.775082225404199,-5.773249120992242,1.290330278188776,-2.323682533860504,-5.802646292626904,-6.004359494247354,-5.596524581665968,-4.056986796592458,-2.5782666274871917,1.4009177265977355,-6.609925315764574,4.001433754912068,-2.1487029889754026
10995,,-6.284771311864111,6.703261927481751,-6.17910584365034,-0.7587896274304946,-4.91088798390034,-4.944271528670523,-3.5003477666645173,-4.9504841179902055,-4.497263290188527,-3.3432391598309428,1.9484705534218567,-8.097431635503948,6.936650947412998,-8.154911651053922
11244,,-7.670777870174971,8.655506279277795,-8.591516262174352,0.93650090753768,-7.410571482036663,-8.19559317449438,-3.055265850857169,-4.295081569712164,-3.0138018089069334,-5.345488485877088,-2.20515844672371,-9.554317399645464,6.467281296711934,-6.634390727611603
11494,,-7.049707073949652,8.055516778187217,-10.944205111388694,0.5214368163570429,-7.308581857014364,-5.903229177508617,-5.8072518854562825,-8.9050299302586,-5.305568533547369,-8.958643742748936,-3.850665179543876,-9.29790656955133,3.088113688546381,-6.547684618416287
11744,,-5.56657565274892,1.81359458983757,-10.022316464491029,-3.80813972684844,-7.69007568678728,-5.138652994395415,-5.492886026592507,-5.405020098894723,-4.945397732257007,-8.27671848744992,-4.145007203082297,-6.606154377493696,4.4832458055439535,-5.181165643000282
11994,,-5.14346500683668,3.667982427877563,-7.893077563883624,-2.291187065943109,-7.89664095625167,-6.668178447486185,-6.070371787112375,-2.4219693531866326,-4.548641963371873,-9.277499526979936,-1.881719765415929,-6.850152111277491,5.472535446725311,-6.358841047627401
12244,,-5.140694374540188,3.807661707342618,-7.319197979205021,-2.3037826351082864,-4.768525876007104,-7.339270469283326,-4.254371557008836,-4.792559024710065,-5.791447007856734,-3.7436748647308704,-1.0234138628102805,-10.357582711636583,4.989614221514366,-9.608720973619665
12494,,-3.105468298284792,-0.2218567059670987,-9.570475808381207,-4.141650149200286,-5.009318847160729,-3.676933348965294,-1.6730485155042143,-6.596099752132304,-8.582379100194409,-4.583862846943107,-2.8879535332562183,-9.428684822358246,4.418564858952312,-12.42330786291835
12744,,-4.200095594095544,-0.1427592688621376,-11.48180154083084,-5.562669225136209,-3.880501953202677,-2.743221518708901,-1.6194530510876537,-7.5033766790431935,-9.593925402816332,-6.201485418411696,-6.052720116212749,-11.324398534421691,3.8638219534661817,-8.591431662439597
12994,,-7.936966899806324,1.847657330510852,-10.669444481462548,-6.990756563884969,-6.922229736824692,-3.6501639825766574,-3.271329191008454,-9.700874608833542,-7.826318347104562,-6.626411594255237,-2.256410140797575,-10.285902874030024,4.151567103425248,-5.173901691363733
13243,,-7.447869652842305,3.430439821816464,-9.858611914882983,-5.894519440153896,-7.150559215176084,-5.461931632279173,-3.919162211073404,-7.345317012868591,-3.09723236865964,-6.287938998050889,-3.430694126106679,-9.14013240730756,2.738922439293198,-7.403183671835851
13493,,-4.580678998591189,3.167000078943301,-10.083924715761157,-6.108860865469589,-6.447953591254096,-4.727500603092566,-5.698302845568461,-4.567284827760728,-2.666763505067525,-3.348569581403206,-7.176573480204015,-7.709609757149717,2.635115276112176,-8.004637818207554
13743,,-5.940863680471843,2.240244302402344,-9.836290893888778,-4.693775056611543,-5.803840751619585,-5.38689556906562,-2.8196519299929115,-7.407559802933465,-8.158827725160917,-6.254910938561771,-2.8229189576968823,-6.33530391886195,1.960103635274532,-7.111680412726371
13993,,-5.477909644034527,2.2654959154746126,-8.21512658987006,-5.635273004103399,-5.55582069333957,-8.440583062631937,-5.533663004782357,-10.773080911976358,-11.178082130433449,-5.872119823996336,-2.1239251409191806,-7.716084710752002,1.79185365800332,-7.704957198580816
14243,,-2.1136189207053357,3.343815937336996,-9.26142685905399,-6.5472907645288005,-5.739180034643647,-9.324073398472231,-5.942762423120295,-7.2801651820909585,-9.783085630307994,-6.917542517989177,-5.863942496981435,-8.957694279642862,0.7005702828954042,-4.39230713941417
14493,,-2.2476116392541647,2.467348226145011,-11.27098446196104,-6.9666887640317965,-6.726399679401858,-7.380086533855747,-3.0561160414512174,-4.059477260310878,-8.939726494280407,-7.975890618516821,-5.825662838105393,-10.411757464032522,0.20822315455897,-3.292197636077309
14743,,-1.8858269505596947,0.9406695516703222,-9.433457776957647,-3.464855555639824,-7.127027745369572,-2.239670716866799,-1.5486729521377842,-4.964205098491675,-6.222530841382885,-7.088466047613159,-3.824988440695548,-10.38817908920448,4.0154385934102965,-6.359548918240159
14993,,-4.003926143250309,2.452650883926084,-9.050918768108795,-1.8963385364908565,-6.256044050391278,-2.6356325761677346,-3.596603948540675,-5.8843984241252345,-6.852376155645735,-6.075952911852264,-5.809977577395468,-12.331472092907903,4.271266719708953,-8.341568453080445
15242,,-5.753693967094114,2.3959870942178947,-7.144985178013389,-2.317676312570782,-2.030839561365902,-3.584730951275808,-3.899346990924376,-7.703602568212711,-5.942726479419833,-4.97173619446312,-2.085268023575446,-9.382771424332224,3.46859142713924,-7.959385932033567
15492,,-3.539000507490776,3.751998715094444,-10.737862798770871,-4.424294031920105,-2.3660281820957536,-3.369749801394963,-5.047670628891215,-6.55827091662575,-4.2525375160353205,-5.093393936974016,-2.00322457736792,-6.594854547682026,1.7674222835395907,-5.725033094725646
15742,,-5.0828435986856935,4.649291206859241,-14.945609896162129,-1.2883666517699752,-3.762246856956432,-4.8330313471469655,-5.129910511057052,-6.253806333369582,-6.930429842287456,-6.378244986945933,-4.431596612111944,-8.928521850957186,2.395286915837133,-4.725029950011046
15992,,-3.230614135841865,1.2797272119771046,-11.844771186059765,-1.023116022179916,-5.891576035923112,-5.9221552904967805,-6.703998700252207,-7.147058871910942,-7.0163953432327295,-7.557600983399553,-3.829912655459975,-14.430736832837823,2.3187253459857087,-6.549798506443626
16242,,-2.2387898920726226,2.001493040447209,-11.092140372265726,-2.9559522094347,-5.6221342845814455,-5.013037403912529,-3.47905888906636,-7.20505274287889,-6.107107688704478,-8.359508220340635,-2.255285175746499,-16.973440735679297,0.6872079752161471,-7.546669452445901
16492,,-2.8717632385778558,0.1388004268034876,-12.912298726191986,-3.123890827599753,-6.707793052400234,-6.876312698411249,-5.845431888657673,-3.942059986605786,-5.49388381185442,-8.36260205225421,-2.209198773424734,-12.328127577050743,1.8710282602370976,-4.422350303237021
16742,,-6.110375995378322,1.0414885979075164,-13.842870898893253,-6.220863239100087,-6.22352146762011,-5.603368414879616,-8.116056037582277,-3.530863384737933,-6.668045752445079,-5.4611570784970285,-6.649251974453367,-7.752795346469107,0.7495458577734646,-2.253583813621158
16992,,-10.25497796046917,0.7186134441169533,-14.555092138907415,-4.175508626031682,-6.923224928779272,-7.164314652768603,-7.269471885352015,-8.705598992754526,-9.771596756017232,-5.179242023742448,-4.01524192975408,-8.841956536275575,1.4644525080661008,0.5129970801395298
17241,,-6.8972616930558175,2.2818946853134925,-14.166228190678805,-5.73770657137233,-8.682342158176251,-6.588673877925201,-2.994109585818853,-11.508655141848651,-10.19291458309012,-3.486936452776448,-2.862154105944335,-10.86526078635998,5.07156697350521,-3.223836133631292
17491,,-7.487128583188749,1.697312761820315,-13.16710843208201,-10.27166258618049,-5.417566196197533,-5.5471303600550605,-5.044376003560015,-11.670689057385015,-8.199166159085198,-4.932952710751622,-2.856865115355944,-13.06822990698091,2.223437053548185,-8.28921505531699
17741,,-6.183623470517561,1.9186615551413695,-12.782953336659205,-5.084968508592183,-6.569252177518012,-3.876897318789037,-5.742134214124331,-4.863319602425523,-6.009923764764524,-7.277243964024236,-4.261782958118325,-10.979179360909558,2.11561951299145,-4.102880331061069
17991,,-3.8488755766778926,0.6785991837014085,-12.868132418411957,-3.6660357564202273,-8.543354610813225,-2.7317479199172223,-3.9428866679766825,-3.677989626735909,-4.75337142137076,-5.166449557011151,-1.6169673663240711,-8.631696471592393,5.014848771842624,-3.9206602694986254
18241,,-3.385385981713052,0.3743320642740244,-11.331775851521384,-8.540534284729532,-7.965760431279727,-6.266383041717354,-4.853314260937626,-4.334455945433162,-5.140451622684004,-4.694990946474599,-4.903701685015734,-11.909153456963592,4.520689365764633,-7.326360187333327
18491,,-2.652308701768818,2.976652995097577,-10.168538534644991,-8.442711583881309,-6.564804679792712,-7.477524523941506,-5.564899272583811,-2.9822360632363365,-3.986107381021214,-6.514893334366203,-8.44050249049253,-11.5779549434384,1.3057151128792377,-7.500381849401542
18741,,-4.165918977686096,3.8821502693111287,-11.29279492921338,-5.663566250722986,-5.704883589849628,-5.222174297061302,-5.647176392405555,-6.478061655047894,-9.081235074891447,-7.621678181473673,-5.340347527444548,-11.650735936620048,-0.398295136844335,-1.0256843241674944
18991,,-6.225695876162166,2.0563215111356907,-8.518681934445107,-0.8498948202556587,-4.547009272497089,-4.572527641465297,-6.757658737431705,-12.31801614045576,-10.505356995264863,-8.631146382505436,-4.357423798518293,-9.598002372493378,-0.5635953095589533,1.1761902599961234
19240,,-3.893934274790753,1.87753467025726,-9.24387063643819,-0.3047697723267957,-1.7807800213528902,-6.175592540028419,-7.633137449143178,-7.865986020719951,-8.10501646364494,-9.845664646757816,-4.992306082094988,-5.762794579169441,-0.9192977405445056,-4.79393801503951
19490,,-4.362998143751336,3.1907307102850595,-9.375664264020577,-2.671615033903427,-1.3031817400212282,-5.480246893932748,-5.41505716789211,-4.878360169496776,-6.057849632855843,-5.4215061808717415,-1.729497983222137,-8.626140297679862,5.245581883173656,-6.768430729104265
19740,,-4.309004360277618,4.666756713657121,-12.257751732955622,-3.784578681789455,-3.237737682952242,-1.1883722831409351,-3.21545810885529,-7.114845443805667,-5.126618704110158,-3.9419103019809807,-0.8257576742573123,-7.181923775683686,4.881467573706424,-4.095045573528203
19990,,-4.924945044427391,0.3538276517244286,-13.97460427336984,-6.647297867065323,-3.6085487639664695,-0.9207007410725953,-4.915171886504907,-8.609332949042873,-6.287171888333458,-6.69882828582955,-3.534814859134168,-9.510783461542296,0.1734586901406875,-3.8540255748013874
20240,,-5.950291623636444,1.0822634983572696,-13.113389302882789,-4.976073879525615,-4.948069429595279,-4.53976666464847,-5.093261601427824,-7.684195053950584,-6.6455890207644766,-7.461112484046986,-5.014020261249516,-9.334200022491173,0.1106684405174,-5.860924565033274
20490,,-2.906597803727333,2.538512081063282,-11.569165251343566,-3.69700740777146,-3.832554410408071,-3.25375301824437,-2.0380913998851247,-8.005043243589485,-8.336689983711453,-5.149947460865274,-1.394603561531556,-7.482861274702895,0.654597455564979,-3.561380352656079
20740,,-3.727405805586197,3.6449163777825375,-10.110010372054155,-5.085413477757807,-5.805936114160475,-3.9801244343425473,-3.870266542443019,-8.183013567673834,-8.173334769442363,-5.828105930218912,-0.9466368408882752,-10.419750396031263,-2.727202904142511,-6.261365328577767
20990,,-6.957408416259448,1.8290384570632168,-9.127171201298513,-5.296120246142753,-4.527262869582941,-7.746468231431763,-7.353244830448251,-7.548666374958098,-8.710650283052601,-8.263142380396614,-4.235824353144611,-11.25572932111627,-6.096898627714754,-7.610408607670327
21240,,-7.060144002727928,0.8943160619923958,-7.438775741585743,-9.271058911246271,-3.3867987741093843,-2.9633777720977657,-5.65387268988156,-10.306349455171397,-8.787237279459196,-8.83067529610062,-5.757920950650373,-11.259975779606208,-2.7609568567975207,-6.8831875755933964
21489,,-6.252164017635885,0.065992313421538,-7.823387987829528,-8.571314040757118,-4.954011931701286,-0.5426596336860185,-7.979935543720278,-8.56747318106656,-3.944649017154101,-6.969268473922585,-4.003771892428139,-9.347526144155916,2.4410482648077765,-10.059428361122327
21739,,-2.893259742729905,0.2901471616247702,-11.1162223963867,-6.705621269840156,-5.505880798367703,-2.535142440780903,-7.235316785623988,-4.789097681585436,-2.953308634640381,-7.371385936924634,-5.33057039455856,-9.020331182262256,4.3709447655027205,-8.643176086852364
21989,,-2.3794124755669586,3.293492567619185,-13.903723137557892,-4.033530774925083,-9.43260492225399,-5.588631744706562,-3.867937332942631,-4.286458317585837,-5.393325628600421,-5.62271226262549,-5.497740768090404,-7.103040265101503,1.151929814075744,-8.3668513241937
22239,,-6.525329283121585,2.976608637729697,-7.649945140735004,-3.7870890904412686,-11.818784433088243,-3.547429529507898,-3.427806874644558,-7.13717539335072,-6.462187630088393,-6.007345041079017,-4.070856496779569,-7.370836168219825,1.8859162825203883,-7.882721772631417
22489,,-4.780886449175616,3.3214300255384983,-8.274481323732179,-7.001248787639577,-10.369233444402422,-4.402886617770872,-2.572340096017665,-6.334931408128681,-6.961886013805467,-6.115332034014882,-1.928867514447572,-7.686839678279283,3.58067238592938,-7.514985973839585
22739,,-4.7385067905663565,2.374179739810756,-10.438581002251691,-4.983502483634799,-5.606375202104078,-5.565600032885161,-5.316551431488862,-5.867845088433581,-6.315928322049836,-3.773669818837298,-3.180303192438012,-11.009570728098,1.1098116649639678,-6.245308821507127
22989,,-6.698622107264941,1.194997163017357,-10.334156735228854,-5.434154517120756,-3.9165759497494217,-6.305844140132485,-5.966581573797896,-6.1015922432290886,-9.910960860039186,-5.638655640550381,-2.988157036041131,-10.553221535429303,0.9923657748116042,-8.408807521290715
23239,,-6.647290673689836,0.5658789546141202,-12.127457896966972,-7.654838306328829,-5.075374310275135,-7.016577091006766,-6.962952297324194,-5.1235299842760735,-8.30309876130038,-7.408700004385462,-6.173354252242081,-9.080951723854817,1.3268038880219568,-5.243786364219389
23488,,-2.9361196102715508,0.2177361131036037,-11.949467950115809,-8.844096037118007,-6.626818226565839,-8.08542434411083,-7.051882240888751,-3.168283050648718,-7.844229889877933,-9.150969985038095,-3.83196943380948,-9.948911383986124,-0.707134581989878,-4.602441060545589
23738,,-2.264293979100967,-1.2581568403987342,-9.161497042811185,-9.879369520330595,-5.576513196163917,-7.000302318929067,-7.187242545888905,-4.691633790327346,-7.641767076572039,-6.002017854042391,-3.617843626169257,-10.9069010295484,-0.0008648802291194,-7.985470005781425
23988,,-2.8120943385462027,2.2625801039958,-8.680372843836741,-12.236298058825945,-5.23060951539936,-6.24280069674811,-5.7076797237954535,-4.344161998952735,-6.8162869021608685,-6.313056500830671,-7.649594428933497,-8.798327801654864,0.6779840717396111,-9.227581725921448
24238,,-5.300508366584752,2.953901798218177,-9.855619225027766,-11.519877717831156,-6.21432430258669,-4.50695429491736,-4.207550002591166,-6.211878346175168,-6.126921827087958,-8.968601350825548,-5.433801504345599,-8.708929097988275,0.4261831261418132,-5.971094996931484
24488,,-6.833293430702156,1.2414325302579106,-14.2291446359599,-2.5311602003999143,-7.728650346278203,-3.4872388172313795,-5.666730067320335,-8.062139453858787,-6.553474265527886,-6.507304221403239,-2.4779854590070327,-7.806312581342055,1.8585727413306925,-3.505201315350177
24738,,-3.062676017342374,0.7132825234132288,-13.114352266349146,2.247476880042378,-4.664625434291108,-4.701898750637751,-5.153556860416906,-10.619574256667644,-6.781084532407365,-6.986784011931712,-2.8597140294534635,-7.319414985535707,1.176105350038957,-5.591915304676986
24988,,-1.0091654343446026,1.3161986736464537,-11.42688030647098,-1.1240498779883796,-2.3929777817573354,-4.058097789064847,-3.916943703591784,-10.3483010183759,-10.747675449762433,-7.115837333852317,-4.690442562498426,-10.568302204418176,1.6652125309417511,-9.00454381327134
25238,,-6.149331443557378,0.3223231994789763,-12.699575463378975,-5.91005725732388,-3.485586808036629,-3.403081784181479,-5.057996490420724,-5.8465876756162585,-9.742063966656035,-6.957441137075926,-3.6897024560347056,-14.434249641784811,2.3865360132388136,-6.834649507206793
25487,,-7.253783511041356,-0.1613107140040774,-10.74148470296686,-8.033242090549278,-4.713927928697405,-6.86207958814895,-5.747407013010646,-4.75760954213003,-6.666099769262891,-4.0279595463193285,-2.510089861957176,-11.54364088245523,1.4730346603814757,-8.41114914399968
25737,,-6.327553591189673,-0.2216908623767241,-6.803033796679559,-4.511422838735508,-5.576804005994208,-3.9039565734330974,-3.986877294721136,-5.613960501205026,-6.2744191817921,-3.902394274341556,-3.6289640741449434,-10.99551059183729,1.8232055617862095,-6.900556558374438
25987,,-8.726958070879204,1.60560795904445,-6.523484554687178,-3.051781067004129,-7.718329063161856,-6.908574247807586,-4.693417514453689,-6.458295545934783,-8.582103102674703,-8.462973489435972,-5.613575872115599,-10.53289650577258,0.196021020648515,-7.331392716163739
26237,,-7.6620071018161315,2.325751472131865,-8.966148091723046,-0.8146044777900208,-6.950285081934526,-10.325934366333597,-3.090130705504417,-5.0420379562323685,-6.595786767978513,-9.88775748536304,-6.958666474107016,-9.583850379482934,-1.6834006372449728,-8.788454631046884
26487,,-7.499100621778116,-1.423439540152177,-9.115903820184425,3.269961330950351,-8.175047356440192,-9.297719684773243,-2.7731920743501464,-7.581306896543562,-9.853395694123437,-7.801767857173352,-3.7150489200436847,-9.968445185230566,2.8737341873058804,-5.9017897935435295
26737,,-5.714826825085286,1.3433477460916037,-7.906567452810443,-1.641726469177704,-6.598765095317151,-8.531590033346609,-6.342356649747463,-6.668019769632148,-8.875660872457928,-9.013316751298897,-3.488203661555046,-10.250095256107162,2.1138210091326126,-5.34909978054152
26987,,-4.036896024039857,3.705015888956415,-8.085699935442182,-5.803758966317947,-5.205850861034184,-5.788945578045398,-7.787072009043148,-6.198362521622341,-6.047422777305513,-8.136274036328658,-3.4383196637937106,-9.166632694306248,0.0986127369301541,-7.565407211195127
27237,,-3.1694785778598398,2.1344655668839065,-9.17336277407217,-1.0606011442848482,-5.991938855700967,-4.329730014463911,-5.147052381602284,-7.953106871298821,-5.7895324156954935,-6.3689900455608175,-2.496031896878568,-10.034839339999342,-3.642999646161733,-9.012791900319092
27486,,-4.235740432682426,-2.1404897016358966,-11.79647008691516,-3.796145201289761,-5.887003196611131,-2.8175286108898105,-2.157188230426448,-9.242417093208624,-7.62498707857913,-8.611724130470424,-3.670092615186211,-10.228836090192,-2.369939887168573,-8.644550977940296
27736,,-5.15640744498925,-3.4727181325672865,-12.977059095607776,-8.844473143120092,-4.189217376345111,-2.319778884114901,-3.880885386776132,-8.242859470919942,-7.524863568897202,-8.852883215222347,-6.2062365976200775,-10.246459111481538,0.902088918256271,-5.797994160950991
27986,,-4.642313208677241,-4.883172023770575,-11.169334260515171,-9.1386839619391,-4.961184418125107,-5.155416909286884,-4.957231618876406,-7.242354109590684,-8.648563105413574,-6.803066677519684,-4.625343474092153,-9.521826952294973,-0.8572965318264429,-5.14711514736911
28236,,-3.14862966939418,-1.4339883685147747,-10.55943308379927,-9.070973404017783,-5.383449459208309,-4.623246021265848,-4.512689453274039,-8.27783713831019,-10.246148084247846,-6.64357302706841,-4.815729531327591,-7.142772976281027,-2.323950971728346,-6.3019449030287085
28486,,-3.923641383626313,3.0690100656211614,-10.01453919071611,-9.172079458633178,-3.3694092713011194,-5.495376678435092,-5.65903443030474,-9.628354180005402,-9.34111456431707,-6.308718246842799,-4.225657517347255,-8.298207769090503,-0.6672843991000945,-10.850785613990702
28736,,-5.273958058288697,5.483547666779691,-10.215486541567737,-9.77864335191225,-2.718956828988964,-5.263577686441288,-0.9280734663647274,-6.173258698364238,-6.79023183123276,-9.473272612083898,-7.262615782029296,-8.293353939313242,-0.0534363032200134,-9.714481619998182
28986,,-5.563746702344858,4.344223037930988,-9.632861126556795,-8.763464912626658,-4.638287386603802,-8.116360970158755,-0.9652186928657996,-6.23962420986496,-12.496497117520594,-5.566886633974403,-8.019686720764824,-9.38817360054073,1.6936960792426343,-8.030007871666015
29236,,-6.360091164906113,1.0022569432473265,-13.916523965203114,-7.410364781357153,-6.499489810224704,-8.005603776752041,-5.918748446283489,-9.7772092829944,-10.142094248857424,-5.352276651039952,-5.878781189062553,-10.631495227217131,2.909433426458718,-9.181638380416398
29485,,-5.506294062167905,2.93846833059174,-12.523662803840152,-6.480930941649271,-8.424634450140463,-4.11867807527856,-1.6534932485686882,-7.718541624831532,-7.006790441508474,-7.781052272827584,-2.453637856531641,-9.761569219212646,0.8846483531859074,-7.293208518488896
29735,,-6.124420996319087,4.900869022307697,-9.499720997630476,-3.684757858729109,-7.479354820775236,-5.935825988355148,-1.804204557894881,-7.072472006491847,-6.777462061117284,-4.44687600357533,-1.7613151928412218,-10.69646081818582,-1.023312188003511,-5.986752979761713
29985,,-3.454740047730127,5.094531665833838,-10.582457670490946,-3.842340364721698,-4.864397237613532,-6.452915511788574,-3.894545837223457,-10.835297894493824,-10.157484582912424,-3.490006532146225,-1.503465544178192,-10.77315808823653,0.6099513769287902,-7.638389047809446
30235,,-6.126943234132432,1.0905848555664783,-8.912537245598681,-5.022030570857424,-5.66679720146086,-5.676677180830982,-1.7172565546413596,-10.77987282643914,-10.210150718853845,-6.446753096705404,-5.334654185859248,-10.403549619965526,-0.621827295812939,-6.753822264210941
30485,,-6.749048187481509,-1.23762821585328,-9.32099845136318,-7.545832327207655,-6.399649213438126,-6.0121120421899,-6.238171555905843,-8.166392970153725,-7.263599934890815,-5.62083096418678,-5.024040371780022,-8.653339415141513,-1.4887500327018195,-9.80669174101057
30735,,-3.975144880979391,-1.7592440866441408,-0.1303431781044369,-8.81970385209539,-6.277395713301032,-3.1575676120285063,-7.997892508315915,-7.976993963192012,-5.262186851990299,-2.08437401699008,-4.002164590573326,-0.2596931319788095,-0.4429059203694987,-8.09290691416148
30985,,-4.870980047120747,-2.0756134166518403,0.3486069703364332,-3.879120725939032,-4.523312086307506,-2.112638016545421,-6.783841534480413,-5.563357082206761,-4.325969415707985,-5.157311409746126,-5.303549774987262,-0.5545035222816307,-0.7535784187810978,-4.702680157377609
31235,,-7.163499749046557,-1.982718449839049,0.3052108557001455,-1.0352055470254904,-5.42293764333418,-3.197470053975806,-9.523209274042584,-4.000396662229995,-6.021434772171917,-5.736186339318621,-9.545945433153117,-1.0759178927982005,-1.658872938425312,-6.307016919845804
31484,,-5.102549836474138,-0.9379393828417292,-3.194338659681128,-5.836263849510159,-3.326080308598089,-3.8481210962195633,-7.728375048805275,-3.563965951264929,-5.882667788635643,-5.608135744959498,-7.243197921132948,-5.608757420114738,4.082659656178907,-6.262739571732979
31734,,-3.1585469262632597,0.8198710882343052,-8.159001847480534,-7.128688363974742,-3.0555745497170994,-4.389527946756542,-3.930770576417308,-5.195800364569952,-3.708966355776693,-6.553604086989447,-3.113241228239888,-8.42144165260872,4.856711765876022,-5.617668678972856
31984,,-4.591851927368773,0.1275940828815345,-4.935411635807236,-4.619656517839253,-5.82725058409361,-2.703501258439857,-3.4393464490063823,-7.9988749344088,-5.961418678608296,-6.342157076225225,-3.5027544054984583,-8.315535859021463,3.024862807010079,-7.005566516411269
32234,,-6.28376849948264,-0.8913899092187414,-5.448176604695052,-6.178018235520893,-5.443916091499795,-2.8117854254425554,-3.9788947062182727,-10.005339513776269,-8.19226664542947,-4.10970407421334,-3.1090937500837312,-9.357752386582296,3.12567519903824,-7.888695087385969
32484,,-5.41069119239766,1.3978911096283937,-11.651471779947409,-8.951002067150048,-6.347738618783386,-6.9517822656425725,-3.691086431077477,-6.105604538288507,-8.584475072688493,-4.652403618279985,-3.686272947320228,-8.626509601238062,3.1820351555921893,-7.576908671987979
32734,,-7.619479601411672,2.3204819852090437,-11.202447049934058,-8.585219712898507,-7.467783885782824,-8.653800828705753,-5.391961413005776,-4.861806832099446,-6.359625570507714,-8.530595055107488,-3.2519657195233744,-7.036732289605812,-0.6424772294828174,-9.556234968061204
32984,,-8.027396181595241,1.4719283060229764,-9.70718961388075,-8.247090906957972,-6.953971664638679,-8.257891255353213,-4.139261762742241,-6.262365978412766,-5.789457170423003,-6.783675690600123,-3.112095563663586,-10.31718145671034,0.7193252520355514,-9.122158354620147
33234,,-8.762265668509327,-0.9447577261593926,-10.47274506685927,-8.648370072715007,-6.351086687332149,-9.429009405271003,-5.608629693899328,-6.787872329657033,-8.026203446060277,-6.227728467722114,-5.605362017031215,-10.859920395561709,-1.2107953577676869,-7.031950742479975
33483,,-8.737646530735923,-0.0121324429107636,-10.8641595393163,-6.840408430648933,-7.782048567178077,-6.631227756779902,-6.8383800747066905,-7.408980109273438,-6.7237989811379775,-8.724015234822904,-6.62152621227019,-6.90237581035647,0.326664831096237,-7.23329937930234
33733,,-8.621760786504383,0.4446010949719992,-13.239004467062813,-6.101263820338222,-8.181932937963461,-6.034387230391131,-6.660228443866984,-8.605259822319656,-4.730520655197297,-9.542875531351251,-3.371662423514386,-9.13772050260022,-0.1496464211486358,-4.959040791001606
33983,,-7.366234994630496,1.4115997362562398,-16.01106607455359,-7.651858232464367,-6.096387689225413,-4.654557349174258,-5.590239614506608,-7.411140627697387,-6.558407498862707,-9.53968230865032,-2.7490666111396904,-10.822124481331238,1.4668115087436806,-6.9238547802239125
34233,,-7.576414342174318,2.717380673623173,-11.949900227356494,-6.856051839081793,-5.529348454955839,-2.719022736445813,-4.678077648124188,-7.192450113283623,-7.849868329135661,-9.613534567275092,-4.725226900493408,-8.863722483442745,3.2215543627476624,-8.456045633545065
34483,,-2.987639968110755,8.18338989310086,-10.452818781288254,-0.3931469409691349,-1.892445478380248,-3.78287799219049,-6.408252202887851,-8.88603419393999,-7.261284385632098,-7.126591295453904,-2.364766147754022,-8.831359534707243,6.788249452661178,-2.768555888584387
34733,,-2.70138206137122,5.984779923994593,-10.81934842471846,-2.0952769667120426,-3.903111808191,-5.506406565565358,-3.908755580730086,-6.982717067382102,-5.751170718975222,-3.686038706309599,-2.0712413415942623,-8.193005941848213,5.924295049502682,-4.445335902592603
34983,,-5.132686264382008,-1.5594183523411205,-10.076881060898748,-5.882699738737976,-4.181387434094023,-5.727329144954288,-1.810936632197284,-4.872477494518555,-7.396954328643314,-3.438345169380538,-2.768965249542231,-10.971848009982704,1.4564979382112453,-6.6306849211730965
35233,,-7.637047445031039,-1.6035914913261475,-11.17587744725162,-7.416522501711656,-5.196908882445569,-6.945896939845854,-5.24059777996068,-4.651620665555756,-8.353421309013136,-4.304427702205995,-0.2930387037836373,-10.271133371983307,-1.442009435599818,-7.656479631031567
35482,,-8.328280684258312,1.22488495365212,-8.253303653782783,-10.416124552656692,-4.010379299076727,-5.569149569847474,-6.962257883429639,-3.075950526786261,-6.697509099676235,-6.555352687109791,-1.436978638984156,-8.220335679843869,1.069548069522673,-9.9616074831526
35732,,-8.536705210823992,4.830965990048982,-8.8094659888025,-12.040150913220089,-4.316653100255663,-5.2293443975337865,-7.585263980199324,-2.934111855851762,-5.646346238462163,-5.586208031688034,-2.65399355207651,-8.956831169633347,3.261761628261517,-8.751699873427928
35982,,-6.243486897119364,3.741008187296625,-8.587635769916336,-6.742646322990815,-5.820734598410264,-6.124006852108166,-6.050580455426283,-5.483237532438703,-6.966742302380796,-7.000885755467566,-4.345990056857763,-10.13973891856108,1.12713941089507,-7.8374573432521535
36232,,-6.550853323823915,1.4985996275803366,-7.948163449923415,-7.440014059885648,-7.989860610815115,-5.991586107851278,-2.93366729973374,-5.634810611786421,-7.232217114389456,-7.158742676166207,-2.1578775450116456,-9.093796328900831,3.452796005727845,-6.958200160074487
36482,,-6.363916217670566,0.782765165724182,-8.361353471977553,-5.37147584966299,-6.531041555922837,-3.39972027616534,-2.957597186517064,-3.913263301488748,-8.530629914394117,-5.529207469955123,-3.3267592524014407,-11.404510343452742,3.983735828376153,-5.907066225051202
36732,,-5.192863602210078,-1.160570511657519,-8.041075218780225,-4.347722628427268,-6.441629857885125,-3.5907639033080336,-4.161074480514248,-4.693649642651863,-8.155677469504623,-5.048827296142182,-3.164158101408426,-11.330013273625656,2.0073612870786373,-8.212630859312704
36982,,-2.180684594434683,1.738501349514535,-7.948923462572113,-4.0572864338723935,-7.65945791533638,-6.2381112588700365,-5.819834121830164,-3.649193834828407,-4.673140910310706,-5.893470460210082,-2.7592430574808207,-7.797952333634334,4.3971816931524375,-6.474638340053724
37232,,-2.145068844667816,2.3747755112165763,-11.121243007381151,-2.8952040819876963,-6.857985963953346,-1.9728205693127392,-2.566458149960807,-4.018079461943172,-4.3190569118678095,-5.285754141023183,-6.924902007198943,-7.67630383642866,5.147071257118515,-2.989723388019578
37481,,-3.954405275754478,0.4289547179789752,-11.17831432257434,-4.211940903672002,-10.360665538905746,-2.3030877645754044,-2.5832147035488267,-5.543897677519411,-5.976009749548027,-8.301445991004648,-6.707191219721775,-10.880310703580866,4.87944455296391,-3.786482250591768
37731,,-4.527234006998099,0.4987510081724866,-12.61963689243775,-9.068220294363911,-9.580501551285876,-7.004283085416926,-7.415181850625875,-8.69539121433081,-5.322211446534145,-3.509342481109277,-5.314744951851066,-12.132634127036155,3.807857360894228,-7.616558305986531
37981,,-4.6434930934581855,0.2290769268136386,-14.74410262186302,-11.600145344662824,-9.862209570038337,-5.906184005158325,-8.707287029932509,-11.5965750926871,-7.237178933679421,-5.094688908054047,-2.9990638167272903,-11.045844576181914,3.418627875984372,-8.895513952755481
38231,,-5.425968351890919,-2.9274897816371785,-12.585361306282522,-7.69270378872868,-6.635438955505904,-8.772952991113046,-6.875528896864397,-9.333320628455496,-7.757720888355239,-6.585704749587299,-4.162966646525328,-11.12899079701867,2.160218806085129,-9.865286244794838
38481,,-8.18669571467138,-2.0614339678275737,-12.140915816497891,-4.0879958398236695,-7.763336353479158,-7.636798131152858,-6.4472190133635054,-8.13958563275526,-7.254286380882716,-4.276416197940492,-2.6093464830956004,-9.84488932649572,0.9289985938828972,-11.29190903009954
38731,,-7.390928056060126,0.6917728721330685,-14.543768145716456,-6.027036693927474,-5.794915311936259,-3.3922183405287942,-4.779604413669919,-9.570535938663989,-5.021083243313946,-3.878507360852004,-2.2910456791896503,-8.668772002059539,-2.6992544730413623,-10.47020866087342
38981,,-5.7225519457452165,2.5971105627825555,-14.422707823448304,-7.357005930499731,-4.739738386006806,-3.4267108088172,-4.072612899898005,-5.976038132835489,-1.5197683757401923,-2.3504768082533904,-4.846411581372517,-11.556909625318522,-2.1050343625566805,-8.789819553565815
39231,,-7.061183459802203,1.3673953618660666,-13.748881838804792,-4.959221830631049,-4.736195728868073,-4.961207984718215,-3.763508348088492,-8.914156190841005,-4.906251628279188,-4.334846555479015,-3.385043417175898,-12.465013037832572,2.439579660156344,-8.503038346480666
39480,,-5.332222146916138,3.0446598949774497,-13.524247830079664,-6.861155883653261,-4.614320845552386,-6.573711836299589,-3.916292108506045,-9.571414345083202,-10.342911208161052,-4.512440810912446,-2.729581703791411,-11.394227475203516,1.962920760622574,-8.4046162125239
39730,,-3.431140658201312,2.8223810698901923,-11.379347886901396,-4.924169050098379,-4.344008051540424,-5.096340689944356,-6.590893433348568,-7.659838758596108,-9.777044840319835,-5.452481523370175,-4.766225861968439,-11.235821899389592,-1.048354482010451,-9.505898411561423
39980,,-6.266352397589551,-0.7544943359676879,-11.563000640543232,-5.601185478826202,-4.9433122097984405,-6.30232066347292,-5.658288570561076,-7.975928997172595,-9.314655263463326,-6.905085176011672,-5.460903268027843,-9.490153661884191,-1.9747723252713816,-6.543900074789884
40230,,-6.157385565867468,-2.769392065178895,-10.167399773930562,-5.603687121306016,-2.9529920053701524,-9.16312351754343,-4.314433684924485,-9.21619345808564,-5.36318402042059,-4.5568525200733685,-4.376160525648512,-7.903171406456129,0.2842660636523792,-4.410417075075234
40480,,-4.247151271266022,-4.017801947104983,-9.829188785860564,-6.845132586104049,-1.9592181076940889,-7.309388341290623,-6.846195425013266,-9.289780291245147,-6.513938021951335,-6.171706660765379,-4.676993980844012,-9.414804444854353,0.2864116667171638,-6.179265228889794
40730,,-6.962413298617389,-4.20053004150097,-12.398409758984736,-7.642822221462923,-5.80881624795894,-6.066238816671988,-8.587246530505194,-9.045056121204388,-8.91086925982379,-8.877778403067033,-2.565332052617212,-9.74970055326503,-2.051632654644584,-7.517247757957907
40980,,-5.264032790392788,-2.2493886222591826,-12.437418911492156,-6.519458913636934,-4.440207636108377,-4.400141611875059,-6.91727450967019,-6.661627706904824,-6.577800619444689,-8.372553783926582,0.087525825370478,-7.660112653533338,0.892207000042915,-5.879419913217298
41230,,-2.6304006605899684,-1.835649918626707,-10.419256172591195,-6.570874979968703,-2.517813919391865,-0.5104436110223134,-3.5128467988954304,-4.735088963227934,-7.633658657750729,-7.927810780960563,-2.7918684965782465,-6.28503686964672,3.941121309307908,-8.038931043749265
41480,,-3.513764967875296,-0.0225352043705015,-12.768391263819137,-6.142550921691058,-7.421381507186942,-1.9249829104811744,-1.1216552177379011,-6.846164877410673,-9.624471522923535,-7.913907664293619,-2.999500756806021,-7.623342516211582,0.3172137009275103,-6.397613171897332
41729,,-2.961064541139973,2.4664016329683056,-12.365496526208563,-5.3418537038136815,-7.3370889614416335,-2.9427019477237515,-4.4214152789365695,-7.838015096351189,-7.307150311306544,-5.841245604352196,-2.802181486964761,-9.19051596740793,3.212067878992041,-7.588705293914555
41979,,-4.2404902126882495,0.0681644972479563,-11.66572107527298,-10.048372440534283,-4.942461210468788,-3.3046100013828106,-6.070181286801837,-8.811969674681903,-9.255235276331511,-9.303771050507647,-5.646244849020747,-10.712065914003174,2.8825593228415656,-10.31328352124443
42229,,-8.588984243835009,-0.9616766408953088,-11.144063142407925,-8.686825700899444,-3.9575122823551503,-6.016618952969982,-4.284522489669032,-6.344255961794022,-7.992174878820983,-4.989759520029584,-2.958135343093435,-12.551477747892536,-0.8399067255151469,-8.738754956520546
42479,,-7.762808118919631,-3.101947292376799,-11.77666014756651,-6.713774488956785,-4.670964220952232,-4.3076535931153614,-6.83583022353454,-4.602546552828316,-6.642358476133815,-1.7269352591488634,-3.5421275422775307,-10.873847772929263,-0.6280909947885777,-9.595098054812492
42729,,-5.240089269576151,-1.5686328961020066,-12.14094212592082,-8.874191475254259,-4.531140093209607,-4.077315017276887,-8.03291982166509,-8.03801420868485,-8.666625968944778,-3.424278968596642,-4.391753624740407,-10.31587390046511,1.1219895472482606,-10.994034635649978
42979,,-7.173277187551122,0.1672722080108132,-13.258492267160246,-8.68509613372222,-6.194620393377402,-9.020310455076904,-8.380036962334533,-7.992924453210138,-8.765773415664404,-4.944645140922525,-4.120377730617916,-11.862713398969571,-1.203529959461928,-12.31373777378336
43229,,-6.818307096887562,1.1700377126963484,-14.764905387784856,-7.335870134005602,-5.22064197726886,-9.59887921237078,-7.930932769520556,-3.834795771340691,-4.983820351371992,-5.771029164832938,-1.8816586462950784,-12.029945859568478,0.4854875604255831,-9.997053657031415
43479,,-6.090045542854513,2.154936567948975,-15.172211369701891,-4.57824899984361,-5.277111101305502,-9.743827414108976,-5.65796638753456,-2.162408944130296,-3.465914568169248,-4.800751253168637,-5.357278348505,-9.825371147091854,6.062709382897893,-6.613284594267292
43728,R,-7.386072503356388,5.876159563895992,-12.350347855255215,-1.144866630929542,-7.551701409418716,-4.854583160669326,-6.670820123638834,-3.336862939069323,-5.955866413870542,-7.469754087953902,-4.878019708779028,-7.267411321247766,5.062331445866359,-3.54887461826697
43978,,-7.215482750416595,3.872741007127311,-13.992992621076493,-3.842428204840048,-5.294370178080551,-3.972195440468249,-6.352192250205282,-6.023012106963313,-5.015648683168205,-8.708954915897458,-2.259102398951912,-7.548109198796777,3.5436933593024653,-2.913040989669901
44228,,-8.387717683182101,0.4311464277869237,-9.883622857370456,-4.900425164893626,-6.268271482368021,-4.665566262100959,-5.327031005333573,-9.161467237059927,-6.492939184628169,-9.191088918550944,-3.9234870092164913,-7.767763388751629,1.826249215955541,-5.78248172578297
44478,,-7.69859592253037,-0.4825731527116284,-9.062399345797616,-4.227079909189926,-6.757447688137923,-5.63061539387414,-5.659615602289293,-8.20311790683748,-9.11845836162636,-8.02070640792685,-1.8834794610084005,-11.796793679559876,0.2538092157486655,-5.19340400333007
44728,,-5.223479666942207,1.5336924793205695,-11.78203352056572,-5.237050400385702,-5.069314366582567,-8.50477560012569,-6.0659215410673895,-7.432606631852929,-8.942739792173683,-8.267135841479282,-3.3146741270118927,-10.52739169459559,3.57521290392808,-6.674374112039128
44978,,-6.586830307464137,1.7574516991116038,-13.05705398566994,-4.356540248785054,-6.733573879904614,-6.855182511193237,-3.803659654851969,-8.716861107576216,-6.992242546288638,-9.352973653497724,-5.900386111240525,-7.327881925616477,2.7387694827149494,-9.1306264387389
45228,,-5.417895727070907,2.946933640799187,-12.918708154064367,-0.9088675390363724,-4.900045521849357,-4.189366327994772,-4.74866129799432,-9.617082044560144,-6.704612703332059,-8.868120731527519,-4.920605740283918,-8.312080038576026,0.3307013485193354,-10.136550312534062
45478,,-5.172771849938149,0.8267242816312939,-11.258857234500582,-0.2966871542002763,-5.302728513460925,-4.6396642008036135,-5.5086161564351634,-7.036425115903857,-7.623717256089208,-5.724764809709761,-1.8450408317174976,-8.600776971481206,-2.0003797859675227,-9.811317417406736
45727,,-7.167258920803964,0.2094751594629251,-7.499299876932163,-4.775523797351055,-6.105634301085892,-4.642041580091803,-5.508383717149405,-6.691342666860358,-8.8334379139894,-3.918884479763819,-1.4938519671094654,-8.91449236249817,-0.5250278169381604,-8.610565377679134
45977,,-7.475174632177584,-0.2494009412013965,-8.898767243274499,-5.404570273798218,-7.4402068117650195,-6.006775331199476,-7.141022662828551,-7.891278027889571,-7.580784863023695,-6.956983830645903,-3.883227351484311,-7.858448907077948,-1.4931137461467765,-8.383976597131788
46227,,-5.178497542720256,3.369626703926829,-10.05846524043629,-2.2775677025767056,-2.589511373753364,-5.562058901511834,-5.58725340553266,-12.279417516589216,-7.489330133715821,-7.210320950827804,-3.708651251917012,-7.556352183833503,2.143026610936822,-6.126577051811772
46477,,-7.235680313413519,4.117904686365437,-9.698688271326487,-2.2416678249328297,-1.828866313996066,-5.680589681076659,-3.890280385303885,-9.681634933534536,-7.404425430002728,-6.690305087688218,-7.070782756710177,-11.233550584363648,5.3915968520923165,-5.085642566241297
46727,,-6.383173029281925,2.8543618315801,-8.373699703118323,1.4178678383938834,-1.5428357139710482,-3.6920120383985022,-5.5901057712456845,-4.6491269530178405,-6.179498020402274,-5.831829188967986,-6.915800630935182,-10.20266484968544,5.952864487988237,-7.239829209059424
46977,,-6.802702779525003,4.6201953734272285,-7.3218390258435315,1.2436488642129826,-4.590859490814182,-3.7239695626418055,-5.13365749036785,-4.369007247238751,-8.570151479067768,-6.973035081097332,-4.697077242346968,-11.841113035389874,6.052322035140328,-7.413461195494319
47227,,-4.598576458105908,6.834088184291587,-12.323608684644151,-1.1443285216054575,-5.116963554280761,-8.032688795501363,-6.90002019624318,-7.672869227287866,-5.671903782809284,-6.516031297607613,-2.403402779823681,-8.388638166564906,4.896871709694246,-3.565343531021261
47477,,-1.5184955725541638,6.7669729833499765,-11.074842058426352,-0.6640009488224509,-2.3361593733412818,-7.585314165221034,-5.873740746935516,-5.8589381655627415,-5.0850944299240295,-5.969078371432135,-0.7107047982847756,-8.420151447655996,5.321282297213701,-3.2394315866591405
47726,,-1.994634676772231,7.78738380856931,-9.793426959078952,2.061129703844609,-4.867099799317244,-3.694506923708065,-2.274216060881502,-4.995357464489729,-7.637214315986284,-6.726573238512739,0.1882283620525434,-9.958528519129516,7.940450797549465,-4.626643841875502
47976,,-0.9912900699461752,7.494776005360205,-10.714451335863693,0.8803409799486017,-5.228595976541931,-1.9183899380198597,-2.3136961477515525,-5.052204207623024,-6.739966118128072,-10.913409961611851,0.7972658166620638,-9.76787218305438,5.689311496872142,-2.7623253351068304
48226,,-4.112892310303002,8.007397696288677,-7.727520402213326,-1.2443863249497589,-3.088162293128426,-2.192194914017307,-5.420965473725678,-6.473772370525928,-8.02035641293787,-8.671660858152384,0.7807433451630502,-8.314091036750655,3.997262902818031,-6.147769032215963
48476,,-6.503942562844877,4.96126438519471,-8.386957307241062,-5.356898795204446,-3.318941937913725,-3.697337381616496,-6.121869676983545,-6.965685471889821,-10.772741718565602,-8.533733345598927,-2.626434862167368,-9.066041726428097,0.4793333181295893,-5.848623867182053
48726,,-6.090916960428094,1.5802510236515794,-9.937173969534204,-2.9681270080525413,-5.4481609256059285,-3.449707148268732,-3.8975892548264985,-5.870493457584262,-7.512049114532932,-5.291062651658438,-6.520517294086153,-10.700289387145697,-0.0767660674025293,-7.282476994205178
48976,,-5.569962840408099,1.2049278078488306,-9.492561589216082,-3.9793451219430223,-4.840887713533075,-3.297675640034201,-5.398727665212975,-6.464772679595373,-5.981054932151197,-3.215196332850057,-4.934402900149477,-10.28749752204912,3.352434945850562,-9.116009389337329
49226,,-5.712272380411555,3.020015073050648,-7.098335395447544,-4.999789315687881,-5.42637264190725,-1.0741406355690062,-7.061564818629416,-7.143959163256688,-7.06567661310674,-5.035008838456921,-3.4847923543075603,-10.305967547078616,5.300590387527366,-7.268716520378618
49476,,-2.7620205696807427,2.4409502409118358,-9.440745188732478,-4.477705437016465,-6.234450076233795,-1.540589977656715,-3.7499293141881873,-8.649283016625532,-9.606209458139205,-5.80738747287498,0.1650175004064668,-6.96211892653018,4.36796290201838,-1.1654153069883888
49725,,-2.8233863397950043,2.681256677530931,-10.102926587540422,-3.747512834758152,-5.409081882190996,-1.9603256132295963,-6.289865481857971,-4.414911348011987,-9.962677840968126,-4.350081641899448,-1.3732261607084386,-9.352975880460937,3.612295343953262,-3.06350292581962
49975,,-0.9806811559124832,3.2983819269365493,-7.83788542766432,-3.624927839726933,-3.321710739939351,-4.375597009864308,-8.27300464259433,-2.587270875107838,-6.581253841590996,-1.0144576632397226,-1.3026724717204696,-9.390116037011603,5.093355267364734,-2.872395553386325
50225,,-0.9086615886285944,2.183729683445606,-10.52377128553006,-5.331487904194734,-2.74635800184185,-7.533904295433449,-8.039894867789442,-2.728765213961444,-3.385167165528786,0.0232308935775307,-2.334394710404322,-10.324748014455912,2.5087296676905435,-3.1009917429538305
50475,,-3.647102039676531,1.446805514827626,-10.030699660826068,-10.404806076550988,-4.303205586727631,-4.856357730556228,-8.29289464038309,-6.157626001159596,-5.995693010829891,-5.760110482933095,-3.812395106843523,-9.593182186596,0.8252740785646218,-4.2440397577949085
50725,,-5.418484155972621,0.8012638713116067,-8.487047911581573,-8.17743437984339,-4.2147832829771845,-4.793777585551058,-6.199294024854397,-5.2740415394367695,-9.24934126147786,-11.56626153726238,-4.533065413957336,-9.702606451680404,3.39840290780052,-5.648091154632756
50975,,-5.341939763564856,-0.1014409130711594,-10.339026820352926,-6.169589330100615,-3.837485173677242,-4.440005291330039,-6.146954141055474,-4.939537916656164,-9.514681825936748,-8.9213784604716,-7.72695797918672,-9.60749865426864,1.2854578808364474,-6.796253771727252
51225,,-6.275553190222965,1.9773672835243068,-10.118858812984284,-3.382855561009766,-1.2716295640598716,-5.537611054536451,-4.019701286844295,-8.234246255769872,-7.258417070891644,-8.082251887544025,-2.431044577807584,-8.558047057460842,3.019771568601782,-7.521223567788509
51475,,-6.763784842423332,5.341389880998482,-10.030220329823138,-3.8834504861776775,-1.6581852456869703,-9.421273827177645,-4.991910336429138,-10.977608677432302,-8.818963525006282,-7.551822568660778,-2.3023978806834537,-6.206959547369436,4.063693907891656,-7.290461342979556
51724,,-3.6855209593657134,3.7275509825725,-8.43681741443017,-6.513594042099542,-3.108118053670628,-5.897742601801943,-6.849643322769442,-12.412390072613412,-8.676918340004832,-5.88604124375893,-3.1809530683133733,-5.442904317073331,0.1013770193557155,-5.615084562530802
51974,,-3.9903545187621936,3.2600975464501447,-9.901708995963803,-7.591538809669615,-4.8665215163788655,-3.5588658287855948,-10.61151409456771,-8.54976818432293,-6.420954169002069,-6.744753568301201,-6.457993959526508,-7.336153678348342,0.7600740100251266,-6.876795290622237
52224,,-6.57246025247542,3.8762865448504233,-11.130266683221423,-6.423666954946013,-4.123100885131522,-2.217917159480524,-8.703224809233287,-7.537565096020405,-7.365454075768514,-6.187958040363972,-3.934935670352762,-8.553630641782961,2.1927728690838504,-6.472279723453806
52474,,-6.173453308738428,-1.2731509179850475,-14.587320510892903,-8.273482470828538,-1.851914274421124,-5.7479181401103085,-4.948840576321844,-8.64012497877059,-8.781019764310326,-10.490274877144088,-3.374427859619012,-10.267434819387368,1.7868035057645797,-4.38145968381648
52724,,-4.648602037183257,-1.0746579432918948,-13.43092904914023,-5.148157181216071,-3.032924138274282,-5.758669949798611,-6.076037847564822,-7.990383985801541,-9.10766453651152,-7.6658840222444224,-3.877924826983874,-10.75522003283352,4.001987672575215,-3.914607154517253
52974,,-4.869672815315397,1.7607588838924515,-11.85706183349276,-4.455624384848692,-4.648434458965804,-4.799638826859482,-6.1265425085798935,-7.485645495089308,-7.721117739270419,-5.491690548151614,-2.1940811634826325,-11.65375018174325,3.933203977822192,-5.568020620978167
53224,,-6.3749340707905136,6.1587642982659405,-9.345633012798531,-3.875498104475749,-6.474153229157923,-6.760850841455229,-7.578372528382493,-8.648542280237661,-6.560468335368718,-5.0100834646406645,-2.150846882864508,-10.578221125410527,4.660642840310263,-7.233817511816092
53474,,-4.376829287089359,6.620035883139467,-7.644843262573994,-0.8647470049576184,-4.0378875184188905,-5.77839361327249,-7.05432054645442,-7.055348914724517,-9.832529001219974,-4.103075759827712,-3.34842706059834,-7.264990122147381,6.619298607519464,-5.195842021303756
53723,,-4.063157115564421,6.315651649982784,-7.3210742517109795,-0.4977635288199016,-3.386947010884384,-5.271390356847034,-6.6115404733763565,-4.362092232168864,-8.447169816351229,-3.877952225700772,-4.392165155553282,-6.4813959815497455,5.669812802460107,-3.621212452616669
53973,,-0.263477173623259,2.368111697813979,-8.206263325925304,-2.3011613853206696,-3.1011838188151817,-4.729513043226338,-5.693816686941244,-3.726695185531821,-7.869231741437396,-4.504384810544284,-0.4969535103389088,-6.792492589273799,7.122678634690328,-2.922911125075978
54223,,4.388620328298333,6.015725253361214,-4.478255419053754,2.0697868216973654,-2.398255366985862,-4.986551800096809,-2.910197963949268,-5.467805994275501,-5.48859147129117,-5.432635119229516,2.7256750444313087,-3.710767631789552,7.703598973130761,1.941833237834245
54473,,1.6978786667614585,4.660045748780601,-6.369580705467296,0.5074474086233032,-4.621144217153933,-6.22701387921729,-4.83645444961252,-5.915324315010569,-4.800135221977092,-6.107746461875308,0.432663677244559,-4.665678630211171,4.706493560465402,0.0598459230271162
54723,,-1.8716277936873935,6.830510233312404,-8.328030446837666,0.0477582470094528,-7.10622505128346,-5.990452797714324,-8.595071971762195,-7.768125621099227,-6.004246914009795,-5.586308062572685,-2.333145262310295,-4.85630214111681,-0.231335341341853,-2.9016357823888104
54973,,-3.589126290808582,6.30521287643375,-6.21312352105273,-0.5385339960576145,-5.756484358576413,-9.064434121149976,-8.08292172641066,-10.402212593785547,-4.554094356313901,-5.786689739419211,-1.8449654617530256,-5.7450523895008665,0.4753370688701815,-4.55738654795316
55223,,-3.604694605670287,3.910751563086225,-8.748283765737739,-4.354538058356664,-3.525640874533201,-8.552379010629698,-3.333388507515044,-8.560447264336904,-6.1819011569842015,-6.501906874943924,-4.411658201434541,-8.003555404558277,5.045845232010093,-8.772759583838473
55473,,-4.875896146770437,2.7795641085443408,-9.888287645321707,-3.7172204179623263,-4.810340354994478,-4.485515633202319,-5.395399572999655,-7.354934895466572,-10.169972825561684,-7.779993038204003,-6.18937068998785,-10.741768570991182,3.036768165873185,-9.305332837541693
55722,,-7.638672387597449,4.600841248536232,-10.383766201764296,-4.115958013301259,-3.2787918229560047,-5.797391677452774,-7.283391843184608,-7.369152594567123,-6.809811234304279,-8.144405463840915,-0.94766372091839,-8.372083972852261,4.045842512253682,-5.520217284305435
55972,,-5.935859288312067,5.647966266043732,-14.52645805027441,-1.981162657764049,-3.958070720215402,-9.986305024291031,-7.224674091907596,-6.182478208754975,-7.329648572416076,-5.568998819294957,-1.4934856648369796,-9.19483837972513,5.235818064621883,-5.818692479005422
56222,,-5.42643541645369,5.416491165995547,-12.261058843667298,-3.139446206732474,-7.658830538713126,-7.263823966405425,-5.94197014784443,-8.257983443182871,-9.283218425215123,-8.711486382484674,-2.43369205983138,-9.878380723406028,4.090292373606209,-6.199801741215404
56472,,-3.7393474860755376,1.7889059077871368,-10.048119255831814,-6.605452065811034,-8.086660017151488,-4.168389489310879,-6.496168179911313,-5.403286100307283,-5.494874727189804,-11.290928976183752,-3.9882793514671775,-6.542155493067435,0.9251807891254856,-5.79486399152091
56722,,-3.3647260613311367,1.8565951562387664,-11.100692105134147,-3.5928705076358822,-6.304075424681191,-4.627172962794087,-7.028930206536166,-5.53454039842967,-5.789196729263049,-10.471680076136249,-4.353930376068446,-8.740069058853717,2.042038361253699,-6.060114475402042
56972,,-6.304437477171131,2.0991102591614115,-9.77233448018666,-4.978517173200493,-7.715555268782467,-4.714107952588415,-7.670001743176575,-9.153902439803751,-7.477584101106568,-7.856353839471064,-6.027988515150943,-12.720911632004295,1.3042157088161055,-6.2930539122945
57222,,-6.439691174467599,1.3210928353908984,-7.781013444114214,-9.419123749642235,-7.116842932740427,-4.491520010911383,-8.235061247243951,-10.302863670716231,-6.589282925518406,-8.357041092416985,-6.565327632939856,-9.489329231705703,-0.2897081252334784,-4.56855928394004
57472,,-4.8666378212878,2.025710206087036,-9.347376784406158,-6.063335515996634,-4.458166961025484,-5.630667322337888,-4.691535887487634,-8.49246029384272,-5.249972187294146,-6.690521540302069,-6.707194313813828,-10.769921375694194,2.7543735305602475,-3.56085946547884
57721,,-4.407276976785532,-0.0494442309609534,-10.853637570529116,-7.397422929704591,-2.7711997056002176,-5.152964770015203,-5.986439146986248,-5.034472981578304,-5.159424013839876,-6.87477543186067,-6.716510210581623,-10.877362355884925,4.863241850975681,-3.295866556754895
57971,,-6.222096216673492,-2.5957570803144323,-8.627628448207107,-6.6245039636698575,-4.72270610339772,-5.390777528614073,-7.164315795758326,-6.023122369787773,-9.27081900532438,-8.01689163509317,-4.885722885206775,-10.899710603697825,3.3383308321571943,-6.123260217574304
58221,,-5.266192824395288,0.4719495611999746,-6.653004474771499,-7.082728322768951,-8.246662978916989,-7.216433007917699,-6.940238371484595,-6.243852526443529,-9.894844850221284,-9.455197636643524,-5.4779926806073735,-10.890495091297218,2.48716845027307,-6.336514702294154
58471,,-3.258266873542952,0.7496298054760765,-10.510376225941991,-4.826188719272036,-6.084117780806372,-5.731044618066799,-5.296355478554135,-4.977954779560841,-7.641363511001522,-8.37643517007745,-2.742789585006152,-12.648638413592757,2.573724481534383,-7.461807835865734
58721,,-3.9489852947128528,2.7591246292146563,-9.00291648694431,-3.986901964188797,-4.231745469750284,-5.72760575903294,-5.964125014088742,-6.959998295437312,-5.432261458241064,-9.315978841238604,-6.393297718209987,-11.459557420096122,4.670699164061024,-8.20801853633898
58971,,-4.145253121218685,0.0173102121670158,-7.518320891411736,-7.459616782048737,-3.752512985154421,-5.039446977951023,-5.767877873716115,-9.006888326235858,-5.82571637158609,-7.886353468077244,-5.257154418553164,-10.489130412638753,4.945140454812376,-8.465285092163263
59221,,-4.387503694032244,-2.7871915547598736,-8.80900354685707,-9.910494259909523,-5.989725291349506,-3.878774762771735,-4.285829545625751,-5.8518926161361655,-8.601944456336804,-6.858628771727656,-2.829263196257921,-12.11126283921732,4.863826245920315,-8.367666425203156
59471,,-5.462921204981902,-0.027134298447992,-10.709635121645672,-8.961231911614242,-8.198851735802045,-4.872105770776416,-3.425032151546517,-6.47622512005362,-9.699149340487647,-5.244815362563249,-3.9289515848648486,-10.195780352660044,2.1831402265611635,-7.773020057186879
59720,,-6.550347008205159,1.405630718739188,-10.871100983012742,-7.916509183871901,-6.059458850356188,-4.599193215458111,-4.559044073624007,-4.79340985541688,-7.257582322420105,-5.970000936167622,-5.433819285069559,-9.264799281920856,-1.7780521629694466,-8.973574216288219
59970,,-9.745368234616386,2.404615815168608,-10.095214993404468,-6.707545081776189,-5.818757931672822,-6.712597343527338,-4.212315534985473,-4.617164055897842,-5.869339694717516,-5.656737322639637,-3.474127296113557,-7.975098665677162,1.008176118507511,-11.12069235500442
60220,,-5.903723354695293,1.8935442967445384,-9.92912895054869,-4.3107421983377705,-7.428538032092432,-5.870008825948462,-3.8468821933273816,-8.390055599661533,-3.969907408047967,-5.264234944110146,-5.526847885276116,-7.800642915563525,3.831176187719717,-6.94068114283226
60470,,-7.699632107662123,0.2924994157007387,-7.869103691907001,-1.9800951282360832,-6.271856689316734,-6.43178988205888,-5.1220848255968585,-10.202184085945852,-4.2786794244848485,-5.947861319605952,-3.970980753061576,-8.683624701434278,1.5950214172636623,-4.361387877367084
60720,,-7.623626918905618,1.7632999061581525,-10.948281589850136,-7.168155220068934,-8.153762792660753,-7.128083554063882,-8.721459256466327,-10.913133303141851,-5.706941374240922,-5.613019868405777,-5.561617702369666,-8.551684427746373,-3.467568547334929,-4.832834446817512
60970,,-6.84534193109926,1.302634125138816,-9.671564427681188,-12.91132470435095,-9.91768491222021,-10.546727035400904,-5.150446467642947,-9.09081917681845,-6.655353013792306,-6.705797725245465,-11.897488234564433,-12.653231976408572,1.9210580687727823,-9.089623659148568
61220,,-4.518878440134399,1.685663665713919,-8.587066729030965,-7.432660928886473,-7.560785825072422,-6.320760058096592,-3.189334131166856,-6.344833725498339,-6.974414511207381,-2.449260360813619,-7.489604921147015,-11.819230312222038,4.082750446554055,-8.24888779529782
61470,,-4.824290510904948,0.7336282784709213,-7.897729190502064,-2.5144773674636007,-4.68616326884109,-4.141872337558996,-4.170753973104998,-7.275766081931357,-6.215393526356701,-2.506739057756544,-3.012097488527296,-10.059570266624384,5.275239000939186,-5.128650437827091
61720,,-4.561577817269669,2.286619534830177,-8.827658194500257,-5.013420156857835,-3.216944096652891,-1.8721014244920648,-2.264282138241333,-5.385353872924837,-7.64321109546647,-4.457915854103851,-3.636215587744523,-8.732384762028731,6.279509983385381,-7.04099327065303
61969,,-3.86811196848907,2.450638357579403,-9.232082227351292,-11.145133776748189,-4.315167495227421,-3.993484986690134,-5.836046383676983,-4.053660783971603,-6.8445633096969765,-7.970071964045834,-5.176805910191897,-9.08302411792015,2.182167845254189,-8.391353414887778
62219,,-3.9084528931127833,0.3514410261316383,-10.702193749662776,-9.280476918217,-4.124327283932189,-5.319308904824629,-8.465936193293496,-7.070302140186464,-6.919432274763384,-3.6061162913762654,-3.240700393819847,-8.489877775407797,2.3094493547198445,-7.056011876489531
62469,,-2.6433239443091123,-2.959648259379485,-10.748552155636832,-8.179767465210164,-3.402247184018545,-3.757794453698749,-7.862882546474844,-7.259502933230149,-9.810618334126964,-3.177882255649201,-3.0591868436512337,-9.51560560699211,1.0632466068197215,-5.478326583798696
62719,,-5.260246660907332,0.7137774124101105,-9.069061142865532,-9.378255263673324,-4.764476192890413,-4.025910584463464,-6.630896201169032,-5.625011409975668,-8.0784560296797,-8.525648802767357,-2.5758100551717,-9.380250865700528,2.962193938482636,-4.002624967826808
62969,,-5.814145619720318,1.528366913832393,-9.185247297901546,-9.274516036232184,-4.229629697254676,-5.311318688601473,-5.335745539790232,-5.526687127035425,-6.088939650994406,-5.882139442462947,-2.869420070431645,-10.059673373815256,1.3578820911555325,-1.869037795479613
63219,,-3.5628284824060064,2.8013128187202097,-10.798006557733151,-7.262205863926631,-8.884655483461271,-3.2322416285940987,-4.579371868491035,-7.423904589896697,-10.524804965972184,-7.175897322738515,-4.503655874320761,-11.153115796494578,0.2763252097634837,-4.976795283402314
63469,,-5.7194291078881845,1.2955319757273884,-10.917143880426876,-8.188670622594742,-10.087053893016376,-4.946340790405875,-7.2114084621596755,-10.656724429717004,-11.982477591843638,-6.721012268304899,-6.805417776708433,-13.114649800326578,0.765314217221379,-9.530754559829656
63719,,-6.816307929227876,-2.4821167064877003,-8.269461633840521,-10.64072872547204,-6.377439910446031,-4.916270814481022,-6.957751201405566,-9.03013351624656,-8.935514063759818,-7.729328767864202,-9.711889614215526,-11.52719063682188,0.3404017251680835,-9.697337035135275
63968,,-4.95900978989164,-3.144642961511772,-8.144839448663932,-9.42226742234332,-5.162969819024148,-6.825506717803931,-4.083930161029251,-6.164882968396265,-8.079598764509846,-6.506377231361898,-7.497379133579283,-11.387889067429152,-0.1270961751782047,-11.656934834347526
64218,,-6.707859805312427,-0.0862226501421511,-12.411529089265604,-9.061322739147675,-7.686429169451552,-6.985389259797886,-5.556845084774973,-6.682027526431867,-4.661883359204273,-6.364592208387609,-2.8495636130912643,-10.187319436961308,0.9008687889151724,-10.76879866879054
64468,,-7.240097542665437,0.5852927479134827,-12.130396538364868,-7.138556477093319,-6.99218670060226,-7.019817008989354,-7.293754825321974,-8.428243166565814,-4.017546335216349,-5.570526264344188,-3.4621434722668503,-12.096545343077722,1.840459147956254,-7.883500383579123
64718,,-7.140961491927548,-0.9861827910896952,-11.199651881929942,-8.826104514408897,-7.587707382590163,-6.049747019142612,-5.591080195303114,-6.63761811170226,-6.483112669131871,-5.957083112256898,-4.240356029504976,-12.26417339921963,-0.9544248427655234,-9.3626863157977
64968,,-6.923983112269748,0.2424951373974238,-11.983488396354025,-9.158414658697664,-5.527101096890615,-7.88943306598865,-7.476609467506627,-6.530377581134791,-8.070593849701881,-6.527485980974984,-4.167900930225058,-8.252043761647448,1.1989484573135227,-8.61546070932061
65218,,-6.447450149243149,1.9235484140079528,-8.113656786735996,-8.403453399082053,-5.383426727169724,-7.736910481970741,-5.323439789427922,-7.602890045828571,-8.14108117279014,-5.247594160476508,-5.786409815409242,-7.586937516881111,2.034823394709106,-7.090627214989025
65468,,-6.387363189184354,1.0422170987103776,-9.457117130984416,-6.690558588112518,-8.489767641655854,-5.838436969220906,-4.592641106852176,-8.057424303702193,-8.683065363986366,-6.382184484656902,-3.1778709680897137,-8.57610133118026,1.2511575995287707,-9.436042525918564
65718,,-5.666368914434015,1.221643260851148,-12.102913840298688,-6.197531715757921,-6.274242751988474,-6.2763743929596245,-8.382716998438557,-8.58635366596358,-8.495348594808181,-10.371412818148576,-4.5942014420817765,-10.80698260823066,2.2650261236136533,-8.368535675112797
65967,,-4.972294211014771,-1.52573276653283,-14.11486782382466,-6.223853087668617,-2.595146714900613,-6.062768159610369,-8.000605544844138,-8.95581054883676,-9.150041688991758,-11.704461541569264,-3.710846612515916,-11.074960083541654,1.345004529050355,-5.086769364566406
66217,,-6.332077594354014,-0.666891897126073,-12.284227493834102,-9.572413509106353,-2.150541110451964,-8.629645226402518,-6.421935668580511,-5.465886735842755,-8.282402735029548,-8.699234999937037,-1.7619895604287867,-9.021121592591872,0.2944222414710433,-6.087504940912342
66467,,-6.69726400905052,2.296546369016417,-12.41434884666504,-6.634626594852908,-2.049781438260234,-10.33524204041604,-6.110671025912077,-8.976048225361463,-6.122545437498054,-7.523128521815882,-0.5070945496078236,-8.511404629005897,1.1645265048483289,-5.974019238594156
66717,,-9.422023415889566,2.574814436845632,-15.335298145505035,-6.462775613949762,-6.983971171034346,-9.712104362666755,-6.4711009466965255,-9.759091169461028,-5.887664931481748,-4.921126922791983,-3.136487581860896,-10.837117979317629,-0.621568933950206,-5.8244703244743015
66967,,-5.350559216989719,-0.4285075505966443,-14.873179836226866,-6.365852813401195,-8.854864286465567,-7.839313439290986,-8.723073270859851,-7.191165008638957,-6.763161528268636,-6.911547207739694,-4.351430831191456,-10.29737711051891,1.0779097620349696,-8.153184801719688
67217,,-4.010413818063413,-1.3582229339991192,-12.812339946072154,-4.602937913633989,-8.964364984117413,-4.604767339353234,-8.510547333911495,-9.77269944929204,-7.844161144149325,-8.220317346540828,-3.40671810647926,-9.207696446394372,1.4625812962267206,-6.766469313770338
67467,,-9.026315617806675,0.9738184657999668,-11.166228095642223,-4.394486538258433,-6.997475468682428,-3.781580352692316,-8.472787957107151,-4.989625513334884,-10.596391858686264,-7.089763997754666,-1.312342053513438,-10.109696674133009,3.3762459643117664,-8.308149693777164
67717,,-8.579813545327013,2.8449398585097385,-9.562352041769804,-6.97682687628208,-7.336055737737228,-4.845540752395042,-7.064182886951164,-4.86422804715949,-8.791066284756036,-7.358477038276312,-2.5736948097410632,-8.174132769009038,0.9140492633001044,-9.469412566177748
67966,,-6.732076016078343,2.6758170562007786,-11.193001480848432,-8.199083587393648,-8.76551422347579,-4.820889930505668,-4.173079247200564,-7.922928591291992,-7.102442702878991,-4.844565588036817,-3.938678931189499,-10.092743198897,0.2814285625592888,-8.100313825401447
68216,,-6.218820429581731,0.7480274132294307,-12.559944695840056,-8.16070754572815,-6.802780524995972,-3.78468514295961,-2.1898224910528183,-10.486454962845606,-7.623638149151713,-4.774744944158807,-1.4664573774481526,-13.575397659408932,-0.998704956758546,-7.964920567967015
68466,,-7.562276401153733,-0.6792508645558988,-13.322952675926825,-7.955417435655816,-6.681553210707758,-8.271355206442694,-5.138372181171905,-9.26817584367489,-7.892890136994264,-5.714701344087069,-3.025205494810481,-9.425916434323751,-1.0211370325083555,-7.881947513123081
68716,,-4.1261686516841545,0.6917832865891214,-11.292831834329776,-7.945021422073095,-5.82539386795875,-7.41832198097323,-6.546984472205186,-7.066444110963169,-9.808616129062605,-10.290375958234478,-3.0415174569550807,-8.205523578232894,2.099631374138333,-6.51185683844475
68966,,-5.034511182301502,0.4888896552220924,-8.513246618774616,-10.934758643352584,-5.203932872181011,-6.333650621574073,-5.994085907386165,-10.26196878816851,-6.656854962781122,-7.689705284697173,-4.350145143282856,-10.78889518953437,0.9687694695102732,-6.887111665578728
69216,,-5.22460447929655,-1.6243867819623254,-10.141398005262786,-8.868133646622834,-2.842550336204066,-5.759911993832735,-6.312875099726786,-8.458925984702372,-5.893803151738042,-3.8957235080781407,-4.564632160546097,-10.210702343033368,3.827987172465524,-6.593939600640205
69466,,-4.257384627272238,-2.1213491046162574,-10.058265472516968,-7.669294021225558,-6.326631352406756,-8.983551891896985,-7.129154228339564,-5.841016034635781,-7.170714131952458,-5.287499764853853,-5.71394732803954,-11.07437827808582,3.387297601831774,-9.89586468113206
69716,,-4.450893626655749,-0.639235024220334,-9.872629466250924,-7.391335743010247,-9.536532807406816,-5.194255898904839,-5.7143138551646855,-5.819062974668108,-6.630938412353001,-4.002123568035127,-6.325789457842061,-8.321114569309765,0.9930452690538336,-9.253759585316564
69965,,-4.2751166112621775,1.511632382920581,-11.26441983207426,-11.200586210303117,-4.918289281640861,-3.1880052324399566,-4.622604305187745,-6.685341123390681,-10.528049680188428,-6.507538672487848,-4.321207910750314,-7.814167052448586,1.8995709399255143,-8.180974697969853
70215,,-5.906854274367326,0.5781792433443722,-10.492447221340234,-8.788792270158126,-1.949954497684111,-5.451585306329343,-6.733446104392662,-9.121933748319917,-9.976485037930376,-10.657714738826716,-3.392986938058915,-8.675513978881783,3.345038774822198,-7.218116837831115
70465,,-6.949381809398901,-4.03438941872226,-11.160760267150636,-11.501084483217396,-3.747137540407678,-7.566518260761834,-6.020639250673448,-6.585895831042798,-5.8992449157610025,-7.227232494643273,-5.897606911492199,-10.012732627095184,5.484154432083521,-9.85484086608963
70715,,-7.44276491059467,-1.4644020847367023,-10.771091681251033,-8.125522088076568,-5.3508463755843225,-3.816440793185325,-6.206201615369431,-8.690612367967134,-5.561293208627766,-5.715711343029773,-3.5306712762230896,-10.505805726740077,2.5500479661701907,-9.914001964284711
70965,,-7.430081840386276,-0.162420493726406,-10.86989242387052,-7.305311132822362,-7.068096482796271,-2.852448392875608,-8.197457932220932,-8.1791645668498,-5.259503824864135,-5.296179020762804,-4.65319774144916,-9.740454954982404,0.7000611912885689,-9.555713171944015
71215,,-7.363633670452936,0.0332697941902999,-13.992611819546037,-7.649272497801544,-8.630057385432853,-5.570836633351339,-5.421402178562986,-8.98384295540701,-7.387688235293439,-4.664410218892284,-7.507806079738192,-7.692212191790974,4.353220880652758,-9.891465924194094
71465,,-9.445708088313438,1.5471454016969377,-10.891683712190725,-9.248896859962842,-6.742991368686778,-5.907535113758593,-9.144464365944238,-7.766653307959375,-6.049133898931216,-5.551073386616048,-6.469447020071407,-8.587945791295837,2.2460829543579046,-6.869118672193544
71715,,-6.016832526249272,-0.3237170948286227,-10.608743022252128,-9.709217508394737,-7.34851751828968,-4.396669434943652,-8.44884531579978,-5.031102247013999,-3.7174058810736073,-7.0624013203951685,-5.86381655039053,-9.3105659061491,-0.3773156206140887,-6.214729307336785
71964,,-3.6997485452307344,2.4032317482327907,-12.754114135879291,-6.472949825036675,-9.851112824913226,-6.014994367023485,-10.346121028657008,-5.065226532258627,-3.3433043533089704,-6.88838852685903,-5.667273808146173,-10.73486641489759,-1.0456772800005034,-6.649800292757836
72214,,-6.276607690733147,1.6564626037928298,-11.841811745206227,-5.566986739418822,-8.816678824526086,-6.181028650502542,-10.862387197351966,-6.515545796960054,-5.549185795027784,-4.67137802215956,-2.976699405449139,-10.179379570421494,3.2447261345814,-7.717019706892266
72464,,-5.9091248126570886,-1.5966326892620923,-9.58296438419364,-7.886548954303736,-5.789540190133254,-5.604718116010367,-8.258459521822338,-8.804395564085725,-7.922040162290051,-6.121220871022009,-3.8273088086844975,-10.438021434965783,3.773195099870615,-7.133872301763943
72714,,-3.4907277628986613,0.0348706113438993,-10.577175365815831,-10.117913300529782,-4.054053995315659,-5.833034616957646,-6.491181053547873,-10.095943707519652,-8.535393418435415,-8.464971491846558,-3.5745469792095665,-10.142704264922788,-0.6922474179493323,-8.07408567400531
72964,,-0.7839101772606418,0.6526322052665836,-8.486634436608805,-6.648755931384286,-3.113187398840865,-4.975883400170184,-3.803675192631919,-11.105018377876966,-5.50220052105178,-10.456730881902397,-3.5806546510557387,-6.293604246797844,-0.6479728898669711,-4.181590092656733
73214,E,-2.3907698819944607,2.437373758645622,-8.784296808889177,-4.062714523510032,-5.152818833652671,-4.95145818400247,-4.410083589879836,-3.7474972815722456,-3.759337121150565,-6.172593227983692,-2.8853236494822774,-6.999591422315904,0.4449242481611999,-3.9418055720721386
73464,,-2.0115505171322456,2.100153607361622,-7.553166847690881,-3.0914438657463306,-4.761990054042674,-1.23851064434218,-5.649099503736372,-1.8463276327653333,-4.530227037331542,-6.494658741669818,0.3341454202912676,-5.06134675577956,2.022223704342805,-4.53766772913899
73714,,-2.03539288858381,-0.6796029083730477,-7.623329193280556,-4.028485920719657,-4.310499392610575,-1.020356510083663,-6.30712352003176,-5.505182867157781,-8.082456748772774,-8.024155607511565,-2.827284087346044,-5.292958179003269,0.5970836121403205,-4.760041887022823
73963,,-2.929759932567336,1.7663987032292383,-7.497773851307534,-4.36144425863721,-4.10758437175374,-6.443314979530257,-4.031509634471515,-5.739192502713076,-4.919798810136486,-3.892125757141232,-4.161812462179792,-9.470194597407758,-0.6737898363086191,-8.995015153777304
74213,,-2.93858615077277,3.415749078556753,-9.94655539197084,-3.7886983296496792,-1.3814477200206348,-4.496408754229073,-5.4993471293723575,-7.285664346278287,-5.975123416459942,-1.1689080658647677,-4.166802349771004,-11.263900443070956,2.1260864612103165,-7.244576994677699
74463,,-3.576236578190569,1.0564939962404598,-10.50044806627816,-4.419631629785556,-4.160567755371493,-3.1531591371416705,-11.675172462414212,-13.236696113799288,-8.837158521141982,-1.5940280316528486,-2.178645131631962,-9.098464573861603,5.634456616364696,-6.210079362669013
74713,,-2.755732921048562,4.662366369640684,-11.640050496700097,-3.1230258539592444,-7.31990164669173,-4.242026491883484,-9.71120989730078,-12.92016832303795,-8.39677935695663,-5.378858550124042,-3.589423082168528,-9.270040086641725,3.887315885375636,-7.365465921728696
74963,,-2.975926428292617,5.012354619864322,-9.548697391379484,-4.211844942569326,-5.313660626138032,-7.08286850497745,-6.839376541037755,-8.639461183874754,-6.9122793137965965,-5.297244067950864,-4.01884083212951,-8.956636325307866,1.308209947002733,-4.773488523093324
75213,,-3.2676787764762736,2.3942246377664684,-12.818405701000826,-6.021526898723738,-5.400519577528623,-7.318830548050669,-7.5731867781238975,-6.273210043570513,-5.198533602214029,-6.980013601722391,-5.082203488024922,-7.498496354245217,0.0637203506613149,-3.752376974640849
75463,,-4.411337242179122,2.2324856236069306,-10.8357089747712,-5.828218822046464,-4.624047472975801,-6.116721656656612,-10.765962661533711,-6.459127115942554,-4.330917341158864,-4.245261474540554,-4.860313307201163,-10.833734150987372,4.592986236633117,-4.509014424666858
75713,,-4.924847208682607,0.3818232224826481,-9.530382699319436,-5.7555234311462335,-3.5397013290658896,-4.988494199276919,-8.432518358850263,-7.190983506419572,-6.201284476398515,-2.971678130705725,-4.7475469038298295,-11.378963877588976,5.17812776268773,-9.686102442306456
75962,,-3.760413156055471,1.4425857236933497,-10.714201202633324,-1.9217108948260984,-6.047475971696159,-5.011531236113066,-5.783322152019981,-6.490721093726133,-5.457687570730866,-3.602447359083208,-4.122663459544949,-10.846164738782198,5.302184612183906,-13.409962940376872
76212,,-5.304563418596116,2.53045238351278,-11.116929226178607,-4.409180142597511,-4.000950344670823,-5.307962376846696,-5.455341297629264,-7.825731083519479,-5.863991178077054,-3.622446997202302,-2.009725112238957,-11.05111816356089,1.642679961108804,-12.012875252818889
76462,,-7.332645113476326,5.319230612936532,-8.957976136577287,-6.777429370980398,-4.184507323132046,-7.13605029417253,-6.452801965826705,-7.925580659002705,-8.510639870949587,-5.981098526209438,-4.415058520070275,-10.4890784755619,-1.0621076981501356,-10.547401777354295
76712,,-5.439538168526571,3.82555626644621,-8.751271953588324,-5.940810693355527,-4.207762389247111,-4.883477631079001,-10.27467406251204,-5.341295843061447,-8.032918057569006,-5.422392047519905,-8.512685934267392,-8.513486006006556,0.5147448311642842,-7.68968302712273
76962,,-6.700432976387548,0.3613556350881435,-9.339018254304928,-7.882231635300191,-4.903665778069588,-3.666903272740666,-8.951853970478606,-8.045051759469558,-8.537192830008136,-7.2902060109274816,-5.956398621904243,-6.702874074163232,-0.0633320848262119,-7.177120938218278
77212,,-7.12426053773865,1.8368114526605388,-9.461397174014948,-6.107907998897718,-2.670761325645387,-2.5567405498859266,-7.164634441218824,-11.685984036138125,-8.768213652427338,-6.757847178048872,-2.8416084871318232,-6.629557798356972,0.4862501813197048,-6.240494901621481
77462,,-8.489402206360747,2.798693926191423,-8.895597869765123,-4.03632644755291,-0.3827263809551,-1.1963670431695037,-7.18028604169092,-6.157568015155638,-6.05395502308951,-6.562887136825216,-0.0409308209600254,-5.54958387175947,3.76955217781955,-5.3203760526795545
77712,,-4.788514167377757,2.123979180762064,-8.936233993252426,-7.883419206526829,-2.6743345305587347,-2.250956574896306,-5.414749495217256,-3.352682749341234,-6.657638985715787,-5.4149085646428485,-2.2958254480944973,-8.788128575395591,2.8914493335139624,-6.648136576085054
77961,,-3.28571829751166,2.0399293283678905,-12.049394812095125,-6.913709694730334,-4.5603376811435945,-4.727752993636633,-4.869391376980523,-3.701921202561114,-9.419837600007382,-7.225535513252716,-8.364133055265286,-8.99193823310338,1.7456384536665912,-6.110450668052257
78211,,-2.1880094630989926,5.631243656118743,-15.766897291422088,-1.881624120678098,-2.39167886729668,-2.4588597440913555,-5.665390772348143,-6.054850890361379,-11.813161991303232,-5.884652234592811,-6.391048918083246,-9.78056542657074,3.053730286085789,-4.739102343646789
78461,,-1.861315017473769,3.029640399780806,-12.498895139058453,-2.11877178514977,-2.339999089705668,-3.903026107842399,-6.221363412191703,-7.718970389113233,-9.958223018531182,-6.478381787909566,-4.367352004229616,-8.739937441644399,1.5462702405606663,-6.147067788538807
78711,,-2.111683083273745,-0.3322405769195218,-9.891050427535289,-3.448074698522659,-6.294380113516562,-5.801849348640971,-4.784380451483289,-8.772094095411868,-8.577879129436809,-8.22421559123008,-7.525940391383997,-10.008615737644796,1.2984885534715356,-8.219355246051851
78961,,-3.2816147029721883,-0.4903999186168653,-9.486526759390202,-3.591923670964263,-4.868832030184194,-7.568058899705759,-2.898764761077576,-8.10015388938121,-7.848817202516914,-9.337212196100245,-8.100373451429677,-8.38538291497643,2.238909575944376,-6.82831922679858
79211,,-4.911511045255592,1.650294223126349,-9.827224360660749,-5.112396770824606,-8.181870818348568,-5.104873910749301,-3.230993625058724,-8.351343008671526,-5.977989546955684,-9.33803466655779,-6.31102294488851,-7.944369233251226,2.6062571338952867,-4.393678272773508
79461,,-6.1670792824282605,-0.1562733594890216,-10.29517261863232,-7.690315592165179,-4.404234834499027,-3.743936033794132,-5.502761361561175,-6.178255267388196,-8.567455326539573,-8.361987932639245,-6.960889821615616,-7.708861378327768,1.4384022054097052,-6.417405018157746
79711,,-6.566780014727324,-0.8099768791681952,-12.009035548352164,-7.613617272509744,-3.8281267044091294,-5.477550385612196,-2.9248869071416688,-7.629241535194673,-8.517691587115578,-8.119984804637346,-5.79197456688584,-9.472857874258455,2.347936637799834,-8.485691008076255
79960,,-4.235844311713633,4.824084799841749,-8.651131087695376,-3.7159041457041777,-1.2900812069953236,-5.799128662066023,-4.559514054380729,-10.147773004872274,-8.470556225197756,-4.991211154256811,-1.8616043536118525,-11.903127625802783,3.18620599659313,-8.328649132347227
80210,,-3.082767208332719,3.4811739771608767,-9.625422066973494,-1.1981969636503924,-2.226394317224436,-1.693747055758189,-7.78026244011084,-7.006167768575425,-6.680238458346239,-3.319456765859102,-1.2525495302164695,-8.917015955271339,1.9312526452125889,-6.522567226929327
80460,,-4.035642755921383,-0.5214044955502213,-8.358866143385145,-1.04480751414204,-2.7909177868754487,-1.3197760018272109,-6.20105732869108,-5.54603737567631,-7.632418666307752,-6.733805216252002,-2.161108467516378,-7.720203576369694,2.687195979758642,-5.455378216010937
80710,,-4.465695845240447,3.0146931252445186,-8.770862056900611,-0.2771774052894871,-3.4457265106842305,-4.473716348793776,-6.847413322828771,-3.5519056228404686,-8.214689945671958,-6.708692375475432,-3.1986790064452104,-7.873366375191996,3.471166764938021,-3.8673616266057778
80960,,-6.463554420195687,3.803482330999222,-11.074596629588996,-4.067337470987097,-5.231720441058995,-5.846190201881679,-4.400285570158637,-3.993501010860945,-10.048537251442756,-5.312693297893444,-4.911516280322369,-10.212198770337348,1.9891716556623344,-4.347643964933964
81210,,-8.28698457044982,0.1429859936713902,-11.550534964897793,-5.05486490783314,-1.846983911568724,-1.2371485702831666,-4.333515477501547,-6.13346087045066,-7.437582178279744,-5.132944878089338,-3.2281330192773154,-8.498425189591254,1.3895592890857618,-7.453500350144258
81460,,-7.248328585090284,-0.9584942038464972,-8.294688111631912,-6.455826488228241,-0.6202361222239294,-2.7280609352258955,-6.68482418061831,-6.924093642057123,-7.042557808248928,-1.9550468051595544,-1.1898134537583551,-10.169990983389663,-0.3151977395031632,-10.570239669062644
81710,,-7.613746193142663,0.9870048556223556,-7.426159132521361,-4.352648593464855,-3.479232454441532,-6.544539265193867,-3.729331968828472,-9.221160756811376,-5.083832821704201,-1.3774837372652995,-1.6270621116412889,-9.410079730007686,-1.01112092738024,-11.654347278667238
81960,,-5.101359913958628,-0.7093978103542173,-11.87017517225846,-4.909905711992173,-4.327523132773379,-8.461664410160513,-5.590674800393646,-9.154616059684988,-8.365293198581774,-7.31834610871317,-6.31606538199474,-10.181679358504446,-0.1836450330270418,-8.257052208308435
82209,,-5.653845415765612,0.2924264419493838,-13.907022151588826,-7.94907623895985,-4.347711865062491,-6.451329306804369,-10.087460457330636,-6.269641330054885,-5.702203546912345,-6.748397620876085,-7.212296856730123,-10.26996142283214,1.6277737989475989,-8.105762837415034
82459,,-6.704204859963621,1.6087362429936518,-10.450597183356669,-2.806586983142243,-2.252207588073051,-4.2806225108861735,-8.462181199891997,-6.3423070945054905,-7.37733542645608,-5.919321043418787,-6.945077987379578,-9.911536570328431,-0.48350105411042,-8.559527067856674
82709,,-5.71327999483213,1.6573642221070015,-7.881561021575566,-3.566510998299118,-3.518524855498428,-3.2049889538197145,-6.213967558124447,-7.724893635130792,-5.99524618480626,-4.964907732876514,-6.783230297630394,-8.557985151972133,-3.328324674903301,-7.5282444328368925
82959,,-6.458633547860052,4.137789205613553,-7.458325846909685,-1.9716720783700104,-2.960086543696248,-1.350804031264104,-5.558774159341345,-4.938134121285732,-4.681108103480221,-6.604206714935939,-6.5713301158229065,-8.044343640605234,3.3373033525724343,-9.258425002656557
83209,,-8.138526944795732,2.753907168718854,-9.440229619415984,-1.0386739149388942,-3.175504253261879,-1.3739346661500882,-6.46457433619384,-4.3509833857964,-3.982110187359187,-6.435999144706212,-7.826373977710696,-8.470479038711364,6.318370962132031,-9.007270515308331
83459,,-5.088875429966004,1.8657734394979208,-12.741351212345888,-6.3127695690853605,-4.488621844889026,-4.731917016628234,-5.098458964305433,-6.663753079109983,-7.880491269047018,-9.384612011830232,-8.189580609161025,-8.938244884790032,0.9366070736286428,-7.684439486467312
83709,,-5.030166758503521,-0.1876652315896293,-10.90487925209861,-7.687711691670282,-5.960880678476123,-6.365212034605391,-6.510721630768853,-6.677843776937471,-9.424149963849306,-9.950342722700064,-6.7713817340106,-8.696529484248734,3.699709917404906,-8.62247735745761
83959,,-6.303295405097456,-1.4626517862471196,-10.0047841248589,-4.428054521516801,-3.0640005256422653,-5.381869777493812,-10.660431207262262,-8.791466264234634,-11.327819767574578,-6.965362177173303,-4.415021585454327,-5.497966974250632,4.661062631830316,-7.208558458517622
84208,,-3.292356814874916,-1.538011209073895,-9.782567665468164,-4.041913000323803,-3.1503195459021267,-6.825714452736599,-8.489337622376953,-7.857463569510207,-11.495751797904212,-5.139897288108757,-7.324201773061648,-5.709131254950776,2.1371623425302797,-4.163116279494799
84458,,-2.6511137312603643,1.5699351500195895,-8.49381831846072,-6.011679773620308,-6.590126615163406,-7.513205768883965,-4.13561488040938,-6.272277526975563,-4.834461682335089,-3.0330361197047475,-5.944567880669678,-12.094505370307068,2.328685417853088,-2.09166964519803
84708,,-4.142660811878275,3.0872955127670028,-5.809915094296669,-7.413164050405197,-8.145465263768749,-6.609735345393974,-3.498462719065969,-5.381914845182314,-5.258006585988332,-3.216520308553426,-5.937511564408425,-11.428680782250655,1.0136852783344583,-1.5673256070782693
84958,,-5.949984778964228,1.4037141470353107,-8.236456341096003,-6.683529012951038,-5.209629385525799,-4.198642533983467,-4.112579049698893,-6.199001267657379,-8.013455406801969,-7.310350933271408,-5.571963785573524,-8.713048123039465,0.5496570889572021,-3.0754573986336253
85208,,-6.804106922730052,-0.6297229243724688,-8.634709768680956,-5.249613326436824,-4.024287982259708,-4.725672746891983,-6.947139617090034,-8.633980202264931,-8.840391375374544,-7.631947745768124,-3.1167036970532003,-9.352054990709384,1.404004359620514,-3.76326377916285
85458,,-5.602258127300377,-0.0944507499189542,-9.93625018593891,-9.191693408977882,-5.821206980123126,-5.944579343459196,-5.189243727575505,-5.449436566130159,-7.539696945110688,-5.877048628263491,-5.54442363308339,-14.210314044480905,0.8351734667364266,-3.576160678099232
85708,,-5.2782009624589765,1.976131036933309,-12.041572281877963,-10.315022465936238,-4.453356158629527,-5.363250208480155,-6.180579838744365,-5.446165427236046,-7.6531403832884015,-5.9952369752639125,-5.813992187773904,-13.65572647651446,1.996463929962876,-4.245058112352121
85958,,-4.828338589793839,2.5328741802798853,-12.281007833818167,-4.277871183122203,-5.71691737432254,-4.917334733862134,-5.097886479587918,-4.21765807870613,-9.772409324227194,-5.82175976996499,-3.0378200673148923,-14.083499358215663,3.946435059391354,-7.411192015106759
86207,,-7.379003156558649,1.440905955158435,-9.747647653482264,-4.766570675765936,-6.50686227523572,-3.8650178061119513,-6.82896078832915,-5.119186100637685,-8.457464657639298,-6.423309112120209,-4.918512634610056,-12.460617222852168,3.3038697743628225,-6.894810777094529
86457,,-7.09896699970448,-2.5321796142695745,-10.04193977621406,-7.028559239984822,-6.232988367872058,-5.458909452816395,-6.001450159637485,-5.488914968294802,-6.104266427337112,-7.759336263116447,-6.60944963257813,-13.39595215093434,1.2977877469029169,-9.362687245276447
86707,,-7.3542432854922035,-4.480077818081757,-12.70536556531077,-5.896615685036952,-6.572601362699979,-5.746245764237251,-5.299875558733554,-5.36056288767489,-4.296644305725438,-4.854639153547175,-6.148465486998091,-12.373902688007751,1.0325299997354516,-9.627832145439374
86957,,-4.544742626170841,-3.738045313476965,-13.691863995809088,-5.583055959479087,-7.069328454048325,-4.6276243387604605,-3.9418318311713074,-6.061551322310949,-7.356386495730442,-6.306607816220746,-4.7719484293509264,-11.730028069413295,2.139809029864885,-7.687890609509229
87207,,-3.7403798361306553,0.5727007404186052,-12.125109312951723,-6.939842250851052,-7.258244974817975,-4.562063994674002,-4.751257701609292,-7.319030746026564,-8.366223597517324,-5.384476602497688,-5.4717346571709005,-9.96161159275857,2.7349418873086577,-9.07267080669902
87457,,-2.975263393949355,-0.0907855712967419,-8.654957271568845,-8.695375995217653,-7.596596583314139,-7.072989941292491,-6.553880201532275,-4.8200227436992265,-6.981515647187094,-5.860107378483916,-3.4833878146714974,-12.237499057906556,1.9053489209922208,-10.066798563326152
87707,,-4.399003220777908,-0.5881363056953643,-12.199365115719347,-7.74617488092725,-3.484504772857211,-7.010479080262941,-2.7488807558383628,-5.604377894109449,-6.585307982980862,-7.51940935793881,-4.190321941212437,-11.02738555558046,0.8318139907579042,-9.494893325680898
87957,,-7.674212070257234,-2.197150699005527,-12.737598692021727,-9.631283747384837,-4.6313471306492415,-5.800746254172009,-1.881359866211025,-6.607608851914339,-8.80841153651453,-7.637820011124317,-4.999170045357754,-11.26063120762084,1.0595734067184177,-8.800280153070226
88206,,-7.435963683422383,-0.5922077395341971,-7.947769263600768,-5.224329652743872,-7.446056422173815,-4.479865594849991,-5.827138014358826,-6.839188068933519,-5.483433908759363,-4.973627742327729,-9.087315049257054,-10.221770038133208,5.042792717685262,-10.062790268826609
88456,,-4.924703379292162,1.2697844990128937,-7.658500743283875,-3.0199945490049327,-6.728787356690054,-3.3763234465477714,-6.211504121059532,-8.611943032359461,-5.614469784077634,-4.3141625028529305,-8.30395051866188,-10.423207549133064,5.466054737588024,-9.334991326579706
88706,,-6.426036336063227,0.2126930414206082,-11.270219204407365,-3.788117911822354,-5.931862448856055,-6.1842415110727575,-6.378436706174253,-8.293668618666395,-6.888257417103255,-6.243550339926527,-7.836178323352736,-10.074513323705654,2.095540045864736,-7.925018093247046
88956,,-8.193120686547813,-2.363962191824037,-10.659343651128072,-6.1915198264052105,-7.727383243411692,-4.98964340191121,-4.905790200036694,-6.8383581496896895,-6.285661886156219,-2.935193776508773,-6.989548417147663,-12.180182319864878,1.961685088940905,-8.842198371436464
89206,,-7.267028080442436,-3.3848941516293287,-5.499547334177918,-9.243857941663528,-7.586205269021539,-6.449790974018772,-5.446648898262103,-7.618586038517376,-8.935487425971067,-6.472752599139247,-3.964762566823605,-10.34299268474994,0.6702175633222861,-7.911136644672974
89456,,-5.198690210338127,-4.877119964794153,-6.609771168130538,-7.942645665195528,-7.267347158194831,-5.39144919384491,-4.679570400466795,-6.61031743784644,-8.478919274596809,-7.370806900241247,-6.442249738112521,-9.53521382116185,1.321944315644579,-6.583467433599922
89706,,-4.101345908452709,-4.1701232429807344,-8.718028166400488,-9.131766483876756,-5.308514117083116,-5.975710434265331,-4.125211750611552,-6.147228434492814,-6.888516512903847,-5.742153484821494,-7.469345298328638,-10.12580280200636,4.273001546596351,-4.045024424585765
89956,,-3.4467639511930344,-1.1815133922730936,-6.491966675118852,-12.799375193934813,-6.6553886612792565,-4.386317700814252,-6.476766851755872,-5.407206639164407,-7.687701168342085,-8.200109378063209,-4.102932094752449,-12.680466460390758,4.3204472897349735,-4.974200415407351
90205,,-5.101773538854211,-2.3323368265944504,-9.739935588964125,-9.60019243487407,-6.358662889529414,-4.815509781871611,-7.208468255116902,-7.424363129413479,-9.137435607776256,-9.61481594245108,-6.356243915875655,-13.60587336631696,1.266683057380182,-8.68962592610325
90455,,-9.17025149046896,-0.2427880081881064,-11.5797206384189,-7.470385231657477,-5.885440682966233,-4.462418210366298,-6.703645759254885,-7.692339839932012,-8.83607526959974,-9.303344448811949,-4.872851908710484,-10.158746736679326,0.3313645498503965,-9.90350049606505
90705,,-6.221012687560778,0.501758635995345,-10.707321954938276,-7.651275354709329,-6.982353177094499,-5.161977844098626,-6.861217602209292,-8.670571110521943,-5.917849010366355,-5.099677512424687,-4.765402196064707,-8.293316662736784,1.6255868629703696,-6.539380135483208
90955,,-5.136845788408966,-2.048947217022291,-10.31458854865365,-8.620625688334108,-6.718297891578066,-5.442459214991729,-3.2777102697278875,-5.498417897281637,-7.523358296689169,-5.021130260906554,-5.405984730461765,-6.943093925449373,-2.026100729710907,-5.442248142091088
91205,,-7.967289599495873,-3.65586076204905,-12.252165419237013,-8.518869005720584,-6.719551799042092,-5.933159448789301,-5.612402253139814,-8.140162892135235,-6.843571958613768,-8.486545226156375,-5.655765635974451,-9.57949856269763,-2.294456282367441,-6.911787688105773
91455,,-7.024325428216162,-1.107728934180813,-11.91915233107733,-6.909651528855704,-7.637663480545149,-7.484978568770745,-6.117932690744469,-8.42565407343687,-7.843015536032682,-6.028217264100039,-6.14492457139456,-12.742432126811863,-0.6531231651066023,-7.545765622522293
91705,,-8.069700225385906,3.0848472143109937,-9.461125322331752,-5.755355021665832,-9.489929918674978,-7.969352005039353,-4.171193060752538,-7.503143123363305,-8.203563507872056,-3.601499769234051,-4.682084973073187,-12.885515482260963,1.978972766627186,-8.183178565968753
91955,,-7.442168541509096,0.7788048253151235,-11.267035425934647,-8.836136011727003,-7.926923244256691,-5.052671873475237,-7.46394480320884,-9.284188196724122,-9.011379992066532,-6.191400539343164,-3.3883859494145474,-11.151269422374234,2.656546969882911,-6.4344747279922565
92204,,-8.761711037596429,-0.7588208260580203,-14.029805759297378,-10.658848233857825,-6.064062346932876,-2.866942917680576,-7.90897159980128,-8.207343884581594,-9.80681726252912,-9.055512527681236,1.25798865638895,-11.443978290090971,2.5565234984701144,-6.2878154425920885
92454,,-8.802797721238013,-0.2964427911046637,-14.4202898579158,-6.095611468421527,-3.030454147211812,-2.763647988770713,-8.159243773519998,-9.157072797398424,-7.111891930905943,-9.919147337614511,0.0664705546125202,-9.11775240684028,-0.1179669667358957,-7.729672558036242
92704,,-8.20575581341561,-0.3616193472317573,-14.840834645811828,-7.353325139086429,-2.304780998983413,-5.151834191540434,-12.32038817367088,-10.221720394186068,-6.335120232366124,-7.607298075994125,-5.044496117900959,-10.23191512972314,1.0188724328436425,-8.117030760359295
92954,,-6.008199573577313,1.637650567125488,-11.04291470579808,-8.638535386225,-3.011004700945239,-3.4246599693798325,-10.49593936066244,-9.784543874306715,-4.767801051595261,-5.607161918640347,-5.222708246578929,-11.407681367299922,2.1890523628451284,-10.843487983998155
93204,,-3.03181728171714,2.728014094498794,-10.589249044509067,-7.2828265804245955,-4.241977271209056,-3.672188748367125,-8.636100622809707,-9.79009778263489,-4.426132878064934,-6.645874312047507,-8.010044115100944,-11.964517352217594,1.729894563386354,-10.397461990875554
93454,,-4.350203316266562,0.8723564787438025,-12.935576623516392,-5.8957671590386695,-7.080246727618072,-7.4586003674255235,-7.804869817870137,-9.74209724418758,-6.635702840815978,-4.1159535348657,-4.913072930922639,-11.88846306409176,2.187945243278961,-11.76627672344509
93704,,-8.933518101660717,0.2788052696278733,-14.529065329745306,-8.906737047092673,-3.978619735408127,-6.745237358944866,-5.956974258803522,-7.063663663201185,-10.48842172456386,-3.2383064233456182,-4.983699111777857,-11.41135698983281,0.9505785715141578,-12.328548718778524
93954,,-6.504692476051405,-1.569850207472955,-10.606578230004098,-7.969115894916684,-4.889522992566656,-2.4459002641041603,-5.546910211989129,-6.30705679890564,-11.532858574906752,-7.892754527543427,-6.919370115715115,-8.743911433673627,1.6510388379535734,-9.06051913830404
94203,,0.4769703942856698,-4.984663201044114,-8.495704907119425,-9.772417014158748,-5.938384493144819,-4.438400443413228,-6.696827098926477,-5.171897923299049,-7.768518344925505,-9.232292182933731,-6.633329690812076,-7.984064548020301,3.4918657130184187,-3.746292410825665
94453,,3.891553729177966,0.8139281978042903,-6.994214226746297,-6.112654535088348,-2.7503132348886696,-5.351192788849345,-4.412269913940163,-4.25227185032043,-3.776712671382136,-7.855959473416105,-6.975528589793104,-9.574973276677136,5.04723505133718,0.4518108029271433
94703,E2,1.9020862740924251,1.666279560684401,-9.091165387823745,-6.815833840795164,-4.310859934692427,-7.345771621962081,-5.507856836205587,-4.834593731253976,-5.732364673060772,-6.852123760892878,-2.6460848744691434,-6.950904398580155,4.24151345671629,-1.3123980086684082
94953,,-0.8877282047820381,3.4524110851860623,-9.143333077597369,-6.368898914440075,-5.086887944711802,-2.433018452668491,-4.111313387831083,-4.489203764676305,-6.355184715216269,-5.2130209850627205,-2.2471914661183567,-7.27632279850331,3.604124782698976,-2.383663984633204
95203,,-4.153695816825338,4.443696033771821,-8.880917880712873,-3.5510087113158284,-5.667495282749412,-1.5418668786210163,-5.016729397616205,-5.456906974326787,-8.153327388491226,-6.973561148105404,-1.8969707021038755,-11.698442326820045,4.2228198227682405,-8.607528172701297
95453,,-5.461646833282532,4.369387146333067,-9.176454963110418,-3.817568030263384,-5.517195892106805,-5.146828726516322,-5.677787677341809,-7.1628236397668985,-11.358813593562337,-7.179519996620254,-2.572805614972014,-11.069461910814152,0.4136660676587522,-5.254571865834935
95703,,-3.698217330203168,1.8094668634390356,-11.21114129217672,-2.593889631643511,-6.377562473327271,-6.360826633050564,-7.528786567286599,-7.180287917704662,-10.779930227543035,-5.063396909091705,-4.568585575617368,-11.789792551918891,3.294973303775281,-6.797138522889984
95953,,-6.881955347523558,0.4281001681323607,-13.382191602912652,-1.3262199988799253,-7.6268403338485875,-6.040389607476664,-6.951039191847546,-7.840086769374478,-8.6278387625712,-7.259821075394713,-4.966303954576295,-10.02987238220384,5.615381283185962,-9.229336454552936
96202,,-6.126301869121276,1.5088480132955493,-11.575067177266185,-4.031915587175307,-5.885966470070762,-3.8821030583315626,-7.391417969521173,-11.58191758452656,-8.145576595750777,-9.98323488757817,-3.864890976313317,-8.61767153245023,3.656366704342377,-14.043880635336938
96452,,-3.002334076947519,-0.6209249687211209,-7.175526190701543,-5.103215166553834,-3.8804706656301553,-1.2538680421158324,-4.670576344276467,-7.882122475037883,-9.543705296796892,-9.22420773004183,-4.131377107381303,-7.555225993003063,2.458606516896613,-9.027755818933391
96702,,-4.460800674407897,2.7320025769993155,-6.156264595804722,-4.070164497361255,-2.411863550916766,-3.8359312574075135,-5.136548445436051,-5.639606054109509,-10.004880316186073,-10.304454428843108,-5.094130846103755,-11.654218797617723,2.8405177764181078,-5.248690445324336
96952,,-5.322918121651941,5.70116527228283,-8.966765574306176,-3.993954288405575,-3.149890555546078,-2.8929963865235515,-5.709776844183937,-4.465611065799803,-9.16931558090306,-10.060787643106863,-5.343526433056836,-11.64871262296347,2.90487367019296,-5.742091409864695
97202,,-7.728090173018373,4.030987800895028,-11.571427095350534,-4.633186758465719,-3.436211014705637,0.2270794403641291,-4.201241689716225,-5.816172483731112,-9.844825082867644,-6.185077479702655,-1.1008249414535758,-5.921534652452851,4.3091368495091125,-5.383183005215592
97452,,-5.944736499523246,-1.10608504687655,-11.05071670282005,-3.0857912679615995,-2.8001961581818477,-0.7331511765980291,-3.692647669810771,-7.46733520316474,-9.149644231686551,-5.9281610491677,-1.3551273337445529,-5.835074059964386,3.2043775056614745,-4.7290002968163725
97702,,-4.937596698879952,2.1931401888120394,-10.849165460658432,-3.088055355836538,-4.56279011025236,-2.5592857761441983,-3.600817683538062,-10.577781331499484,-6.6116124990997305,-9.319157510275076,-6.805778510366645,-11.916824269767009,2.6682351999597382,-6.130979659692086
97952,,-6.043411582474933,6.950063827835051,-8.829142105304758,0.7518092944527672,-4.26580276282392,-3.790127614540182,-7.658407417883225,-9.924525212102758,-4.855306323414378,-7.496291287358741,-2.3074021825062743,-9.986942735248366,5.0470709196890144,-9.612648108851788
98201,,-7.069165421645068,7.233568986884555,-9.56932948338493,-0.3636771504275987,-4.463921716877963,-6.809589121187861,-8.052965729347894,-7.173491072812304,-4.444535508769938,-7.646709330422122,-2.751150807168101,-7.917652077372504,2.82465396536569,-10.096540744075638
98451,,-10.411698049717126,6.194828639402196,-10.127990274122778,-3.741942597701189,-5.86052739673546,-6.280622734560957,-6.134092369207702,-7.071804447873458,-6.7032702216184505,-7.95203799894272,-4.941999986039935,-8.299478807916362,2.530631608205826,-9.0427718645143
98701,,-12.400879505268207,1.7370506541009894,-8.144078136027929,-4.883631950443039,-6.737250628787342,-3.635544156442573,-3.3459549089331047,-7.93898597636937,-7.922165983508166,-7.960412639912598,-1.57169681089071,-7.842681204378655,-2.467434244736961,-6.116681332170792
98951,,-11.859834076115352,-2.971773937420363,-9.008341414908145,-7.435672224179805,-4.426895104244135,-5.355020124274005,-3.798985762424367,-8.149580392961512,-9.799755991451285,-8.71167162963869,-2.3562920515500125,-8.40233845500255,-4.075134402884183,-5.082379883914517
99201,,-8.692790814166845,-3.844281336667141,-7.528927451317452,-6.791493794228735,-5.791660535237241,-4.592670438753085,-5.32560811369212,-5.24169260403279,-9.161287540965644,-8.425594056582007,-7.375090695977815,-8.640703983080096,-4.821098456052075,-11.504625009272331
99451,,-7.407750127559191,4.465045453405743,-6.740839613651936,-4.078916552964097,-1.5880110270827892,-2.572149351895633,-5.576218330470661,-3.323460982621003,-8.527858635434695,-8.046250810527273,-6.517850817875815,-6.4563599271662175,2.9628087445357227,-12.617221133593745
99701,,-5.436246587166754,7.5058213788341055,-7.50222140826674,-5.589662275349857,-1.4906918016635555,-0.9475485581692898,-4.942732628619479,-7.422855341350864,-7.142491359338945,-8.688152188445903,-5.833729611891901,-8.890197190254783,3.3386354837253456,-5.094534770546195
99951,,-5.173907688628677,5.978566934825801,-9.465809325313364,-0.1557247226761471,-2.9245377924784632,-1.1782665941530035,-5.22850352907088,-3.653133893603353,-3.794174616051389,-8.542763704665484,-4.041009653748249,-11.338003649944104,4.454327371640093,-3.0323532854920376
100200,,-6.439946681629166,5.862092657042499,-11.076918548052925,-0.2733417776367866,-1.4799745199245846,-4.534928983530325,-6.157143730050906,-3.284456589661345,-3.278752938302852,-7.538273973893359,-4.110184201972094,-7.1763213119596605,3.920747437818569,-5.054324045990466
100450,,-10.549038909713287,1.4745072055131956,-10.546533628659862,-3.138697353063517,-4.637256552119142,-5.829310282278294,-7.140426044738339,-5.450032567364915,-5.340858664843028,-5.218929679687713,-7.796032403706372,-6.488646620331733,0.8387104681527613,-9.711625391013428
100700,,-5.076163252816689,2.99991450281111,-10.70928002238649,-1.9080833790557576,-6.793254204111965,-6.710626221566515,-8.586843230074264,-7.689982006304588,-5.832170384472218,-5.287145119364862,-4.203243501579451,-7.296423219887977,3.764096057508511,-9.402800631188873
100950,,-4.8432600808333,4.309923178945248,-10.192187103683478,-2.9367994288302595,-7.802022770868673,-6.447005171106842,-7.396284442779823,-9.090919226492732,-4.521183196799477,-8.883312481467907,-3.577687827868919,-8.104934456691758,4.968339532349485,-7.582338006460283
101200,,-6.324324718711065,3.324272972212452,-11.53516080231551,-4.69879720960507,-10.32960787242756,-8.027862680410301,-9.183560846719914,-8.631310115591713,-6.072212000333765,-12.584224845261147,-8.743998538756667,-11.200082693974595,1.5189295037574138,-5.595337816726349
101450,,-6.645131081492229,0.6372885849636188,-10.396377321351892,-5.568400607727211,-10.905986091367318,-5.1405353828320175,-11.434521120916015,-6.672971826648022,-6.751021358684948,-12.135346980007428,-9.915402719645115,-9.573829866162043,1.972561104598589,-9.478087445776634
101700,,-4.109077306809154,-0.0977166752565585,-11.43026555544101,-8.871468988715716,-9.715859060690264,-2.36036077508761,-10.072336071889469,-2.8588612994132374,-6.887715470339566,-9.315222569149473,-8.295892405504633,-9.311035722053782,0.1683630964336601,-8.515517914855264
101950,,-5.511838115403965,2.0356467056246776,-8.255338714428984,-6.982088356977087,-8.680294975061756,-4.147364406622166,-9.476700552236968,-3.0327499068335584,-7.33112539491324,-6.955208294940593,-8.726243440451709,-12.85581879266264,-0.3594691994890731,-7.2374788013959535
102200,,-4.611057265837327,1.4225044616480964,-9.2029697360318,-5.928622435915112,-6.746980042639528,-8.51265439791447,-5.34314600600484,-4.645141907504022,-4.728845404790422,-7.023513840727032,-9.826264971570284,-12.287392158813724,1.868715964715479,-7.63447385539194
102449,,-4.754161713598382,1.1172305294719178,-10.808773864132377,-5.357883302176781,-5.072616596370913,-10.401517154874988,-6.943812191133761,-5.13383679519174,-5.008860307215639,-9.204418574519243,-4.901930029928826,-12.65766772879338,3.4644049296762143,-6.974507433780364
102699,,-5.710809697426261,2.360750071288504,-10.755967480636158,-5.625747736747964,-5.86693638296885,-9.141478278884248,-5.445377597353333,-5.081702651482679,-8.061577629257688,-6.037835386584911,-2.300706222040372,-10.222687065546744,-0.7676842640688063,-5.538621574138606
102949,,-6.631098505218506,2.810488647622684,-10.08849880355154,-2.6497935297962085,-1.988372911192987,-0.6235632572314779,-3.27401772661474,-2.6029580176872766,-3.135107972703291,-2.7467876356398047,-3.8753080979415473,-4.7549900623633485,-3.2979008881558936,-7.587051433099705
103199,,-3.265412251230904,3.034810886926916,-9.800341529068406,-1.8892301238777491,0.4818058059763195,2.0543785139113826,-3.727964728448056,-0.9978428217333858,-0.4313449401181893,-4.061927185559213,-3.070569378762681,-4.536011334877004,1.031662641439035,-5.878903438328181
103449,,-4.783771381556442,4.386229896794346,-10.937932087788312,-4.673757708816076,1.2276270626037795,0.5781184008843244,-6.930601606573838,-7.221795869991993,-1.7685101336642286,-5.192569655398626,-3.190849364480856,-8.066090210029541,2.3231652333058643,-6.86544150260241
103699,,-5.627893591358461,7.198967703335022,-11.870457088884098,-1.7184453136109945,-2.3698451034585,-4.17263545605887,-6.61159107131253,-9.619389702322628,-3.7100006542923647,-5.434803754175464,-1.695743713893346,-8.056034246622547,0.5454958893551055,-4.015756897300137
103949,,-5.450916535905486,3.701880472485141,-9.255714308124276,1.6075162911062204,-1.9198839795376952,-5.69100308658418,-6.917212803874017,-8.780534072214126,-6.671716332247218,-9.263453641993744,-3.0430606080820604,-10.029729416942208,1.6798441314450223,-4.424646508766238
104199,,-7.107635965895208,2.253019274610052,-9.37988697010358,-0.0104530746405766,-1.2461808971777335,-4.516416696190487,-3.144951432300976,-6.420112997956908,-6.255638557834037,-10.44350243668062,-4.767370559068851,-9.94307664166039,2.2531491554846856,-6.79518296032132
104448,,-0.2362966125314317,8.719325219431314,-7.419781515326752,3.723903012503986,-1.9248675211314548,-4.222714181981611,-3.7188506283827225,-4.003728312268152,-5.88308080078352,-6.3409681229837975,3.1004749823072597,-5.3924529699670485,9.318994065087384,-1.4973366753730608
104698,,5.388799344524636,11.09359486680315,-7.423153289821188,4.132981211533055,-1.60655586222849,-2.9689623563019034,-3.12235810749605,-2.3627288238277617,-6.828545308614448,-3.181175157801647,3.5893274518912825,-4.191518034385625,10.66540604801039,2.287761189112958
104948,,4.542857637368981,10.497872546713802,-3.3256469590524307,7.623673465213795,-2.4707203025431017,-1.8988409868179144,-1.4339953781120824,-1.939750802436081,-4.714924935440727,-2.9945568127124145,0.1076312891083396,-2.4422038092891625,9.597648429362067,2.56012164800161
105198,,4.743538866411844,7.345458578176193,-2.205681966736503,7.116284677125419,-4.069571586861501,-4.489299333689039,-4.013879305446177,-7.590272982865004,-5.675772063077794,-5.796422553436137,-2.2589344182753326,-2.696420481527947,6.767984300725951,1.4839615135628472
105448,,1.8354342834841284,6.379204491199335,-6.698974649889009,-0.504554518191171,-3.85225949982504,-4.944881679390502,-3.019257595246546,-8.527897256559335,-7.96969358154008,-7.054910589892902,-1.85376719125776,-6.075334727915267,5.412427255379461,-2.354868657352882
105698,,-0.0267952517493276,4.096476628118965,-8.236819367540969,-2.089108414354775,-2.222966564051124,-5.211279896966692,-4.2033801966608735,-4.322195713998454,-8.012092678898448,-3.594301910547845,-4.680230712990698,-5.854512792728412,4.21957677221233,-2.681080492810104
105948,,-5.400501614070857,2.25757661427641,-9.385740114413467,-2.96480355678941,-4.00514283058421,-3.734068820126735,-5.156836473565996,-4.983189092934609,-8.826401457680266,-3.674092961033492,-7.503830330998451,-6.067797207897331,3.640898661083333,-3.845156188259256
106198,,-8.735028671559752,4.035654271572627,-8.377996071660258,-1.4904671691614153,-8.782840468738966,-6.970602489010028,-7.69920664799537,-6.947137985944575,-8.779854627294586,-7.26955865689408,-6.168054003225041,-8.119770867533417,4.148296206878072,-2.5876120925667645
106447,,-2.826426342656192,1.0285646107362894,-8.860193964722832,-1.602126641407486,-7.698422441254746,-7.154179860150221,-6.065793580233762,-5.899891787998243,-7.221340589732392,-7.267184885167071,-5.329701388985924,-7.283602773939048,0.8713368571485278,-1.0655244982546788
106697,,-1.996357798457026,-0.7851027834595901,-8.890648446642443,-3.744867326244184,-3.9999686270712647,-4.389562088237335,-5.063478687521021,-6.205550035052986,-6.997069705588407,-5.589885986881282,-3.136649010929534,-8.962183932146194,2.526210818655236,-3.060831457842009
106947,,-2.818350439540352,2.469213325194855,-9.015486856715242,-4.795171258538407,-3.6050222589829546,-4.346151722423537,-5.304182407948161,-6.904538963369509,-8.45630804055003,-6.842354715518615,-3.7606405414819912,-9.215151875938917,3.485739731805655,-4.2434980755216944
107197,,-4.417200913465011,2.324503611989142,-7.312029497969837,-6.962915580233383,-7.251341146145624,-7.418429874380901,-5.544157383149791,-5.651788035853017,-5.650778163181796,-5.409936955725698,-2.467911665192648,-10.43380145164106,3.986944421435664,-4.371804936094591
107447,,-8.06761132938356,2.385832073915985,-7.89642834321188,-3.2911012381888205,-3.143537310373892,-7.673557099276964,-7.322946510090747,-4.503508435511724,-3.24501932289997,-5.207151776417423,-4.771747641834084,-10.036470328953913,3.786715363209176,-7.2731348008111
107697,,-6.645793546328042,0.5498252183924236,-10.819610910200408,-2.221926029729503,-3.5288142018223905,-6.625888603921517,-9.114202465615731,-3.823926388667041,-4.65827142005355,-4.659046691220014,-7.24946568933014,-10.029562037865,0.7657583308419514,-10.590120475184277
107947,,-6.977810102775904,1.0820145354326778,-12.483282146276244,-3.233397646765473,-5.9125621017925205,-7.952595886044467,-10.6040919253073,-7.288509806022638,-5.917207543121342,-4.074760036350781,-2.911583487846668,-12.294905136671051,1.8422813249998589,-9.725540973180015
108197,,-6.800713354210693,2.3605496094534355,-11.109708457373625,-5.521279183616954,-3.180451296212265,-9.15003889627011,-10.070683301018748,-7.246022445929708,-8.650491844759664,-6.026325271308279,-2.524805385086772,-14.106693747691724,4.877897660949725,-8.075008977596621
108446,,-6.185856626845045,1.2923113739383565,-9.366866981698402,-4.627596405916706,-2.336930373819296,-5.916738658912434,-4.735345040634539,-7.457160378599259,-7.157298726669565,-7.488542506848503,-2.402111784234447,-11.255549634525162,3.973342956288688,-7.2854611557854
108696,,-3.5324546160820565,-0.7873534419069722,-7.4886142069367665,-2.2496127349765365,-2.5652799056278663,-2.014915872604266,-4.418531776314261,-5.152487730509769,-4.990259588740465,-3.974722486761904,-1.678266172353548,-8.70626469395609,4.29847174047664,-5.7231518114588775
108946,,-2.807068297155811,-0.5532087337233101,-7.5786350978319454,-4.0422226070514,-2.125509746896064,-4.1845574012228575,-6.960547382407545,-6.287478036129643,-6.076535607445647,-5.722612554394403,-0.9123632299160876,-9.802765172310052,2.4140327771189183,-5.63163772294382
109196,,-8.223440424418259,0.1663625370814831,-12.655267541117723,-5.057110576325767,-5.597663668022008,-9.244689542316504,-6.078871166295283,-7.282645395954726,-11.224016033718067,-8.610146268413303,-5.29095055640918,-12.74585655363878,1.4129575945303086,-6.759367134724346
