timecode,event,eeg.af3,eeg.f7,eeg.f3,eeg.fc5,eeg.t7,eeg.p7,eeg.o1,eeg.o2,eeg.p8,eeg.t8,eeg.fc6,eeg.f4,eeg.f8,eeg.af4
0,,-6.764983535900696,1.098614159740291,-9.322057443889484,-5.653209142255835,-1.045205636379228,-2.427825226808899,-2.2066254104580283,-4.560175823256982,-4.27622215021765,3.284558206926299,-7.500606296028563,-8.901183254629904,-4.933282529713087,-10.31036166038904
250,,-7.371316810057602,-6.808137429349007,-8.404225296617419,-1.7237745353890068,-1.4738458269423114,1.8054839718685245,-0.4678186501718492,-8.412631401154375,-2.7817404189142083,8.194482017952659,-6.796485168911079,-4.685978338627955,0.0915483509026796,-6.773684742792431
500,,-9.23971439065584,-1.3674590550008714,-8.311473338834212,-1.138997448621764,-0.7873730002878303,4.790020363654887,-2.867528762422747,-6.689040375973123,-2.376756278494519,11.037894567365132,-5.229785228942196,-4.798209275844257,-0.6493751204329206,-5.389478932671478
750,,-11.92623762582759,3.0074103117086795,-7.918222018226642,-1.4927889640117504,-0.6960771007273402,4.388419126698328,-2.287936102814804,-3.688219317262565,-2.807299358084909,8.093032344215906,-5.582358328934895,-8.046362782590963,-9.390216700409162,-7.984018889326421
1000,,-9.060073238027943,2.68764685870973,-9.262663959470302,-2.3632382174063467,-1.3827245551946432,-0.9590580354317556,0.4695803861493347,-4.6025963044620095,-6.203432900863581,9.33070473244664,-5.353654171148371,-4.033799333264453,-7.429106402480279,-8.678966925567034
1249,,-6.392248356466848,-0.4243532466620243,-8.51047572776711,-0.9055043699967004,-1.2118415924751205,0.6580222798970669,-0.266245880816049,-2.411062580326529,-2.697195511984133,7.188416474158257,-6.628003052075452,-3.967131668092578,-7.908031723863631,-5.633343584732787
1499,,-3.598432773988499,-3.952327388141088,-6.884748738089966,-2.4271864142123216,-0.8668217975802666,0.045323721517539,-2.727275757204193,-2.3025927839642617,-1.5168558838208623,6.249179664272572,-7.325622962016335,-7.581722053247514,-5.99140229535565,-5.44610571890479
1749,,-5.25720579833914,0.382076372006842,-9.569877966478192,-6.1795028595913255,-2.0898221645108817,0.2519402428780671,-1.5399289823556892,-5.600185785578709,-2.881863081800887,9.244557627011782,-8.645863901625749,-7.833990209798124,-3.3327942104953068,-8.792245762411145
1999,,-9.71066884595764,0.685423743353703,-10.7991695295849,-4.10454618982922,-2.3718413390163144,2.1816503699953294,-4.642954841843823,-4.729709509227269,-1.1014561339733422,9.98211284674824,-8.449225142603012,-6.423066299959917,-5.109046990600689,-12.896292945258915
2249,,-5.849044785692612,-3.3407730392295254,-11.00230438498431,-0.3506559645671416,-1.4685313006025569,2.770388923704896,-7.292587891306617,-2.7339544850183395,-1.1825754110593394,6.786837038404867,-4.748520924130969,-2.5895755846717754,-2.165626124917019,-11.947138100304375
2499,,-6.281400855539502,-1.561946177353,-12.064505010468045,-2.4070992780822795,-1.2190048818369372,4.8191521446340975,-3.1696501122921217,-6.080946533732627,-4.6717304998516616,6.115263407305566,-4.4776387419936805,-1.84575534015702,2.948105155889597,-8.88598812156978
2749,,-4.580538204710779,-2.058232459936175,-11.951070747944032,-4.104457052264441,-1.0308023014835517,2.940920744894843,0.1090537520956194,-8.843616875915698,-4.772091228269297,9.547555025745323,-2.2144260248704777,-0.9854700353419,0.2083262589545953,-9.296803697102566
2999,,-0.4540858291363048,1.1441899787117205,-7.93816067512498,-4.2567728385675165,-1.113217446961344,0.5868096107624899,0.5494600291148466,-6.315554282646435,-3.3790667929215443,10.077074328680492,-3.4061006500488364,-1.469106327977763,-0.0857953233092531,-9.76909205453888
3248,,-2.6367132607426926,2.767209960877941,-9.046584403152492,-5.250189179718825,-0.0211280285007975,2.878505211670033,-1.2477491843129411,-3.9548786285976254,-1.752201929602324,5.495188527943552,-6.216701346675605,-4.030683104615981,-0.8111073745787236,-7.41025469261444
3498,,-3.3619383136652354,2.574347186407844,-8.056691462491836,-3.3414969361538827,-1.1520223992126004,3.272114258304243,-1.7850353586324164,-2.956342356471564,-2.033841665894949,8.503393612978549,-8.716247551523477,-1.5430515740880426,-2.7601922866114545,-3.941588674828459
3748,,1.0374882723457597,4.824371538658951,-4.9986237157627,-1.1250936074818336,-0.4557618914634146,2.971403777113041,-1.828990069691521,-1.577516503016283,-0.7743579651989392,8.69831611521843,-10.173043861090196,-2.2620309149946274,-1.1467150993161954,-4.08654979897077
3998,,-2.2286979028816862,1.6048362747281095,-7.118858806855859,-3.57796190624309,-0.9453143968728878,2.2001549722524656,-5.961565438864184,-0.5491465950282843,-1.6417021089584298,8.656072274269931,-7.383983227398925,-2.603787203911081,-2.749923259864968,-7.253766182714886
4248,,-6.350671968396618,0.3161378217688482,-7.765252378513844,-4.452878679981765,-0.6123837292926854,1.9671638789766543,-3.0617997198659697,-0.1967607570149193,-4.338286016161526,10.894964510254608,-6.60718671868235,-2.1113235699332527,-2.7469265250251382,-7.810312915071886
4498,,-7.426495263444497,4.270168647165073,-6.654810048580156,-3.824638991414875,-3.680089025958316,2.919932524831037,-0.4864869008470499,-1.2076379122116712,-2.7125313981533035,7.520104380394504,-3.700725966423032,-2.076678339338275,-3.609902926560444,-7.83788355411138
4748,,-7.6710147752922975,3.3027608634922245,-7.720826555807287,-0.345129563296373,-5.825074984270231,0.4507818528513938,-2.0770282387364745,-4.520903824115093,-5.202633312210279,4.156031187782291,-3.0860084580705243,-3.691439241276197,-3.614424742665122,-7.913172552720092
4998,,-8.898466255558615,1.4897512083572997,-11.094346087108969,-1.6464077719212775,-5.612678970234112,-2.536568667964023,-4.24413192187211,-6.509699748020328,-8.223697746113151,3.9677875749410574,-5.280519602256584,-2.677944287334048,-3.870247349632922,-6.7683654972403104
5247,,-5.733930099466511,0.754141314257786,-11.745166203890932,-3.197863717421604,-2.7648449440789644,-0.8076829098168703,-2.780496197609743,-3.2580195624276733,-7.017261456071353,8.069569393422743,-4.593457132672629,-0.8645104830593076,-6.554964377856905,-6.015400583883181
5497,,-2.7180403524257817,0.4100282751195883,-9.824119015341418,-0.8302550374741742,-3.1058477036153405,0.6641073780827268,-1.5402551501242157,-3.662695944050649,-0.8216598609069725,8.188864924109204,-2.8791254392302914,-2.5722127348085304,-1.061102367904694,1.108967061447614
5747,,-1.0417019422229252,1.0103352706820703,-5.787232848270199,-1.3586665089989227,-3.102352799873333,2.339031453914115,-0.8584644997074529,-4.119706304213283,0.4178998415926233,5.138752243002576,-2.591480834362794,-1.8651111076221087,-1.1842088518790426,3.6870903048247854
5997,,-1.7666110803867094,-0.6839258801797847,-5.8502716026586175,-5.7044512268364445,-3.5745454486753925,1.1439869085793024,-0.7012209304285849,-1.833519457624846,-0.2071161216657982,6.335533223512867,-5.048468186011319,-1.663968680869927,-5.674075362911172,7.058293430716011
6247,,-4.355460250947585,-1.5798947740492064,-5.638705585048135,-5.497453700642079,-1.15811359699714,2.213423255794559,-2.759008114151466,-4.1499650862091695,-1.6781388028167774,8.347984602228903,-6.538761036903771,-4.175075651052241,-4.645077460778407,2.043690483519712
6497,,-7.299603190902469,1.764162606884968,-8.657872679152753,-2.926881666781261,-1.5316287214739777,2.3252663029827176,-3.7340698266862926,-6.502474625320314,-4.700348196180376,11.270014329189678,-5.89393756466428,-3.523034354744933,-5.244522616402239,-5.5855959276791065
6747,,-4.889084690700524,2.5431754647567475,-11.672881056089516,-3.025105801978149,-2.7393037353386616,-0.3180884320602958,-0.5694509702452724,-5.591925086778548,-2.789169231897964,10.995360118676397,-9.253344499971362,-2.5516471231899573,-8.100971013334151,-6.858922279524564
6997,,-6.2630501134894,0.8191651916123309,-15.99461333075867,-3.672516638557392,-0.5400653951231755,0.6308544770402873,-2.2744984136571227,-4.402132783979439,-1.810220481479604,7.1565716331609694,-10.009139989247435,-3.011603348506136,-5.981315892343124,-9.930561114784313
7246,,-6.379429042073261,-1.4135194434058829,-14.330201931981598,-4.166193598069915,-0.086482934461796,3.4396796966233585,-3.006943342239925,-4.7390782547062535,-5.732743766536719,5.004509814209555,-4.0116439553301015,-1.018863514167934,-1.5184819738985036,-5.418136724837116
7496,,-7.8293293395775745,-3.3940609229667578,-10.728612165845668,-4.780325330283866,-1.0962113508900737,1.539237383445321,-4.096930616520496,-6.052428046026988,-6.314630682529717,4.980408893874245,-4.999491537294641,-4.288050419805604,-4.180242056032327,-5.6658125704013775
7746,,-8.262215833066064,-2.828138122915295,-7.736939482179814,-3.9660035637071234,-4.906696463711031,-0.7305222686592171,-5.32251503696457,-4.969525607016156,-3.007911399507633,5.210938622788529,-6.561947374546296,-5.635339381275928,-7.679442575465373,-8.7300824488076
7996,,-6.088525075082952,-0.576626045868954,-8.144214100701006,-6.103688430311424,0.2679425728994367,0.4123337724659841,-3.652528288875875,-2.3185657414948424,-2.443563568082353,6.317802511306248,-8.416125157976374,-4.28893515481528,-5.853101896910972,-7.838052351770192
8246,,-6.941328814178508,1.910406373718957,-11.74784147777156,-2.431980845521356,3.245351783896387,1.0451499638535635,-2.228327738574245,-5.488833247262592,-4.070746476162871,9.54720024040942,-10.410220133847153,-5.829130949053512,-3.4377901325467954,-7.250253967606087
8496,,1.3450117806756323,0.7911259894175755,-6.838909710243519,-2.1441520031842582,-1.378128785797045,1.183468434561839,0.8472113739725085,-5.522118711045327,-4.899690823192614,7.849164492517898,-7.183033400765569,-3.505075004360568,-2.525759122215245,-2.410905511862165
8746,,9.007698136741068,0.690386797838653,-1.445563721542178,-5.685033159151061,-2.693763312451839,2.5639058857328942,0.9617185518525186,-6.804107224250671,-2.965352298012492,7.681513587361552,-0.8285397049611709,0.972616031081931,0.8738085771870994,2.8023314050792587
8996,,6.681346561528859,0.939057575317496,-3.381354103495316,-5.275306818681695,0.4538689778832366,4.002861820495223,-1.3111297644197104,-4.085130291899692,-1.5490193795714342,6.438598491001249,-2.8547546744447527,1.6236117529753429,-0.1578041931554327,-1.622661872366467
9245,,-1.8804961999784828,0.0526064414941718,-5.768763595041799,-1.5225943002309466,0.4664074124035395,4.0792680115641975,-0.7173831572870937,0.3879343458389092,0.305366578738087,7.912135354493305,-3.9314478364183887,0.2081915244010936,-4.410038215794985,-7.859545230661496
9495,,-6.279567322948864,-0.143629888551125,-8.345216143472653,-0.2142795242479245,1.9227511471167849,3.2698104895810998,-1.9187996600323296,-1.3606923292378217,-2.1537896582610783,10.656605785672491,-3.8712530042876754,-2.1510764915728355,-9.295615223928127,-8.44764751715502
9745,,-5.693284036624181,-2.062066439303036,-10.953650760709994,1.1437945478357645,0.1623707703223546,0.9898599819506017,-1.8544950829882836,-4.488294121633829,-6.097778205116569,7.779328143014368,-2.2816466221244425,-4.164337084843621,-7.37240506139085,-9.764914446407984
9995,,-5.059804793086654,-3.523016084697499,-9.286239734078997,-0.6698469742889289,-2.3928945929157424,-2.4050389788378794,-2.241246639185912,-5.4197235471118255,-5.580014543650402,7.1440552705044045,-5.334424869845171,-5.544014539379988,-3.3826445681833466,-6.738133440896295
10245,,-4.641421303405778,-1.2009768603337352,-6.019797146031412,-4.35270823830879,-1.6915195948071688,-3.370286784619664,-3.5097234307082656,-4.638652688261948,-5.284413805804958,4.864016922350017,-2.393848171009461,-3.685652179708148,-5.0941529470243605,-3.956423281432324
10495,,-6.965258270261225,-0.3622487491535293,-5.132454735637384,-3.892786152479349,0.8472259577586043,2.33305247384215,-8.264887763998878,-4.137639822155726,-3.391763761087834,7.652586253225293,-0.8977960108017051,-2.8520176817352856,-5.920271244090304,-6.980631577759782
10745,,-6.2687545811733445,0.8474956290674558,-6.028411240372441,0.1358018647135339,-1.9464221895610103,2.9587091458886072,-2.478058088150259,-3.1958041265834582,-5.360655469035677,8.762382171348296,-2.055231995184394,-0.6723819940932083,-2.448287409509255,-5.602678974772038
10995,,-5.02006284577675,1.0869027177200472,-8.728991667279608,-0.7658054054894567,-0.960150924227684,3.5145770892346007,-1.327526856132578,-2.6650706913423825,-5.968786782114337,8.780031470161894,-1.2771614672533098,-2.717178025857065,-2.3780347537448483,-6.433755286223324
11244,,-8.684846456443863,0.8494030520984499,-7.152726131280426,-1.4391740263483075,-1.6511172343849967,2.3630105360821,-4.259026538922032,-7.369477633021551,-2.796581602023327,7.764315569791625,-2.4927234335749238,-6.4557655810244,-3.344851775659507,-8.096700072711869
11494,,-7.335895275951525,1.3808575033401826,-6.596981159366004,-2.4475148731212464,-2.136523022319004,2.685247006903255,-4.289702146373679,-3.0080377735150883,-3.149442936280282,8.181230108885536,-5.194624564072694,-5.603765109960508,-3.2511718281378217,-7.370889345972572
11744,,-2.4174279523552404,0.4216721766816014,-6.866484257878479,-0.3540238638394483,-2.4199132406931563,0.3978706628825889,-2.215434396422037,-1.286471240029584,-2.978272651822959,7.869511851863452,-4.479702141764685,-5.202720793061683,-3.726041813730532,-4.16125826735497
11994,,-2.61836907221212,-3.649368910071193,-8.169170540923545,-0.3570453727832526,-1.856044677665341,-1.3663799547106987,-1.0430558300824049,-3.504981446161365,-3.0642698697251705,7.258724343265138,-3.5722484020698464,0.937253903708688,-6.121133916458695,-3.41137242485392
12244,,-1.7329435641595503,-1.6328206474599911,-6.769345485810866,-1.2040024693002342,-2.541923076984344,-0.0803144682165772,-0.0888050820688184,-2.14087639490873,-0.1688165740057939,6.749557770916357,-3.406157486532771,0.123042876746004,-6.333751104789096,-5.424216487320905
12494,,0.3444646404560493,3.995688566863876,-10.631115389554047,-2.792690215626727,-4.966127236399607,2.5839298515332776,0.0536050980196755,-1.3987021159390527,0.4072962144309996,10.060299549395008,-1.3609907258355924,-1.044265580673232,-2.9321346463207423,-6.498897719622466
12744,,-1.5465668400780448,3.4654622587413844,-11.014245707629764,-3.1799087293309007,-2.6466097603592864,1.467371811308581,0.998195632085462,-6.5839901047601925,-1.839902766759831,10.943496190125275,-1.5010124240585574,-1.3550076983402497,-2.8419560208236683,-8.880635441260964
12994,,-2.316590258680356,3.701784684111462,-9.551273838519052,-1.1162535953221555,-5.064433387130044,3.383582958788393,2.524943887341244,-4.313213299966849,-4.986130694102322,11.173810469979117,-0.8987939304051109,-1.2786259602476475,-0.5362748913673863,-8.553543559266549
13243,,-2.604269618438553,5.394784552591784,-11.37046356737109,-1.946316339567101,-5.648694944250528,2.718853880728276,2.6674062830950174,-0.1226201550171444,-2.4583181825787,8.613776784558011,0.6712647016714574,-1.3029555837689315,-1.6602246720720273,-6.7633489942711424
13493,,-0.2302047020396528,4.6576984799564585,-7.326946594048756,-1.2995219371387092,-3.865003103202983,-2.107890630506274,-0.5396993759681715,-0.1507202620397585,-3.039211426405912,5.796911663539993,1.8343587282304603,-1.903618354316773,-2.6365903405929125,-5.24192218774634
13743,,-1.034027756112733,1.669231850609953,-7.272637358403391,0.4989624347242816,-3.7955516661185142,-2.243669917750232,0.203533756512583,-4.414581944301114,-8.318252993377136,6.5025989655057455,1.0594341464218513,-3.877691877509254,-2.280783860946035,-5.542647642439592
13993,,-3.467715327425103,0.7386140704778337,-7.181759406736362,1.0510359300774257,-1.7250228410485002,-0.3587479043660563,-3.7683264810335872,-1.9845007167635864,-4.771773490073354,3.067993542510991,-0.4484782823699318,-5.914266055135295,-3.4765621855981084,-5.864116145443651
14243,,-2.513328693560666,-2.7189465037533127,-6.857729745314966,-2.387168303096449,-1.878498004632964,-1.9656492704464277,-3.704453819067377,-2.127573354566574,-2.5046896434860164,7.039115588126394,-3.471087795327162,-5.901286994655855,-4.399269912580212,-5.61640634363628
14493,,-3.1935986322187437,-0.1466345136004409,-8.263386021164772,-3.039884138779379,-2.9328837894091118,-0.20847280157855,-3.045948498431194,-4.471234667267759,-2.422240382279248,8.74885097226637,-4.622519285049743,-8.841154274368023,-4.446204260875248,-4.978927590282012
14743,,-6.480971894911653,1.965672549456208,-7.498347253294384,-0.4189587342578204,-2.2166014570505377,-1.6524110127058458,-2.4813658141730834,-4.18227568810271,-3.954577700033537,5.901263481863718,-2.934642682763304,-6.431041328839688,-3.2810175581826084,-8.990083446736252
14993,,-4.632424975375859,5.037396054247013,-8.09641236081465,-1.2522884181924958,-1.005553321548502,-0.7943790778320724,-0.5389658820900777,-4.021972647494104,-2.3769336250300297,5.706075226019845,-2.501505034068167,-3.1901593769282157,-5.329735301926588,-6.745879742952372
15242,,-3.964187437709232,2.684949901833873,-7.234661816652677,-3.973992675420401,1.2416234424566714,1.412843019595855,-2.214296047154224,-5.483867100294118,-5.138891057103658,4.413557255845584,-4.098766263098526,-4.419744389210878,-7.259475753596676,-7.063263067578493
15492,,-4.655119192238199,-3.9855480356990034,-6.391476790042051,-2.145246717742181,2.2923362605730184,1.1553124133530996,-1.8298807497340508,-1.5679484316118657,-1.272895590696665,6.8307701975942114,-5.747334346002529,-3.5907594548157835,-6.370661331843309,-4.701306691343284
15742,,-8.351905585202026,-0.8016519241616913,-3.378376436445218,0.211056809022408,1.0574022555734144,3.724365154913484,-1.2915982270964432,0.2264537937991118,1.6512929122696705,7.387986439561017,-5.3587465602289575,-4.881089183269874,-5.40454396567439,-4.876051476412999
15992,,-8.086049464623636,-1.516393832539691,-6.071593937173043,1.173534064843789,-1.640296014247557,3.442941891843447,-0.1647067632900041,-0.9034202536419312,3.8441298591757977,3.3386267935311498,-2.570876446255623,-4.303333649072883,-5.669782178020853,-7.18250788724701
16242,,-7.989325133927192,-4.612947724802561,-9.190228194383096,-0.882107038048018,-2.429941328378246,-2.8436521082518,-4.166874035807541,-4.4116081319951,2.3483649332201435,6.227503748221039,-2.8538225117292617,-7.76814523729011,-4.529746481241569,-7.927475768921476
16492,,-8.48049238918118,-2.163415816562049,-9.209806146400425,-6.203170607216987,-3.092409261381344,-0.3732104381915191,-7.533975919866562,-5.968993062958888,1.241470768606409,10.631512058327456,-1.966463918375005,-7.905205842114629,-6.072327581282005,-5.35074671022258
16742,,-7.165309663281404,3.1974704514798464,-8.80153317349476,-6.576623753727207,-2.910456899839901,-1.3569920948534155,-4.335612761614965,-7.315789444007922,-2.6397798952310114,10.70873935902119,-2.3590758421839952,-6.184921061245753,-5.187646680606715,-5.208989021871766
16992,,-3.3990886891117227,2.3776577728606405,-2.584518123911359,0.1610977077131903,-3.712705711682436,-2.6974285611515594,-4.67886997179415,-3.2318357908515787,-2.374141177529764,3.537119966504147,-2.504247197477012,-4.467164307106406,-0.599834530931361,-4.216752213798916
17241,,-3.768089347572828,-2.3337005292692017,-2.8313192036362973,2.126066851925676,-2.6689108069936083,-2.8634639213340245,-2.736406744396586,-1.5133093733541152,-2.379663134383054,4.4393191837239945,-0.9760900218528136,-4.383487054616753,-0.2241555780023459,-5.109863628790745
17491,,-7.932397691457366,1.1115777354835552,-6.6162875710919655,1.04607833204737,0.5839460067740712,-0.3326266521512425,-1.3466225954821656,-4.657029606638542,-4.863029095486015,4.495291350673921,-3.4504851542319144,-2.5482181468711387,-4.428920110859662,-7.440403438110032
17741,,-2.973413334177687,3.3630468308679697,-8.267022482385082,-1.6700276473280695,1.6561034521889864,3.817654313784927,1.320662676033897,-3.2942059375181234,-1.480643452119153,7.6858166801874575,-2.4864990459141496,-2.021923917473888,-5.817908440349458,-3.789090265358748
17991,,-2.01894409614635,0.9948511996156016,-7.461808359501012,-4.211680863209399,-0.6851125431820206,2.274714874069097,-2.476581242691079,-3.964480370531647,-0.9403991808539796,7.3937726690728915,-2.068429969422005,-2.3484727344515544,-7.047925473055238,-4.704136531356249
18241,,-2.673314657746173,-0.6006268874434209,-3.0041199891346437,-3.045562269759205,-5.470426816630223,2.133129448909872,-0.346415850272164,-2.26385526053246,-1.3210325175158912,3.576498064148053,-2.8812318633049623,-3.323523278143789,-9.787796807678363,-4.316047395778291
18491,,-4.756529955671114,-1.6785006756055214,-3.78404446920072,0.3338994300258209,-4.99562592562815,3.056485860920553,-2.2417553035049558,-1.899482895909907,-0.6242104015943231,4.347225216399262,-3.953844467150484,-2.900264681495397,-7.753792527355391,-5.532690991214681
18741,,-6.024123305524162,-1.0141940678264445,-7.293602031225179,2.9601143194965145,-4.136920309369177,1.2497526448262382,-2.756257163463192,-0.9827263733938432,-1.2125371957205324,7.102874970322746,-3.3081687835601112,-5.390525472312429,-9.544137189999994,-5.860654577702336
18991,,-3.578739851817484,-4.416465207446679,-5.483465239151123,13.413317766833346,-4.918447519227417,-0.0172364721361655,-2.5008076149206824,-0.5258245189775216,-1.9981465601353308,10.693067145580407,-4.058237184170132,-7.449676441990452,-6.241284752372678,-4.905611602282167
19240,,-2.33805770898322,-3.876662878125285,-7.657366395505449,12.888015460822649,-5.284960838027013,-4.230476528373476,-3.473945570786074,0.0267328166102233,-2.143773871927652,10.714617750434856,-4.793195745155048,-6.628787124973403,-5.1305056035237016,-6.46352954541769
19490,,-3.0157510740865643,-2.530549186228979,-9.521486150376766,1.198949969412806,-2.892150788208113,-3.2723239224361125,-3.793969388275067,-2.416856905154646,-1.4350018297858844,8.55000556799422,-3.912423680091483,-3.74904370250464,-3.14020688300292,-4.840630766241846
19740,,-2.919461374908816,0.4910543189494337,-4.490974297291149,-0.2664374932957102,-3.432869560045197,-1.009693759825384,-4.105515842113076,-3.864140000681915,-1.4170167020757147,8.11269219477295,-2.319182294187275,-2.242975188088023,-3.541614718853812,-4.560194701888359
19990,,-5.840426077729672,-1.9902143236786631,-5.5314092018113605,-3.43066698015034,-1.4615217842976485,-4.756867898347588,-4.509909465199196,-3.451864310045079,-0.2155779821605702,6.797157453357298,-7.591922422221583,-6.361288580746525,-4.024732501198121,-5.954713546799274
20240,,-4.135978043429443,-7.978748633659654,-9.582668620849947,-2.432609478438203,-1.0574909717180652,-5.800121947754419,-5.353881506444075,-4.888856075559093,-2.6719249478110947,7.112629151554636,-4.379748029981444,-9.067211422238046,-4.732396507854949,-7.518927214313424
20490,,-0.3845865620156027,-5.211527671061878,-5.978343682617719,-1.750025909633783,-1.6637701056795635,-2.055187768616132,-4.576223796478221,-6.105254121085717,-3.716263347668413,7.806931070400584,-1.7634903301611236,-3.253706940516832,-6.606733060125388,-7.686292671413923
20740,,0.2812846662908925,-3.3891491870593464,-5.193663726893351,-1.2719383151679071,0.8255201272765217,0.612216768895412,-4.409800023511695,-9.699004331509377,-1.8406384739520691,7.5611903585450975,0.073273714861195,-2.076919914147493,-3.927830435074696,-9.560953898823849
20990,,-1.0591095985584849,-0.574799957342816,-7.973819486735728,-1.2063373157704531,0.5006649622820389,0.0537095667993169,-3.589615968189184,-9.568850122947808,-4.123952537110197,1.427044806233052,-1.0402684816504577,-4.16619865109661,-5.486158470531478,-12.774248339648365
21239,,-2.023367210004065,0.0968198638249814,-9.35435335470492,1.1732864445901212,-1.522163038119093,-1.844218288334028,-3.2520190902457866,-8.868471606336653,-7.005633564543733,-2.1743691385638773,-1.3921766019125863,-0.9436356693872348,-5.20672298866974,-10.130316014636428
21489,,-3.091625590009765,-2.225199732568404,-10.397851139965104,0.0343415143064473,-1.5140217743785138,-2.8685725267201745,-5.552991859971492,-7.3992408791645,-6.296178412742247,2.255843104197817,0.1676398985049448,-4.851641078759911,-4.778991950930132,-7.318160836051319
21739,,-1.2378439277086069,-6.506847986061323,-7.538535110709041,-2.088734213312132,-4.079514186175794,0.00016088530493,-5.633385077356512,-6.511676468578243,-4.856392180843646,4.825983883160622,-1.2242068365750678,-4.642867216330005,-1.5103982208589752,-7.4444708840262415
21989,,-2.4624211649254457,-1.4481485616088283,-4.94807301251112,-0.1542897644185974,-2.1732439696780728,-0.5278267479002234,-4.1782461197957295,-4.262416178657969,-4.036468815066623,6.975936913947376,-2.3303711013312083,-4.368017858383968,-1.73233126282549,-6.660557792863786
22239,,-2.754408286429743,1.6119395148308724,-6.876355393463548,-0.5783719935553205,-4.193066378842477,-2.8136099300076327,-6.195590539551649,-3.535962629109429,-6.880725485398776,5.965261266536381,-8.905518280890464,-7.267540570715289,-3.96871205289786,-7.165354273781381
22489,,-4.442577070971283,1.6421824664952411,-4.356106945538807,-2.17553000238131,-3.294651396748783,-1.7554945982295476,-2.5684180811931245,-0.4123172615216421,-4.229565110436938,5.284565158028045,-9.071838283139098,-7.842080817983657,-6.308229134183851,-9.03015421549117
22739,,-3.9966679467349127,0.8038203260345511,-6.072131520133973,-2.943312835334075,0.3065895165581488,-0.3324096698430627,-1.1081174665365623,-2.3094508554281945,-1.3876913603855268,4.860360291336818,-7.796097990716807,-4.531335460489864,-2.956674766036506,-7.997331256949244
22989,,-2.285377956753696,1.0708619656295757,-5.820493078509972,0.7768639755458013,0.6228323464858143,-1.4346229621642128,-0.8754912631576683,-4.61485187272466,-4.949517148921517,0.9956974914244836,-7.442759684012214,-3.0075548904358667,-0.3412405877321094,-5.135837127649467
23238,,-0.5806889825383242,1.1957904995633089,-3.655023716003427,0.4169067951672434,0.724424093450588,-2.806640521892657,-3.552836219856296,-1.7471173084703842,-3.8453246930760177,2.750579448982612,-6.523131216826692,-1.7996796059657838,-4.815094240070947,-1.8635850962598357
23488,,-1.7607271399924724,-0.8451748294241984,-5.123741513271551,-0.0718705273507065,0.993527521921881,0.3325147290063938,-1.7965583489752386,-2.5078760663995143,-2.551149277107412,5.570474261746851,-0.5723009513806011,0.2597516191343736,-5.344487675176783,-2.897957937493146
23738,,-4.988352291016356,-2.460067555915124,-9.642030079133386,0.8709298656314794,-0.9380881829939138,-0.2772370127562594,1.39681250809125,-3.349546118902349,-3.484174815731146,3.841567690748213,-1.7692177064472157,1.7043376388239648,-6.223200239397285,-6.823222040872694
23988,,-4.085137680230047,2.236117647678232,-9.219617206930735,-2.803459990673533,-3.83368571767583,1.3878799400907171,1.714971120612012,-4.545141300520305,-3.6876242889814974,5.604754258186487,-3.445531373881531,0.5255946058080574,-4.576951703677635,-6.958577421632713
24238,,-3.6580258716575176,2.9116473891953234,-7.145253243465659,-2.478298526417189,-2.170860516459508,2.221457897440144,-2.204464504863786,-5.602199191583254,-5.329031633992948,4.359491225027664,-2.7045052063558463,-2.3486332809858657,-4.194683878611696,-9.084159462845117
24488,,-4.631673778847587,1.0115050912126062,-6.2270837145142055,0.1664530529747193,-1.3505597886762264,1.2133626172860887,-3.575248578971003,-0.0262261347143697,-5.782126868154187,1.4308188746946893,-5.374412556697045,-2.4104311315852374,-3.493756561512002,-7.120324426490582
24738,,-1.2904294616594314,-1.5078863548597563,-7.941067002988184,-3.975878587075849,-3.6588732649779594,-3.227728256839637,-3.946407976452302,6.796125368921098,-2.353330306362873,4.35122565571462,-1.9122888228115176,-3.475499825241572,-3.9018301481798616,-3.4190701664244427
24988,,0.0415079934663902,0.8735914253310724,-8.407074686879358,-3.677159560026816,-2.972216539856271,-2.942451077009676,-1.5157614418278138,4.011756953449518,0.038381227022028,7.677014827928889,-0.792870749887315,-3.141966696613202,-5.020758223328695,-5.673296221220933
25237,,-1.4424077323163678,2.275907072969586,-6.452213949574064,-0.9127595403799038,-3.463161560555552,0.4683765370355716,-1.345349529901858,-0.4145641897793468,-1.868954111578616,6.612250250858221,-1.6944532148273566,-3.544462957207034,-7.726597306479098,-7.524064424493291
25487,,-3.465162440148608,1.221357893017425,-6.475567929676334,1.3916576617826404,-0.7550679256663649,1.890588118507381,-3.1706620497433056,-0.8536832557317795,1.7812454422044617,9.056332551014968,-2.1605794880115345,-2.9010019861435232,-10.271249191353569,-4.7809075298395545
25737,,-1.553204669791311,-1.958523432916608,-5.475156264832402,0.6524607576568996,0.903508730122359,3.526003455104227,-1.3597440009899802,-2.0230647202984824,6.1676204298453285,8.419165031176162,-5.303195939170325,-5.184695068988244,-6.351107080749094,-3.9194017038842737
25987,,1.1570704539546426,-5.263714202746441,-5.7490292839111685,-1.739756659998266,1.7529638128461844,-0.523723603687059,-1.5771966882685633,-1.9097077558405475,2.101063228586249,6.310235880322357,-6.79537672915561,-8.951450396986152,-6.65628948932505,-2.887163658786424
26237,,0.6816358154555915,-4.568724850488343,-6.664562745171364,-1.000007541007764,0.4289763576819729,-3.023838886155659,1.427067266485028,-3.898675073294114,-3.911242933655279,8.372261473561426,-7.0856037678858925,-7.671297102800237,-3.970988653710993,-1.567875664379948
26487,,-4.48046890601506,-4.113098268192635,-6.679916068635685,-2.5514455111638195,0.4208297092317942,-0.7324619239277979,1.4076915732911384,3.919322342133817,-2.783698110844785,7.509788865931827,-4.104473005812489,-2.4432760106925304,-2.4425205943360995,-5.291969776078613
26737,,-6.2626246915993855,-1.6005341608992594,-9.2251111287105,0.0672903453625433,0.6771337235428734,-0.72956229428354,-1.590807279530821,4.65705241675906,-1.744935343582526,6.013189766617418,-4.104671155861483,-1.3184308554815138,-0.8254364127031146,-5.434298463068608
26987,,-2.56791424867479,0.6996331545874513,-6.087938037033215,1.4244402827089302,-0.5324777520700469,-2.750649262029477,-3.713928928338616,-1.2473946278489452,0.32588816607922,7.194000114832264,-6.171071088452864,-1.730817374847708,-2.50888636854911,-3.176914761705219
27236,,-1.977952210622056,1.835111220657315,-8.311287913665417,1.845729049307662,-1.7047100860532625,-3.3187334646625075,-4.351836771161826,-3.1955126415502173,-0.9952059623178616,10.132813189794035,-5.686428234252,-3.3383634190853515,-6.305803182329164,-4.878435599743463
27486,,-2.9558440196887936,1.488083208107864,-10.434634684326936,-0.3826958478034742,-2.0924478455292626,-1.629568105732081,-4.153065923551758,-5.386002481357759,-0.8299909661391227,7.998941711453565,-5.294342506532384,-2.701190635534721,-7.464756977408067,-7.361968267010579
27736,,-2.783284842495389,-3.534783558785399,-7.012285505646077,-1.919337844017448,0.9330359043694342,0.6953878580364236,-6.798706547576945,-6.095160301196552,-3.1758177252366893,4.879366025442041,-1.2389809235389146,-3.467088699792453,-4.776750303209342,-4.467941273619724
27986,,-3.873301728871361,0.3755770698022136,-9.67419452008469,0.359673516861252,-2.15015003700454,2.018713586898301,-4.2135419778070125,-3.552857472154909,-1.2259360688727257,3.4546307222981145,-3.961764084491203,-7.027334157927314,-5.517347456667921,-5.814644764291039
28236,,-2.2967174424815817,2.3938147496931297,-8.59901231515781,0.1570633037947145,-2.34234720165268,2.6134220732732034,-1.7473978941042,-1.711357890998173,-2.188598568491461,4.800768963628999,-10.332555351076136,-5.796595473774761,-6.5881626447644495,-11.413884677317798
28486,,-5.059546364529859,0.3825207853932114,-9.560382848818351,-0.9525618503006876,-3.994838673178119,-0.6053593205922938,-1.2786906135802198,-3.1220394253523387,-3.5386920354911884,4.781945474199491,-7.136846902731307,-5.13096149950999,-5.353514229732408,-10.301430142348842
28736,,-3.1191046435218106,0.7064434351541662,-10.191408211148838,-3.3250569886001244,-4.197300600011114,-1.245903714628927,0.9857975050240536,-3.248543083187696,-5.41831430667874,5.494518994664366,-1.6536011301640416,-4.076726231368605,1.9448176072586645,-3.4056956247383097
28986,,-2.36548586298656,2.3086168838203527,-5.410172490291131,-4.156584617576256,-3.0171978634342307,2.837503780343189,-0.5454010071915769,-1.388116047566072,-6.056904760776897,6.806222563938395,-3.9603216496487272,-1.3597648616116331,-1.8211640117625008,-3.8183436510211024
29235,,-4.295161793951555,-2.1662923807195726,-6.021797952227392,-4.626638329846539,-1.37108376522853,2.614991596949497,1.3408804549747733,-3.249677545735708,-7.313520558785562,4.522445766086029,-3.936906850900217,-2.387362009144022,-7.866648392262611,-6.261217615004186
29485,,-7.243957068017196,1.2973410348517067,-7.384226883410197,-2.176675114233316,-0.8923459999149792,-1.758144515977336,1.5985032210865369,-5.191134150304704,-2.903548645091158,5.851263546015496,-6.320257469114536,-7.922110241446854,-5.915945440521297,-6.106818570591041
29735,,-4.05794836964627,3.691151451579211,-6.33972998962713,-0.754002109950668,-1.448429388300909,-0.8778831460683576,-2.270210833864269,-5.94703954870822,-1.3851060092994203,4.9876419601836055,-6.486855048888382,-7.393204057379538,-2.9058176527556374,-6.326979789061388
29985,,-4.635114506413119,2.640012281801729,-7.067439141934394,-3.933961704786416,-2.9941566259455583,1.4246347792462042,-2.6125331201579183,-6.181946495701705,-2.454081169619529,3.33426250767812,-4.363887605995714,-5.463653821584225,-5.360478758366255,-5.598579447157634
30235,,-3.667906043676593,2.354127416277461,-10.267606537227492,-5.742684847826598,-2.234571436450995,1.6011599126607918,-0.7508310631336155,-6.512180549450832,-1.8973534146142323,5.851617394889363,-4.767015190966656,-1.4170017418684355,-8.257583397489048,-3.767428364850835
30485,,-4.722872441207173,-0.0125248971771197,-10.564247074294675,-2.9219574091585843,-6.109190794194888,-2.13046220735974,-2.78601443848614,-7.675799301347763,-4.246346460895029,5.211897912127917,-6.439318788352299,-1.0437142665110628,-7.116876720683055,-5.081498639878851
30735,,-5.4423709032726055,-1.1361484164310591,-7.161555277682767,-1.8408775945617173,-1.4119317744651196,0.410011613375441,-9.933971847702589,-2.6044217488555303,-4.5807727742684206,6.823064122153088,-8.679835028908172,-1.1196926932681364,-7.094532479486334,-6.758046126248148
30985,,-6.555555537616954,0.315924896303385,-4.168976539417218,1.6228555322299454,0.8809546147712698,2.894008757142128,-5.422547105451061,-1.0297885915707152,-2.7523532366195087,6.266384947398791,-8.406978680327228,-1.1079158141755931,-8.88900769101717,-3.5999025055957192
31234,,-7.190062106074926,-0.5469032098016912,-5.054234981462617,1.644368022313459,-1.7173309089482975,-1.2868995759702946,-1.2815017456365148,-2.5434021845287,-3.442283831402549,7.831799604556814,-5.50701220318755,-4.1803205586989645,-4.210378228803172,-3.525989414574735
31484,,-2.20095084282511,0.7732607551459719,-7.869745363623378,-4.965521471861053,-0.4993282814687411,-1.7048700206309704,-2.675852950907473,-4.179468860349908,-4.066790899050833,9.02811121076049,-6.689337640376377,-7.577126220599622,-4.539437159324692,-6.106422803024722
31734,,-2.7914283325941414,3.325100261712757,-7.6462223221019325,-4.410586154819098,0.324345012562136,2.280275574388994,-2.7785198017501163,-2.312130171990317,-2.681440523495321,9.65291390944136,-6.8088336119676285,-6.0469583352497285,-5.0040884973950295,-5.407875114298138
31984,,-3.491750888994349,2.134232468339248,-8.843498782299868,-1.680420514980418,-3.662454339761673,-0.4583653530565998,-5.008527659009342,-2.954522560325905,-4.093879238222662,9.922616321160673,-7.93026353043375,-6.549089873053863,-5.080608876966272,-8.60221659012019
32234,,-2.054115785499473,-0.8613838855095319,-10.602653226046714,0.1184400427005093,-4.069448198012721,-0.6331553372542906,-5.700324526621814,-4.679709155463264,-3.964640882633704,10.287640809336658,-2.9790862588146534,-5.340137028801969,-2.8887678932524703,-13.17008615109405
32484,,-1.253598973038638,-2.5389775417621294,-4.041819027760953,-3.3282836082624687,-0.4429735269068743,1.097526635550459,-0.9178863203338063,-3.9308130691314074,-0.4997093426778373,8.129722723593535,-4.817865498156578,-3.801713187639096,-1.4383553741800383,-7.172752193031069
32734,,-1.8397421865747716,-3.295340544437396,-2.5460354998341925,-2.445888253714337,-0.0065404472831348,-0.8789757195559198,-1.987608059515814,-2.822318033626719,-0.6375374628968622,4.116221157663864,-5.886455520830854,-3.624287104045786,-6.001784434937213,-3.391060388111968
32984,,-2.9157074332325745,0.2631760518199905,-5.918801455700466,-4.204158101032886,-1.1615869724742232,1.5840077440970943,-1.482974361035708,-3.900044905957433,-3.4617237999080985,6.045530320199913,-6.834359571833196,-2.869627153144591,-7.502432283361301,-7.070954295394869
33233,,-0.8333513645360053,1.479166715947229,-6.412657728113814,-2.007155871258167,-0.5057570168347971,2.802728015709967,0.3363742504897478,-5.183309220789223,-3.73765331488792,8.268219782757201,-8.651968798571678,-2.6133303447007523,-4.316697801171465,-7.201826840575542
33483,,-3.0084737362244995,0.5066597144800105,-8.261337571506868,-0.2360088253397091,-0.5925783052823534,0.9887143189787106,-2.5062582467304253,-5.942950276590717,-4.756009735782807,7.9708763335496515,-6.2604665084218905,0.2139845661058494,-3.766968282029208,-5.083007198708165
33733,,-7.3056556230012575,0.8010592574240982,-10.118528294643312,-2.491304228852495,-4.055006221743102,0.0144019872639848,-3.2576686681347717,-7.488282893565865,-6.89747473837299,5.508377338960769,-5.072602770143611,-1.725524209563733,-5.034057967991668,-4.199804945411607
33983,,-6.466618027652563,-0.2261634693341004,-7.326878009764156,0.154954900787757,-1.986419919089573,0.5732890730415141,-2.237856075032232,-6.023838249692755,-6.780309485787615,4.263012735605851,-6.577040160216246,-7.994932004175337,-3.825383821383461,-5.70737076274826
34233,,-2.48380327424933,0.1304991051644858,-7.670347981378313,-0.9315511975797564,-0.0184600646792255,-3.0674329869214167,-3.035900616129714,-4.670427558546285,-5.777480847830075,5.157270107133059,-6.7875156687284885,-5.368127808041075,-6.338960641487697,-5.339009148620026
34483,,-2.7845327864985374,-2.183946147639055,-7.067046481095157,-0.6125907395007457,0.5949868907259658,-4.4740433142178935,-0.908485813311223,-3.645438981297569,-5.366576331104726,5.030213549744577,-3.722996039516388,-4.75685193516531,-9.92257141827151,-4.930344174684507
34733,,-2.568909138608205,-4.135721329989051,-7.194631906890834,3.3110246702623067,-1.3681143151278177,-3.0775685458626985,-2.0872500788791664,-3.918474284289197,-1.416086152991654,8.484848113933701,-1.2724143287520553,-5.02062219824786,-4.4662216243977415,-4.90876041424844
34983,,-2.69886412417598,-4.033180905081671,-8.02185326801794,6.828827627267526,0.1741427614687524,-2.9219832071216296,-3.8786922496100047,-5.618901113118115,-2.523965247411164,5.7841916043667165,-1.195607517546475,-5.661181035202332,-3.008095829793469,-7.168196546444926
35232,,-3.304375006235852,0.4557664443760059,-7.907319114790752,2.694573089704562,1.0177765170445423,-3.4888857514529272,-5.391128601674756,-6.3741729997556345,-4.5524157459235495,3.7915909995897055,-5.597058425289896,-3.984914875608903,-5.235856557209527,-5.969910335728946
35482,,-3.5785111632626627,3.0425091873885477,-7.25489102627594,1.7970889564927497,0.9731151163438152,-2.3115655963316035,-6.654853391019197,-4.43623933433525,-3.330396593505424,4.438715078858401,-5.652196355645998,-3.809084062548523,-9.856224640140177,-7.208931925754413
35732,,-5.023458461414472,2.7989408794803907,-8.846376352013255,-0.4404307478423072,0.5060981075117057,-0.8433693761474031,-4.267765513965553,-2.563874789351963,-5.118350918273612,4.6908770741252575,-4.669131947763328,-3.584003393906709,-4.987668494349978,-5.97278856743959
35982,,-4.370259320068638,1.3851870292880286,-10.969085856087222,0.9831603884848782,-1.6745457258973082,-1.55545254860732,-4.185373577492742,-3.378074131887585,-5.524459902009788,2.987622413068705,-5.578890110697063,-4.766852504610447,-3.9789920657862665,-4.96565764046986
36232,,-4.811004227154571,1.6604014267840104,-10.966840961612968,0.1634010008910688,-3.201359551015941,-0.4138553673498363,-2.3124067086974343,-9.770917115864032,-6.186481209825717,2.279357332504558,-2.428896493042347,-5.039029202021973,-4.75640383761363,-8.030690342432749
36482,,-2.933231023074292,1.0213581840224402,-9.599596484926,-0.9192759106676084,-3.3690983117850952,0.7246011522135976,-3.2397615880305004,-7.27209786354816,-5.530645369907719,4.25472203351535,-1.721931943007267,-1.062402845491571,-2.349012263856809,-8.398035276597668
36732,,-4.833511676375538,1.2049455250122594,-10.051715478973374,-1.774122780709666,-4.110340645996252,-1.0443651810948638,-4.971010724201381,-3.479028047509872,-3.283123016411639,4.362150021978603,-2.5944662602439017,-3.176001521661294,-2.8913892376037955,-7.802809390844299
36982,,-7.573729174891271,1.3524639178287348,-12.090904298997271,-3.642193805632888,-0.47273796639806,-4.673735460214078,-5.82109121479985,-7.941642627671967,-3.1366723349470216,6.258625903425763,-3.569408491483958,-5.725900519628054,-7.525616094426399,-6.202641081031672
37231,,-6.739187497419003,-3.022352539961732,-7.423674518400181,-4.405361307727812,-0.394273825017425,-7.123372816313522,-2.912877084143508,-13.399604825311272,-4.627198088952872,4.262479292440524,-2.110368262053143,-5.253700486523826,-4.598680787438269,-4.850082932583938
37481,,-2.855080371184604,1.6125145726410568,-6.4784045046517775,-2.5756493175838964,-3.5573460160894705,-8.178608806346558,-3.851718351564173,-8.499311278434087,-6.003303467292741,3.6269022606993184,-3.239119925761041,-9.872433153024556,-0.6193452043636454,-4.892594683325972
37731,R,-4.477480900253686,5.6282933540302444,-7.503344906879055,-1.659458363947801,-4.098721848263054,-6.3751839663124485,-1.4709278555791463,-4.844215738416255,-3.518102253020783,5.999992582278519,-5.755585131717702,-6.622604162105478,-0.5995147177911471,-8.557836390449902
37981,,-3.230168861104508,5.8545427023395735,-8.94562193070713,-1.6549560234340377,-2.898094974923408,-2.2265189308287887,-2.640021674980608,-6.832132907503771,-3.597792543197614,6.10716898821786,-7.647897159452873,-2.304640198014452,-3.282027346015404,-4.466307014097835
38231,,-0.8290391807730966,4.666849496684101,-12.489958895937733,-1.4329188968319084,-2.883262008215726,-0.4707560647605548,-4.438665111501251,-8.660672437248744,-5.06626924992141,2.0551432486388417,-8.351186434746985,-1.051534377557133,-5.248700959198246,-3.933623622406415
38481,,-0.8876121361579261,1.2240954529536778,-11.428121289418224,-4.005426524617287,-4.23479771217309,-5.200018964019886,-3.189698476009601,-3.5260619202902928,-3.271765864815721,3.1793514413883006,-6.206825482342441,-2.265103968836977,-5.253382099117666,-8.805611464773913
38731,,-1.9781603672228856,-0.5885565513630661,-7.539613166048003,-2.9982296601497067,-3.008845952187511,-4.468522364382803,-4.420588384703406,-2.755228381099454,-2.7029406673731424,5.94070151990546,-4.452840695918484,-6.726214626460605,-2.296048228587037,-7.734371932267799
38981,,-2.3198618178509376,0.6872644889223772,-3.480095048776213,-0.856722595397081,-1.4985769565188791,1.6665175094297773,-3.2549852305752025,-2.75528419795533,-3.0820878269917493,6.274213367657849,-4.302894596210578,-3.65392309134425,-5.643274295721692,-3.51245981021536
39231,,-2.3285878491152574,-0.0666329771419961,-4.589131815600353,1.3650257359458775,-0.9176829142569264,2.000512770522535,-3.766827401352231,-7.838192456741872,-4.972389741494625,7.037016117288904,-3.969731164227295,-1.1707591429207238,-6.258578170682576,-3.304073878059409
39480,,-4.508147080211135,1.0728862123844962,-9.218099887980348,-1.5934202208495998,0.3671223597492106,-0.0886165251641403,-4.811467132565653,-6.897000064203621,-2.994974242608789,5.390096442803893,-5.07405456570236,-2.794375622034559,-1.332980331955249,-4.753376943783198
39730,,-4.517806172419751,3.2220326338283782,-7.314517788527227,-1.6569841357692248,2.349731834579289,2.237393037085712,-3.7029919693378313,-3.053922012326254,-0.6246836064312377,7.88623437786633,1.1553893399402069,-4.009687717895086,0.2441710725977215,-7.560490133637822
39980,,-0.1951489994262787,2.5759491141580564,-4.72590470621444,-0.1297816926491413,1.57840119043247,2.2706716162099068,-0.941291295084074,-1.933836291788196,-1.4240370239534323,11.144827962139702,4.567850531483377,-0.6711361311801773,-2.3941621293894557,-4.396859014634448
40230,,1.9470201433476757,-0.3703212827677873,-3.447239141834704,3.6879338879517354,-0.5652313933193469,1.97457796190642,-1.486532281420996,-2.554027342401562,-2.2911104146353063,9.6633637068955,-1.1482466885124922,2.2663360468407805,-2.212772300065565,-5.33505972769164
40480,,3.2814919444767554,-0.56616296735325,-5.685050620410349,4.611675283933262,-2.6853844442268127,1.6667232086084312,-2.535762151126396,-1.834509964625352,-3.639844044255245,9.026678093083518,-2.9270775725465303,1.243568098870362,1.4682157991317724,-2.1492422682025496
40730,,0.8397032265197277,4.699365363182896,-6.985880051248403,6.431017537803033,2.472307977605334,-0.4913168499169147,-5.943187259030434,-6.292852641281113,-3.1971966595984624,7.733218902244029,-0.806816061800109,-3.019548011374144,-0.4725383117127181,-2.058324730229354
40980,,-3.25557987725141,5.976655290584981,-9.529419862306163,5.9270498993620375,3.153894555834447,2.223776886467954,-4.428132893686969,-4.723593159429188,-3.4266296911646994,6.948375510289965,-1.535354703329063,-2.2165687027264767,0.0574110391730804,-7.182889363192537
41230,,-1.9543395015763745,4.761592070801658,-9.128060600541378,3.6609888334870577,-1.3150207253998916,0.5052004707557198,-3.458222529682684,-1.7578544319528886,-1.3860443850418205,5.107718340236895,-0.6875303046072246,-2.257068930514871,-1.5379635851492242,-4.2038636740249045
41479,,-3.194498055606296,2.012977143467279,-9.589736732581422,1.053917526306304,-5.46593971130071,1.1095866740330789,-2.905710218961706,-5.289802368070003,-2.413541250006692,8.626238916049667,0.1922351410307268,-0.6699357416655387,-1.1429374662547442,-4.042663429147408
41729,,-2.8046436670335204,2.422213761013893,-6.619891415972255,2.4585135870967,-1.126153520645406,0.9582942613564857,-0.8331096461933774,-5.769318575901432,-0.4883282345000295,10.3678660631581,-3.6034119597228336,-5.491458865992206,-2.261616567252997,-8.051987194906424
41979,,0.4841282067166811,4.21216183594788,-10.555466967655256,2.4210532664740287,-0.4593547744375154,0.6453329248337736,1.3749859958925166,-3.726907954872969,0.2090378439017684,7.659736658874622,-1.5402665237607602,0.2510795763564297,-4.891129757656596,-7.375617259884151
42229,,0.5655397814925108,3.552190238644334,-10.215663193594551,3.766722971439057,-0.446170305683674,2.1054966429612594,1.1448406176256352,-1.7323998843894486,-2.695452578665343,7.024810802401408,1.7454049081201604,0.7374115494781607,-3.4395008354241186,-6.352165706470486
42479,,-3.719367059378465,0.8429777915834282,-10.134540711819255,0.7153174110414384,-2.762472224515054,0.4722879595849099,0.4860635522184009,-0.8728400021298848,-0.4355183652493056,6.528886541265074,-0.957357551716751,-3.7354410458149774,-4.425075572790338,-4.252801923786872
42729,,-0.6194620111082625,1.1457723153223218,-6.748514353598425,4.334061008278402,0.2326049011986811,1.9254637557839875,0.5666168398553164,-1.0921080878006626,1.097859995669271,7.096701080584059,-1.9662977445867325,-0.0079607903723923,-7.911886496705643,-3.3986884550578416
42979,,1.720638283515242,1.6864287655200303,-6.2190608527985525,5.401705774148109,3.185866937912359,3.805961016379207,1.1756572488594916,2.378232568252926,2.7587420020006985,5.866490358247943,0.7600483767913703,-0.6720587523433786,-9.071570678368976,-1.3285665238779694
43229,,-0.0221166568800025,3.0194349451607816,-5.228321689014966,3.212724283922783,3.3962106549629665,0.68438607249999,-2.05376025051065,0.5898393800259081,3.135886294216495,6.021605970467043,0.6605229721486554,-0.7860988092766384,-9.066163432033974,-2.383907966522197
43478,,-1.6931721836297997,8.43565528587353,-2.293998646163145,0.2331199667987442,2.891968799366003,-3.1008472384540604,-4.00476802747128,-3.8375988640885823,-0.4054810582439221,7.984272224105686,0.7661545084227699,0.4464037397445957,-5.149998903793859,-2.477856836249112
43728,,-4.121837717577828,9.058699192616658,-3.046765611261852,-2.538590508403873,2.201401781054413,-0.5059320738936989,-1.7682064093843908,-2.4181947594055258,0.5988763416785771,7.138178111672402,-3.4617735203640976,-0.7297700177979702,0.8269114630019563,-7.668830874496816
43978,,-0.677614772432975,2.2166592254568265,-8.035807913514203,-1.3869525813417023,3.637158274047682,2.9479261911020567,-0.5266763024889108,-0.2631087114502602,2.08614305452109,1.93971925619528,-2.074790087520664,-5.222759453089453,1.4908116753943237,-6.588230364710653
44228,,0.3445398450324715,2.9435165025853256,-5.963941160145787,-1.9339472307819896,1.958385439789724,3.013270907562249,1.3251054956400394,0.815942149956565,-2.0094729535147016,2.690451574389349,0.1523998842065703,-6.710653251220784,0.2713790648886072,-6.008828883578059
44478,,-2.0464329512439834,1.2030133699084966,-3.44863828399612,-1.0787434270009095,-0.2112122215376394,-0.7628621628238546,1.0947215716576617,0.4533210446844337,-2.046712598834932,6.000994175247065,2.752561813814061,-6.880906652316501,-3.9683193250070623,-5.6905018496387205
44728,,-0.5861086513232453,5.239806987629776,-5.13595992177598,0.7493756174989978,-0.7110571855763109,1.1110090438549989,-0.063686742580982,-2.0415046104929395,-1.855386240981372,8.774341789221541,5.112978722413342,-2.186938951760204,-0.0810674206762078,-4.144824340074231
44978,,-1.5990303820883078,4.063866212839336,-4.282673570619052,-0.5770634320248471,3.152331731983755,2.32421685634216,-1.765499164390993,-2.2200599265973064,-2.377464507099183,10.07266021574867,0.6182352815293345,0.2955164481201026,-2.085772412944509,-3.965082398857573
45228,,-0.9921210955226168,2.7600849760598907,-4.424987672034971,-0.8750369413755066,3.764297674719448,-0.7045694839062032,-5.081884481569736,-2.8467140697862896,-4.599621384985294,6.909214693268409,-1.708984489909412,-0.5915681367919033,-4.190511056597634,-4.224872794141641
45477,,-0.4636980632366221,1.678896712293433,-2.889199003748528,0.7787766799552613,-1.7221805247261417,-1.4324224274168014,-0.2138643459627049,-1.597649459550825,-1.8265171327891776,8.428626160135712,-1.9811729827802744,-2.1020499291739663,-5.09184359210852,-3.1600846583007893
45727,,-1.2484314647178671,2.0357982684458698,-3.234219813319178,0.2471788166079512,0.2894532127072722,0.7813041908154135,-0.3361167592266997,-3.4416167200308845,-1.08297812039819,10.644661174228856,-1.62248646122081,-3.6614481049531062,-4.900046491620226,-2.3559425523520865
45977,,0.3281175685146003,0.8696077247856975,-5.341502748631267,-2.4582758838044394,1.743417393385659,-1.717682283718488,-3.825534213550293,-5.798568188866783,-1.6479162568602068,11.422340892903904,-4.110227688939142,-2.9500242263774803,-1.2930593967447943,-3.2700215443432605
46227,,-0.938670216236372,1.2224345661699525,-7.019747808838011,-4.615737501668069,1.1241545169084417,-2.89201801415882,-1.9569768688279,-5.175368180161108,-3.784706905968427,8.100092948983594,-4.158948580371985,-3.2790975944565357,0.782407847457217,-3.609074414673583
46477,,-2.551501623009546,2.606869614174612,-5.721276417230677,-0.3255487028814995,-1.2518249181070698,-1.9438102950966447,-1.4603070824102868,-4.740671121017883,-1.636558553282146,5.051700534056566,-4.701152978582017,-0.5656363164170546,-3.3442134311903717,-4.649100131059254
46727,,0.5172140973688039,-1.9420643508929136,-2.425627628318596,1.4718471137729603,-5.5181565880289885,-1.9491154749999475,-0.9953379503897972,-4.775488038274857,-1.5627286802336258,3.0878676451436244,-5.312726501485713,-1.339884952734527,-4.964143145212487,-4.90002313735618
46977,,1.433113514065016,-3.657292841162408,-4.309380561621458,-2.641193956433,-4.325954324238604,-1.627452532779172,-1.901872607867419,-4.1716958440963685,-3.446996779306624,8.622840528771153,-5.119194574827661,-3.12506245272078,1.9234278828910112,-4.5005499564077525
47227,,0.642517347020506,-2.31223447884774,-4.984195576732687,-0.9838257496799876,-2.2237967907458707,-5.3225179068357225,0.2109107190426717,-1.6395791069378114,-4.555576326050029,8.811330274285606,-4.889583719894829,-4.956404212748935,6.205341185952462,-5.5251764533647085
47476,,-0.6992841758798325,-0.2074024688808915,-4.5905528042967125,1.2543620175477066,2.2281699411954587,-3.5959460638087046,-1.3389654752607527,0.1716819241679716,-0.0006869239612701,6.997282620780218,-1.772243707785105,-5.713174808599303,1.7047198479986705,-7.371173716618381
47726,,0.3914954241821898,-0.5971635855673258,-3.1510789051585792,2.9152134314747906,1.3186243557605226,-0.2125643674504812,-4.493881155114369,-0.5848126070745878,-0.994439065865504,6.450443666332645,-5.415362753733422,-1.878258777333788,-2.1592512208602184,-5.481575653438205
47976,,1.0007954579357017,3.624034571751556,-4.351401135805607,1.6145477844018872,-3.3936526379991867,1.142947197408659,-1.5621411937190968,-3.846627076826537,-2.362198600099838,6.842887353548619,-3.8352244109953486,-0.1312666522010527,-2.5504025661971115,-6.758452375849988
48226,,-1.370542715437194,3.243672371989065,-3.4516611874723995,-0.082286549871094,-3.0274705061992835,1.888591833458761,-1.2886407389203414,-1.486529414015496,-0.3545271838205594,7.910748361479914,0.7094121813285225,-2.2462421411171305,1.9231335331769777,-7.228696751856177
48476,,-2.4276826178235704,4.357715754128786,-5.754072145629894,0.848929159044398,-3.6965296672660353,1.3819081436771783,-3.106516807731676,-0.2646055007147756,0.1977887169717789,7.376610283892044,1.678266171701376,-2.704226747002472,1.6764092070000325,-5.940558974953478
48726,,-2.5181307547489515,2.3347205508961544,-8.988337920571986,-0.4513891321755089,-2.87249251407448,-0.1579132101682774,-2.08613507419608,-2.571809035497872,-2.3598429108844403,6.534476136386511,-3.433895902026052,-5.077525404081963,-5.402229517247974,-7.483324113499339
48976,,-1.4068442590256172,4.218994267742024,-7.148526462674769,2.9415942801926653,-3.3425917075453384,-0.8318758146665389,-2.44674761105467,-2.638588042245816,-1.6751652709524592,4.279065726917861,-5.627699403873505,-7.618056314268433,-6.134246359898232,-6.452548296311469
49226,,-2.260138357960318,3.578981578127649,-8.560951364927208,1.626857550962294,-0.846971971914321,-3.3053608199126936,-4.412706513893005,-3.27735301815276,-4.27926904967279,1.061365346036585,-1.4759618574279854,-5.037229258122173,0.09038646938762,-11.039553338367776
49475,,-2.9475476798168505,-1.622967712906712,-10.581057815651498,-0.0264331216827966,-2.1629973319570666,-4.113138435866794,-1.4931258729490249,-8.744552482809416,-8.733112366334788,5.073731635969093,-2.393937542807783,-3.9058720558334143,-2.668027861292894,-8.50147507198064
49725,,-1.072855415927805,-1.4373202189966527,-8.28750822410534,0.8907566235762333,-3.905016970390005,-4.067080625088678,-0.4623335921486302,-5.768704912238711,-6.90894398848841,7.031314448212602,-4.483642086781252,-0.9964913322330302,-4.219965251006732,-5.59705534798786
49975,,2.454027518359052,-0.5197098908795291,-7.399520793819577,-1.460091153374027,-4.033438356391908,-1.3126009817472633,-2.5162770719781165,-3.708212698335584,-4.174951930621338,9.376315067347674,-4.753423317905176,-1.0489502586767605,-1.4491149719352632,-5.353279379375472
50225,,-0.5600437939420663,1.4594222672416093,-9.66929702706314,-4.766758940373927,-1.472500395435474,0.823613525622172,-2.3254006488183943,-4.3427834871048825,-5.229342057435245,9.030693368683965,-4.425265687354391,-5.010811590905837,-3.003663325919186,-7.2888425356082465
50475,,-4.824630108981976,0.662347292451836,-11.129758455270256,-6.311157778275729,-1.4413384635526465,-3.0073586392689764,1.1562854705089922,-5.989424365132551,-4.76266199863012,4.046782268727548,-5.370350761701732,-7.283415260536655,-0.8971567189924968,-7.408684952997722
50725,,-4.828778234843067,3.360899784419218,-10.542504527466669,-2.3597706028805576,0.1525866027557272,-3.451363309161163,0.5237074107046273,-4.194299255770234,-2.166046715135041,3.1210313663976224,-3.4112954045225714,-4.348641597104735,-2.3009776184693447,-7.527688024642046
50975,,-3.955242216754957,3.410945778587124,-8.708308280063203,-2.8616965826341003,-2.6255264066763244,-2.131088199561902,-4.405208304073422,-3.638597536692814,-4.775012701598015,3.832578383628769,-3.624633900890335,-4.059105628929195,-2.678372599804067,-6.11442759806704
51225,,-4.603043947347906,2.023374651204672,-8.28838378298399,-1.7681268614503516,-2.38682282988289,-2.230879667696624,-5.666284416162344,-6.677092450994982,-8.93794800295894,6.492165356452948,-5.463993745336966,-0.8562515391666916,-5.178753431412134,-6.155516605280892
51474,,-3.092116629827929,4.438667316529293,-8.89535935050435,-0.3144248069558457,-2.1418336693380224,-2.4878271008643447,-7.295157499310232,-7.745608955236695,-7.700333073985957,8.065678639507437,-5.82187457047204,0.0644031687715717,-5.680497718354537,-8.639543602585052
51724,,-2.335499146682152,5.577696034132949,-7.682704755612095,-0.0415239910593908,-4.628508419648264,-1.894507598454767,-3.5747058988032543,-8.853410348009835,-3.357792093916389,7.159945833212573,-7.260096785794355,-0.5974455160934876,-6.167362506977476,-8.213651740301136
51974,,-5.085779485871366,2.3492699793226595,-8.965239827668773,-1.42742472952005,-7.836771670024406,0.9713548062119268,-2.9946523732776087,-6.369657137708358,-2.3137020890071547,7.609747040478317,-5.6799112956289255,-2.871567340283709,-5.164553858175177,-7.412952754591124
52224,,-8.490942241521811,2.079686075083251,-9.002547400462399,0.5267722232884832,-6.772708661238383,0.7277262053105786,-1.155211662245781,-6.534218799924964,-4.13309243002567,6.785814061597431,-3.683774353339845,-4.402440808857319,-2.938427974115696,-8.727960855357086
52474,,-8.079092386856427,0.6192771755950922,-6.168775951663088,-0.404450292818495,-4.586315064728552,-4.712539630444431,0.0544246981836141,-4.91757006114571,-3.081137913265452,4.7518231384418455,-2.4799571503457383,-1.606168910284004,-2.799749395906886,-6.356559142247757
52724,,-1.429543410326647,2.950320123732136,-8.40465380335505,-1.7271240899026623,-3.5139233507877816,-3.1933709072600887,-4.988028506189028,-7.140112641026184,-3.8503823572398224,9.102905671989548,-3.1552292439219167,-2.791901182400701,6.790325054903699,-9.032551899559472
52974,,-2.2908590691746493,1.1486572242039974,-6.411411853242149,-2.0920880222177827,-5.726731562207151,-0.0396637102811724,-6.433784098177187,-7.533079751744223,-4.537179998628719,9.40827397272161,-5.107342254653005,-4.513054100942245,10.837226494885048,-6.676926959108932
53224,,-4.093656251561544,-0.1696609260550242,-7.740763880348539,-3.033896368640052,-6.129607040244258,-0.9926101988195384,-5.19308845949835,-5.738865171504919,-5.41938148720578,3.4278807127679274,-4.792982539954068,-4.380554710143708,4.732045214152161,-8.215492679386037
53473,,-1.876841298290424,-0.4313589929718874,-9.800014321921932,-1.1269832149307002,-2.62376209882665,-2.3056018071181072,-1.5661425433543004,-5.661181112220124,-3.7194394545162512,3.52977338220617,-5.727353245419043,-7.242650120444857,-4.077768448372594,-5.426916671990945
53723,,-0.5155524841442992,2.17287107511211,-8.965007581412861,-1.0771138346284963,-3.6587839577404857,-3.971166787294567,-1.5276918766850265,-2.8234218570052567,-1.693973036246657,5.156343421674759,-7.824796988388673,-4.610612578584111,-5.007786595498644,-6.040859897764874
53973,,0.4181914196530755,4.088638162442717,-2.7705214345120863,-3.495515495846565,-3.417519863921543,-0.3049781129301054,-1.1806087901178084,-0.9088886454488496,-1.8310621828289424,5.429734592514992,-5.585405384291439,-3.464205294569031,-4.862605130490032,-1.187558536342371
54223,,-3.5312814233060297,0.0836574055086876,-3.684794471482512,-1.8560579951431844,-3.5047262126791563,-0.746111363411076,-1.942835564287978,-4.856453944950847,-1.7520578523165304,5.517291266543421,-5.42398866128033,-7.129853641196746,-6.055051903306639,-3.335617462678357
54473,,-5.394512326167798,1.7936027677375932,-5.092365288030209,-1.900115764236496,-2.7417760216240543,-0.5175242526052573,0.1855977173798801,-8.358592608582715,-4.303746458931615,5.55087142690624,-4.985495038284087,-2.6966248922362146,-6.642165831824025,-4.852456872936715
54723,,-1.7611506695946262,1.8626145284818283,-9.23924103140653,-0.6198624875995175,-1.3609586555530893,0.8637018301281021,-2.388611546116538,-7.781262165733271,-7.670309655544527,3.3893063156465795,1.0076685415794753,-1.7557776855604237,-0.4819673880972256,-6.238680220977061
54973,,-1.940063721342682,6.38320715274515,-8.89601099454797,-3.559078217451918,-2.3645982049488183,-2.7640606059174044,-0.236634898626879,-6.629351672232194,-2.6340969498094227,1.71661564631703,2.7478041792214727,-4.53338823999263,1.2290660280546986,-5.040608185819869
55223,,-3.1994208001988507,3.954692302732373,-10.01006087508555,-3.927045004197917,-2.437838335322436,-2.537778022490929,-1.65791913958634,-7.48742653291615,-2.685529178640494,0.9506160704011888,-0.1407800491846314,-6.181887667792454,-1.9822426339835288,-7.00327078585272
55472,,-5.791795202965311,4.804514680956663,-11.134257504824983,-0.813232887421302,-3.227588698007548,-3.272849990973895,-5.4031624360494135,-8.63332894205329,-3.780704854265364,1.0247551652394369,-2.3620815844949723,-2.6328693008735584,-2.561428864273465,-8.165308875767323
55722,,-4.673899399239575,5.652171425499917,-6.636207542573112,0.1417185507786696,-7.045747856535427,-1.2816883220244557,-1.8887988382504264,-3.037859825717757,-2.9244688402150576,6.56234020061355,2.1280735267932225,-2.4994712842381626,-3.794714414994356,-5.952171762658404
55972,,-3.1647093602066696,3.833780278360288,-4.868265658178555,0.5931052786950743,-2.348551955343665,-1.2720619495475185,-4.058578994025747,-4.173274366298338,-1.977902292529752,9.344379156905571,-0.8585525430038681,-3.533928062283066,-6.008980253394825,-5.150166223279021
56222,,-0.003586804704707,4.171982734299765,-5.821561042694566,0.4337296697213517,-1.342479632163973,1.0207176469113617,-3.855496385032412,-3.2472699623449888,-0.633602021847421,5.715545583369025,-4.708973320602469,-2.073938977376961,-2.940933254775844,-1.8022701753935488
56472,,-2.6221884913425697,6.228007350907655,-7.365009147173732,2.214973839010578,-1.1149904990416195,-0.3989377849429226,-3.707302403510653,-1.50880338999298,-0.0208397523142327,4.997122214886728,-2.7164646339229828,-2.476803837702644,-3.2160966870293657,-5.550603581059742
56722,,-5.712451549532306,2.350581747211548,-7.140079465696437,1.8575681845463208,-2.7252108408752824,-5.024842139891308,-1.3501736538362077,-3.970419620854149,-2.575059541430942,2.3964407987323995,-3.971513114908725,-4.80747533503307,-6.571484842123716,-5.207795333901468
56972,,-2.863204495896285,0.0304147171941966,-8.948968056798869,1.1880575543707412,-5.342835174838433,-1.2030037674061866,-1.1835033136907431,-7.740322702379361,-7.600175167233658,5.513373176831707,-5.962970011799612,-1.0076825530610147,-6.802930986424844,-5.801194814972254
57222,,-5.578856814177397,3.6591398883791766,-12.037014541072466,0.9431913317089048,-2.848433088065242,-3.916040640415974,-4.603464617212431,-8.304966379824714,-7.354824025017561,6.139177771842147,-4.1880528292111805,-2.571049447462972,-6.477955072313789,-8.284204164238915
57471,,-3.3758592373612464,3.1500840895706608,-5.867428797101724,1.4257367516185409,-2.3036481807868503,-5.638400474905529,-8.97232373046207,-3.680389132518011,-3.884986792190385,5.762681311907297,-3.400460920393287,-7.784724625768309,-3.285793956864552,-4.543103319766538
57721,,-1.637196584301466,3.726702918728799,-6.741269273609701,0.8660153176837073,-4.8702970878309735,-2.3007231429239567,-3.624476823287814,-1.8463832905132112,-1.2660955354138457,6.833785777780042,-4.925491017046714,-4.818013584757275,-3.9229246328258185,-2.486140166894708
57971,,-2.663520951258165,5.89141408067408,-8.17605228488743,3.031071193563853,-5.006425156579394,-0.9493995473057684,0.348540453238792,-3.011385759739136,-3.4405119393636205,8.841518604276711,-3.745290773772592,-0.90147504968086,-5.101614440301555,-2.1788157805630357
58221,,-2.3509432031354045,4.050822538913933,-6.696273116803581,1.1634297927922754,-5.209455940047296,-0.7045612660277877,0.5361458390526321,-2.675972434101163,-1.229113060689722,5.438286161848404,-3.5428429193114432,-3.6097347462596336,-2.279568787021569,-4.448195361179873
58471,,-3.022643508951367,3.565911603217642,-9.149693153615932,-3.693645473061582,-3.689500236999044,-1.8284348987839545,-1.5419917280840136,-5.133169859104023,-2.6180706290190607,0.926804986592471,-5.012913993562464,-2.677995602835378,-5.394331646546813,-8.014622724800283
58721,,2.4357611120571687,0.3607320959341329,-6.7410052840147845,-1.3803353888686565,-1.623578508497153,-2.4358493509939745,-2.5281504514519018,-6.239192111070024,-3.199740859544384,5.083010538934998,-3.048400164246025,-0.942290074244833,-5.571320667655941,-8.564338913439101
58971,,0.8672711465611092,5.200621825166505,-4.188579007365117,1.0279296895910184,2.308763504270853,2.1099688417348195,-2.6428837446779148,-6.806386119554598,-1.7246160384904958,8.068603518084574,0.7947757050514208,-4.858961681275849,-1.5354231213984604,-6.58843896994811
59221,,-2.204005808481595,4.363419302101112,-5.925563825859344,-1.117701683095145,0.802384818274297,0.7877672067884591,-0.0195920999703134,-3.077661682003352,-1.4328881232020183,7.074640033418832,-2.202854199438162,-3.3265000727654725,-1.894946190474423,-3.1773611033975744
59470,,-3.141936742885338,2.9995715820642177,-7.44303212127927,-3.1823704938387376,-1.5851794539167834,-1.4100186226526126,-0.5827759070703404,-3.058186962406161,-1.325305311961816,6.494424384577052,-7.151733443644406,-2.780207955672487,-3.86822161359797,-4.197114853110825
59720,,-2.7102019058838507,-0.6409074165248574,-5.063941214451858,-0.5367410432216093,-2.7638191933364,-2.024725330432028,0.0587785027788939,-1.6231239013470296,-0.1429913765424589,5.898971175861191,-5.150402227727494,-3.5572157791290797,-5.867378310059589,-6.553232002425639
59970,,-3.743013922532943,0.9684815464560308,-7.524193752678166,-1.0907550158013133,-3.68363889671104,-0.590059479809111,0.3219113982129087,-2.129150839044417,-1.916287557205682,6.007641665291255,-6.404023448958252,-1.682399905264609,-7.341969782913913,-8.944542959817849
60220,,-4.67465277676464,1.5097012424380165,-9.515892504727022,0.5455493997281078,-1.84560655411655,-3.907077717912404,-1.2465678163893943,-4.033970527082023,-4.073392384501069,4.190042874898476,-8.630028036744333,-1.681646851958799,-6.932600716800929,-8.945812765478424
60470,,-6.241124122956609,1.2136892393075056,-9.28440376558985,-2.2210982950337184,-1.7105193980448017,-3.190106960989913,-2.4550911221380964,-7.630850550374861,-6.325763372558628,4.760894995818859,-7.91700263120776,-4.147263840637896,-6.837091941549569,-8.444552167809071
60720,,-7.97921152360237,2.5046666464134217,-11.9411132285688,-4.960517173840628,-4.8892486413248015,-3.033702433339995,0.2841016759469751,-5.791620819603124,-5.1305815977248805,5.54521585195319,-3.607843937621586,-5.865798968414088,-6.735550440211931,-5.769565024300404
60970,,-5.235861544145535,1.0111724262357231,-16.513987393509474,-0.5617641837878472,-4.314457895195472,-3.990017985528095,1.1835718276178906,-7.496824303164869,-2.479507086930591,5.921531973372199,-2.980367818291869,-3.1126103441403288,-0.9445591957491128,-4.896627919440458
61220,,-5.424643833926046,2.754629774183969,-15.375167104289645,-0.4704378274093269,-1.537230208765913,-1.483204735923772,-3.1130929061132795,-6.93959772947355,-0.7099919241740256,6.80718604185703,-4.028593059357737,-3.8945858231413433,-4.942499050225559,-8.001282146118399
61469,,-1.9658808014569036,2.3199913438284963,-12.174236833194136,-0.9861789876697216,-2.1315519874322773,-1.7581856576485808,-5.3514953361750015,-4.653089263011305,-0.0149340626769443,7.142316208750319,-6.805511432774749,-5.2113642718619815,-8.646914963692709,-7.704448963128315
61719,,-2.504761144155867,1.183279774289158,-9.481554181342736,-3.773984796105459,-3.8943682436043474,0.6250625129684868,-2.3433330686807343,-5.687055773240671,-1.2711805007441246,8.900997792977988,-8.501514428064613,-6.485885422715772,-3.816059738087256,-7.698026488321616
61969,,-6.686920868366608,1.146497384920713,-5.716385838022843,-6.265131621852077,-4.4127388177239,0.8052188338562973,-1.9606059103254416,-3.9415820318219215,-5.269406106589486,8.42009569090013,-6.139340089418448,-3.973903803808324,-2.448359865423209,-7.287420869002021
62219,,-3.102076180363329,-0.6842512279229309,-5.013056117962376,-3.010843994389992,-3.5928156966453213,0.8506772947681901,-5.417062668691651,-5.978653917385052,-8.623935133290306,5.491671083790425,-5.550403345970833,-2.636336982107431,-5.639404669189318,-9.801678382539531
62469,,-1.9781825588586708,-3.4545388015651977,-4.619983034804587,-1.096927556723841,-3.923397561158749,-5.26300917757633,-1.5941411917328832,-6.390877126494031,0.1061962725514815,5.842543559299779,-3.4428608675683665,-1.3795124604164477,-6.029482718643036,-5.500204475545392
62719,,-3.901713741882181,-1.3167099658373227,-7.624237058698418,-3.528396068733623,-3.2686110278151768,-4.231548671847751,-1.4522783225532283,-3.814375689552004,1.900536154328432,3.7906981278246734,-4.925823114071425,-1.506934582017145,-5.630826166283224,-7.034797128393963
62969,,-4.777857305760731,4.020459072917358,-4.6494529608071336,-1.7305263757108578,-3.6369750268281504,-0.251794964827861,-4.73111986235364,-6.566336913959238,-3.892068994558191,4.191510467249045,-6.586185178710521,-1.4538097639275105,-5.061586665088019,-7.146862523301146
63219,,-3.0758407456786307,3.930954651603515,-3.4890666577381197,0.0320733223058423,-3.2198366081091163,1.030508453320093,-7.943263577430529,-7.46438003217465,-4.356898060606146,4.569934197920404,-1.447015128454869,-3.622109705366454,0.1030000364404835,-6.982032014378083
63468,,0.2549996884805272,2.714007374737444,-6.940773391697709,-0.7435924125715475,0.459013459903932,0.1962793673266213,-7.362548951576441,-5.879760737985171,0.3172637174158281,3.756251375557316,-2.5469822889116056,-4.050658241348759,-0.1211349650990634,-5.650619456694509
63718,,-2.810637967589367,1.4357910222605814,-9.65011043548481,0.9327011026188236,0.4718217670794316,-1.744106697939384,-2.363907371110985,-5.013091903175797,-0.5938166390881613,7.089423865689936,-0.7695694963666808,-2.4642849346142723,-5.8480934183892375,-5.939694395510689
63968,,-1.2162663794255666,2.07550780974013,-9.977508173229907,14.513416502813056,1.2224844678846003,-5.987120381853156,-1.932735988441052,-5.113624907552615,-6.447476393529602,6.1332559635720525,7.967030793266201,-2.874341033056805,-5.617804527380605,-3.7310251761492177
64218,,-1.6638419258954862,2.445867679511714,-5.370315445115972,16.34892972064953,-1.3519917865778794,-2.487872136281161,-2.1169678850164675,-5.010535161487014,-7.814306978962292,6.172687552371987,6.270891973598274,-2.737719061330174,-6.902075387361664,-2.716216744283914
64468,,-4.409311647856599,-1.6505797284234744,-4.347973850042097,10.980524029216612,-4.298949480867359,-3.836971971566976,-3.5129904244997343,-4.65463821391371,-4.177538912223917,9.025243556613562,-4.602516520001441,-3.366167419928077,-5.471580642705861,-4.350474350326011
64718,,-5.542685618813234,-1.844446199199632,-6.3783954973410095,10.028397219939896,-1.663429476951538,-4.975432273753935,-3.8445936240671696,-5.442389041120103,-4.521716566825649,5.900017533549885,-4.989184481730971,-4.906335769433528,-6.9130923351244045,-6.227287624414118
64968,,-5.859662593190805,0.1408701806456789,-4.524310236675108,3.573137010081849,-0.1829063499539394,-0.5681581466109684,-1.412346063238497,-6.879794756331934,-4.525801091225064,3.358793698864436,-3.687957301181351,-2.7343705850244038,-9.837698039684016,-4.936637180064577
65218,,-2.7493639888780037,3.019558963685628,-6.60057630333223,9.493245242495783,-1.0261255908501443,-1.894757278261168,-0.5300950828499503,-7.420589982021574,-3.6868373986191783,5.377001176990774,-2.7377935725924303,-1.0609454914923793,-5.0500282172252575,-4.673502983186604
65467,,-3.814645002892125,2.6126727467360467,-9.257236923327527,8.110363673552328,0.7543172610649346,-2.5488249643839413,-0.8578703378910096,-7.469916451520539,-5.870389166550176,4.161561182472764,-3.004273812441398,-2.2520168537110736,-4.2498637542453785,-6.239320676714585
65717,,-2.221404279099338,2.072963118686086,-8.012201975764176,2.3833743694297818,-5.245470184167713,0.095264334883417,-3.542453050110384,-4.770845971691488,-8.741641496203583,2.5901050967983217,-6.917333059414526,-4.25261855586607,-3.991662251711591,-8.146461967814787
65967,,-4.839395951195081,-0.5237106804193805,-7.736820438241994,2.574498193854009,-5.305452747302136,-0.2490151434292977,-2.425810229682708,-5.3725398016129775,-4.52160784710234,3.474689422074867,-3.231279952111359,-2.480705694371783,-3.0685295057584923,-7.093415085616925
66217,,-6.089191858875843,0.5650255200813944,-8.413159816497085,3.5094030127108584,-0.9690743036226444,3.556047756077988,-2.658444478106615,-4.720028169916875,-2.028150028604464,3.5360171209601265,-3.6987081383871976,-0.6300045391835023,-0.4935346000131898,-6.974566300970302
66467,,-6.239600634369239,2.5977932314661945,-9.897315155796065,1.1754025915927016,-0.6138239128377161,-0.2526788543365735,0.1509401748299123,-4.492243882022975,-4.0466315588787705,4.732022478028572,-5.1764779106599175,-0.7762950345049974,-3.763494028467336,-7.790441433271091
66717,,-3.837691009294091,4.409112041714868,-6.297532525130918,0.3250681451562729,-0.5107783764703503,-0.8496569447314767,0.5316014240341054,-3.029158936018879,-2.832906684154169,4.4384898652467735,-4.6331980043419545,-1.2852294011679388,-5.875162691541562,-6.718920139457002
66967,,-2.937749165965206,2.7046761695831645,-7.090065447023931,-2.823777814660046,-1.7727724678101886,1.1025609798841298,-2.3965156204690943,-4.18528710149107,-6.153223397935596,4.414949334530062,-6.412834734143189,-2.952428107810282,-6.894959585458769,-5.830159609061266
67217,,-4.011829635975647,-0.1677145280949403,-9.780516134958791,-3.1977950787973786,-4.813692177577499,-0.5934182108394532,-6.280041969549526,-7.630952622160477,-8.541400835032483,8.753869914845692,-8.839317524764379,-6.521256568843223,-7.504471280430928,-5.081144868633812
67466,,-3.122044742620062,-1.8349690698439471,-7.7176025540585025,-1.9982837454171083,-1.7172620777797565,-1.4757484250915252,-5.377719111867414,-6.270442648131233,-7.5505060188769635,8.186374651553503,-8.1625327531806,-7.7052125160635825,-5.112439788677498,-7.832291439170397
67716,,-0.8783161128788054,3.577881443873128,-6.291494932748125,-1.7502340340581817,-2.0862515915416537,-2.215459369984795,-1.023344758255309,-4.67647409323529,-5.331943443235509,6.35187251669743,-8.154598995782015,-2.3815362944386886,-2.3760621052365978,-6.960482931183547
67966,,0.3697288531216474,3.055982017831579,-8.508255443802131,-2.9051254323324427,-4.926043089243648,-0.3023137991646451,-2.125401349538535,-4.456902642192668,-4.3702889514498,4.3139003492774375,-8.279954609855633,-2.290749259608358,-6.087625682574529,-6.452465866608858
68216,,-2.130080046149084,-0.4360686962762514,-6.30612282790286,-1.9294890612705684,-3.882133545154728,-0.9959894653202814,-3.676048181939788,-4.589164478965188,-3.530944049218675,0.2924768379019521,-6.067386187049044,-3.666070661500147,-3.481061159455221,-6.795833114927641
68466,,-4.3101918205615295,3.155871894297284,-5.885098548904742,0.6930832978866677,-2.5671351045916437,-4.514678595843201,-1.945653089263259,-6.197202659739447,-3.571187596785137,5.4735233127806975,-5.7187394326099135,-2.9731526330377696,-3.2259591977603903,-6.226627454068306
68716,,-5.254754577261337,2.1898943677324976,-10.253658861640645,1.0267601155845067,-1.1297047233965196,-3.5770960634461684,0.1349016386640657,-10.556765119298005,-5.293678343329526,4.935446551227846,-4.843244269699676,-2.7074777537584467,-7.654990442707225,-7.811936891717536
68966,,-0.431222736749243,0.6685595278639672,-9.02328734295282,-0.9799318559099212,-0.0622789686676269,-4.677548441941043,-3.807625332908173,-8.625380057438377,-8.356873933427673,3.5770207196518844,-3.0452116947270573,-7.019880711918941,-6.043872725400319,-4.48059054401483
69216,,-2.500950301449985,1.7706843590821495,-6.062708173104405,-4.71010476678071,-0.4559032887930014,-4.795252530780843,-1.3467233562771748,-4.105707994232892,-9.327782708942388,8.096911885913688,-3.1878181050915355,-5.300655569488395,-2.9937273832579514,-4.645492661734814
69465,,-1.744010811113317,2.1907018827889173,-6.366581424688999,-2.4657281578890258,1.2051748016374049,-2.3098951462747976,-0.4860828968949509,-2.998011816546902,-4.677784961470892,8.27592269612837,-1.455399381031104,-1.5207625565515444,-3.779177718652817,-6.617954219766138
69715,,-3.392276075138867,3.621337443108637,-6.753002515075797,-0.9282271553980832,1.5150826884818769,-4.864915972554011,-1.2386182421105694,-5.668780030215055,-6.63687995474133,7.140493184156364,0.6120737314721131,-2.8938917960454424,-6.684990374196421,-10.01291026564702
69965,,-6.990975035772621,3.237820283890427,-9.17982628525218,-2.04388378706032,-2.083037037981528,-3.400860837089563,-1.0716314182257345,-7.103584623334126,-6.256035758949288,4.651236211316374,-3.1252742876356896,-2.5188814547730343,-5.320577042093271,-6.755930049762208
70215,D,-1.5571070497338924,3.366211761233287,-9.70805043158992,-2.0474362961532693,-6.061441784602587,-2.7394875426803127,-2.9771320184299928,-5.463144780405292,-6.241279492304175,-0.494831598304587,-6.032446792533124,-4.091136701386039,-3.2627522101858952,-4.644422424728062
70465,,0.5533488146245976,5.697223264659046,-7.445833170114867,-3.2084438457555517,-6.075031711277125,-1.4881511714620297,-2.7782686402299293,-6.055422242956747,-3.151840028884571,3.254814625939569,-6.827757507946766,-2.330311472869247,-3.3701050149166827,-7.739587838794315
70715,,-2.211355763137852,6.648405080103409,-8.300301752647819,-0.7359932478524129,-2.8025937965224195,0.1101892658586925,-2.040653171648326,-6.041210963801518,0.1960658698328314,7.114565712017291,-3.056203925028516,-2.6743187369854597,-2.999861230717975,-10.181396596270796
70965,,0.935072753235276,3.843199762727909,-6.820623614106585,-0.2576346564868359,-1.2934846163742162,1.5307885123708274,-0.1303193904731902,-1.032592980592674,3.663138582421032,7.847948127082779,-3.54447863149558,-1.6082193457261609,-1.2413958363713156,-7.992579744949184
71215,,-1.0215555062098984,3.2893298440055787,-4.309347531589884,-0.966297289583131,-0.9069148854867466,-1.9553118133493683,2.47522203799832,-2.644023867213174,0.83337003926808,7.887511853180182,-4.904379498737712,-3.399994783706553,-4.403950478117767,-6.439981320185026
71464,,-2.255732577391454,1.3780913045808374,-5.791557108208735,-5.441041109861054,-2.2981331062037595,0.090385515856122,1.3646714510919524,-3.713247189051817,-0.4958299954438434,4.83162191711566,-1.7180997473680268,-5.572275961209887,-3.186889575663661,-6.684622137869867
71714,,-0.2010844810252674,-2.0926124172021976,-6.98004491948759,-2.439237394904161,-2.319693462044788,0.3291440684313502,1.219890625553945,-1.3823247667186531,0.4675424636905109,8.246185207100261,0.7204824615434233,-5.603749444232581,-1.296048817135507,-5.078580273604501
71964,,-0.3911678762684067,-2.83387065209937,-5.904468366524912,0.6493544987366131,-1.7824268408270467,-0.4393055181928155,-1.5900949173257108,-3.6523548028288415,-0.8565155743020245,7.410071199853418,-2.932831761186609,-0.6674698344364761,-4.854108423794196,-6.752968682797205
72214,,-0.8813762191499174,-0.0905345001928707,-4.715265286137328,0.6481140394311092,-0.192753730899016,0.3644831029132072,-3.252712626923157,-3.5771092959140525,-1.2674228710918851,4.042720182633246,-3.676900634088807,0.1631512251306106,-6.137378530868691,-5.688753637383347
72464,,-3.500895298660453,-2.550184261363241,-6.307683948160758,0.940423548199366,-1.0937862741856128,1.902402981077957,-2.945219341555407,-4.281555213397831,-2.9387663544849945,6.007289554138158,-3.9612385060346496,-1.9253224512869649,-7.655762834812574,-6.084740374000452
72714,,-3.4257795814520104,4.748741681009938,-7.990565208812513,1.457083712793387,-0.930644106079853,1.1570906401070966,-0.1664263954811829,-4.125840394700086,-6.951657033011211,8.83446192146466,-2.046290088694149,-2.266782197366852,-3.958222035021024,-4.184938430601911
72964,,-3.1499640713397543,5.8852584463721405,-9.219423459425574,-1.293809748852499,-2.624341518758224,1.7622315716168644,-0.0874749385499726,0.0968053272753158,-6.682022309074096,9.3322813008152,-1.7778272204590229,-0.8547413066734333,-2.453940620365718,-1.1195685121213674
73214,,-2.745877251797986,4.915335576996088,-5.679687816212353,-0.7276277404957563,-1.4025953509998152,1.512308942500148,-0.4817852908924468,1.4742603037474489,-2.3546862405540696,7.713819743298448,-3.4558478762001767,0.1962652568157648,-4.113178456464235,-0.6889031171861493
73463,,-2.176486153688451,3.3232551947525906,-2.303478319186136,0.1115782726547856,2.969552186297582,-2.9343474675772536,0.0119937351709622,1.5076621031876567,-0.2964301074970165,2.2627772377139657,-4.279032215386576,-5.543980398678113,-6.861647631503704,9.340330993512062
73713,,-0.9282737512278636,0.114413762486884,-1.856112058131192,-4.03114472856803,1.8845825385656203,-0.2089575576765433,-1.735715324142436,-2.4121049694266343,-3.0431169531076203,7.310996838287607,-6.7372783948428285,-6.831593900503074,-6.925500288061931,10.432819688986047
73963,,1.482061601054827,-0.2775637227954284,-1.9172186254870216,-5.773560346500282,-2.2454126918026045,0.8967951700444904,-3.720691134560608,-8.04743745006989,-6.076088226387549,6.490902272746436,-7.438420937040306,-7.281501322762571,-5.533494001264755,-0.6667597933895818
74213,,-1.6708545091295304,1.3370746813470171,-2.987601271823781,-1.664878909692766,-3.9768880311194543,-2.274865691661401,-2.0241544118878823,-6.425673258836864,-4.880972817660664,2.430626771936836,-4.01537112652187,-4.06039316744569,-7.004201304974257,-3.1645140258655724
74463,,-1.6841522034041216,1.2774157040368974,-6.140262252559657,-0.4742381326647327,-2.476109430598337,-0.7272274578757066,-0.3228990267556494,-4.365976009694304,0.5803914167913394,5.390615595716004,-1.0581592358933831,-4.230388323413382,-3.376495430316742,-3.514630910883785
74713,,-1.0986606454498522,-0.5474845942754706,-6.172442527700164,0.9893290495142166,-1.8234479202160725,0.3873633431158994,-2.0378828935834603,-3.80429017571246,6.817341564912972,4.485274296861088,-0.8205254267965606,-8.268326731842837,-0.9654437938303648,-5.278296506940276
74963,,-2.414295307338308,-0.4342242415790314,-6.759883543856466,1.6063003524545962,-3.1544364531242324,1.804036351698027,-0.91359360061425,-0.8250920631581148,9.26085515880047,7.12486055447668,-3.3334755193714964,-7.993138410505659,-3.328298674664497,-5.71438160126522
75213,,-1.2572877239698794,-1.0410722226839677,-5.175409932464495,2.0995072690262555,-3.525296383218792,1.3767447611927834,-0.2721480294703676,-1.556347498813579,2.3177026389955357,8.762374223194367,0.2374992156571469,-5.798533519872468,-4.255905725680947,-3.799322123836978
75462,,-0.2176464772860577,-5.2333650975488455,-4.308168213172897,-0.3179392271798504,-2.9158282995617357,-0.016297457643923,-0.6057408735861055,-2.3108634100397363,-4.466584099408708,6.565809804629287,4.681798520311654,-3.75935421594196,-3.71593835294976,-3.1334588218048243
75712,,-3.3684908265732387,-4.362446752215108,-8.951295029570996,0.698267945124931,-3.9410039717022416,-4.021539712368256,-3.888297354989057,-4.611374168803428,-7.983685743258848,7.493147715934204,1.2523905747478536,-1.7084024394708082,-7.508354878611149,-7.095475471562152
75962,,-1.4394383591050728,0.5485472621343785,-10.339814868385028,-0.5913703812267471,-4.636481486528405,-4.116097535366976,-2.7061159814555955,-2.604123941839474,-4.476939536993064,6.151262345774878,-4.592287537148666,-2.2714571645836577,-2.972117810611745,-6.641567065782027
76212,,0.8604162232103151,4.564277444445666,-8.119829650524492,-1.2568908143863826,-5.2482396531962925,-2.7298910237789373,0.2827012055064545,-2.0033657890963417,-4.896139975418924,5.741047872667666,-3.399169673305922,-0.7751678730367868,2.431573464727003,-3.837387719149596
76462,,-0.1937314506673668,2.279239738090183,-5.212244406844702,-1.000434984694332,-2.8637333268431213,-2.1871515824534065,-2.2560487210788063,-0.9311573009993356,-3.404755487670918,2.717203510544492,-4.462169683089229,-1.45092557727881,-0.2891550957301351,-3.5852385947925027
76712,,-0.5854466825107483,2.181681934796938,-6.040859232981704,-0.3933510198863725,-2.80369498325423,-4.939935545448688,-2.7451189579296864,-1.2456618829934103,-0.7749735981363154,1.8134241823727124,-2.2582573560390653,-2.999216997391388,-4.436359190551409,-4.583721157059592
76962,,-1.0724179746862792,0.1114244295781576,-6.644505154397486,0.3131856622491812,-3.896290100283146,-4.899337681965695,-0.7142921665822537,-0.7438785154029159,-0.2566192809069498,4.9856878631596855,-4.892389159474674,-5.067326736701263,-3.419886461490983,-5.621409794601327
77212,,-1.9547337818726376,-2.5243464486692746,-6.152978328499341,-1.6682888423783355,-4.349493635024629,-0.6853768008690382,-2.02783251022172,-5.069601357835348,-5.907833933223516,7.962066840130985,-4.865553999364519,-2.2672786633659867,-0.4982157351841618,-4.152809987756482
77461,,-0.4604952839034071,-0.0039017596142785,-10.92460286910827,0.5837290780095559,-7.247994260027221,-1.384333798488269,-1.17828369674531,-5.023173911979127,-3.930461510965228,7.733207089195066,-4.030296569507986,-1.0962000874840705,-3.732627085594181,-2.150115493038581
77711,,0.9494805266395456,-0.3006063529986194,-8.717841719344245,2.6993798432100147,-4.480109613493191,-0.9122989753626995,-1.82970170608043,-5.774690547943072,-2.4742277647483872,4.74374167486948,-6.124176834556105,-1.0322958784198146,-4.8052472848276135,-2.637059403378892
77961,,-2.96395046913141,-0.253499274697076,-8.881503075345318,0.6764157185184096,-1.1691915139463092,-1.366641410858605,-2.8025986992367264,-7.368902870777939,-5.5894580046008615,2.2413173278316223,-4.707423216393014,-3.889447128614597,-3.812290635550748,-6.347096069668185
78211,,-5.653885547138257,1.6617601244612137,-8.495054383273716,1.6958897297422415,0.4091494286574845,-1.0515754799606618,-1.802704413559143,-6.432584164834952,-5.708753207117302,5.385567727039682,-4.8182978313696285,-5.650014747724695,-2.793096657126697,-3.3656340869347385
78461,,-7.419886069156234,5.245581353271602,-9.58759141141767,-0.1551456466626257,-1.137735217682497,-1.8025056234595296,-3.518934564190725,-6.120566044068927,-7.75355168083963,4.76219644658417,-3.140963206357367,-5.754639882181365,-1.0765822063390251,-5.51375078817287
78711,,-5.624041940775145,5.510437537137926,-9.051005053223804,0.8493705481216623,-0.0281154929160993,-1.5870055088293489,-2.636967804184806,-6.50769777587776,-8.564062880545935,5.283364907336777,-3.909447636301152,-4.124138814138259,2.3011541019991912,-8.716874005898044
78961,,-5.337287577631652,2.012431139004714,-7.96439088360342,-1.5185968817265862,-4.2453528916709,-3.6624301733194646,0.1104483893926624,-7.403436929132373,-5.485357633135144,2.9222064944794788,-3.4720158539482417,-1.872240061267244,-0.6883032164290831,-6.170858103410973
79211,,-1.6070908629537954,1.1128520944818838,-6.276433186696356,-4.347899893267696,-6.725654130564999,-6.478090103562801,-0.4190802761279918,-4.332708236448982,-5.975894096988838,2.960880062015377,-7.006548800456674,-1.0106480922138326,-2.9710026505338654,-5.345862959942858
79461,,2.900936593017424,-0.0374155267618755,-4.74106207266341,-1.2681506834147165,-2.820708018615333,-1.5482155994073228,-1.5753337033535062,-1.933623951207501,-4.503287450305358,5.448620426228482,-2.2732510706018645,-1.7659560054373002,-0.5082447565025274,-5.424470043710853
79710,,0.7355553295362658,1.0445954505158843,-5.068920511441012,-2.683669747897285,-0.5664768990262038,-2.7038413666421697,-0.4091016660665042,-3.4437007691659494,-5.699143875598496,3.5173047967190523,-4.563710552039536,-1.0248393184595952,-2.7256971273760766,-4.174091967187387
79960,,-2.6522426032087503,-0.9459758034441385,-6.573462187402612,-0.9969550032514602,0.9984359748246588,-0.1704359401832439,-1.176679373594208,-6.927961790813012,-10.48177180421594,1.380355796542202,-7.88370091703356,-0.1947125171202291,-6.497234127400424,-5.713341427853173
80210,,-1.0514796740052346,-0.4332917985317227,-7.260743218751793,-0.4702530065897478,-1.2965049838757283,-1.3582664873177377,-3.809934852033204,-4.741778323094895,-7.528848588111221,3.949532046527011,-4.376484092845434,-4.383008802823161,-0.8536704028162968,-8.348906290467536
80460,,-0.7901079790382879,1.5369762359620898,-10.176030278743974,0.4949620366414187,-3.5153380770813487,-4.009299837900983,-6.654324131781007,-4.637005227980311,-5.227810688633978,2.8342825005184693,-5.746884235396806,-5.79748137468577,0.1911898986195452,-7.394454100458771
80710,,-0.0363444924036271,-0.7629209849445804,-11.339424320104763,-2.1987014296567238,-1.5893250525001934,-6.2189097492631165,-5.991509338301118,-6.08002055564203,-4.707256980928647,0.6986590661469736,-6.603372402487372,-4.730671552143829,-5.196954602891724,-5.337691866927261
80960,,0.4671491266624809,-0.9709199920772013,-12.40707046416218,-1.2200531139392785,-0.7744915732623145,-7.997532883375134,-11.014980983476368,-5.891583478287286,-6.12854329112694,3.640331355200756,-2.592311698113861,-1.007058500049022,-5.836119663875423,-4.63741334632054
81210,,-1.5638638730202743,1.5363870909917787,-12.933873390207992,0.4319677228309154,-0.9134847816427328,-4.715219092230062,-6.277435538122044,-3.70737243046432,-5.114879142604903,5.261599334115851,-2.39994141332092,-1.0079976461628994,-6.221995210002004,-4.683153521120888
81460,,-5.972777821336127,2.5383566758109577,-8.057262162204777,0.9997582124972676,-0.8611267370699305,-3.037719892152296,-4.128050511866675,-4.753076045499983,-4.689302588875791,4.330161203702641,-5.269908265349872,-4.992503460648,-3.654558534802941,-6.706622030270141
81709,,-1.730060144142478,-0.1439366618403393,-5.227340123388626,-1.319367845150409,-1.6028408965557537,-1.2508960824177306,-1.3084740146911162,-5.90622257934437,-4.70567269012142,3.621675178284624,-7.159828346563286,-3.691168792985967,-3.080721472961743,-6.901716606289888
81959,,0.6501101252093698,0.6510592728563933,-3.660687571132008,-5.215481093513495,-1.4007206386042614,-3.931917651754997,-1.80865950445862,-5.781095605614159,-3.746051223043888,3.5959623759442367,-7.289149452417488,-4.780253973146289,-6.142076957605152,-4.138768739017858
82209,,-3.8625306458876354,2.3976893114803364,-6.660812160934944,-2.563868808412564,0.0640500519677435,-2.5990748079029933,-0.8067235330639162,-5.271009593623593,-6.849558276823209,5.299719576818075,-6.288723941252363,-5.760468923818864,-9.44075715614099,-4.733101806550685
82459,,-8.732619834599296,5.571630355475148,-7.038667954089965,-1.112896716991132,-2.7249002479820392,-1.699708320099972,0.067801254185577,-1.4775587776445502,-3.48664024682384,4.6535640232281485,-7.515305156823784,-5.611662038539045,-8.401642960726685,-8.212056248552532
82709,,-6.839795957651629,5.328556023018805,-6.436789677532103,-1.49164975090456,-5.325209213948547,-1.143647619492842,-2.18533631631955,-2.994101219483329,-3.125365887431213,2.68262121199799,-8.457362117718157,-6.105896762854968,-8.202377916208842,-11.27976501336822
82959,,-8.102521235122218,6.730025027115678,-10.473616777289,-2.6676790865502227,-1.793038174259873,-3.114818963128239,-3.1303909560498133,-4.7772542452060085,-4.649394632479799,4.536111795060997,-7.597079611210057,-5.467368624834811,-2.2169607638141877,-7.461706100128405
83209,,-3.7720641631363296,4.745263697587687,-9.468287685195952,-1.951339809123643,-0.9225726678029554,-1.1530328030547494,-2.1508095871623487,-0.8634464631452778,-2.167508721562733,6.818757147659932,-5.232300019282614,-5.0374633367243815,-1.330630962637347,-3.209945251739406
83459,,-2.868484761355096,1.445698640778781,-5.37268291091779,-0.5895430473073362,-3.295339904041681,-2.3098137673864287,-0.7302557051222393,-3.1356605740447048,-3.759924511820421,6.099395931563052,-4.454774131215718,-2.1567400767184406,-2.315554666450568,-5.77155471995439
83708,,-4.350014201667436,-3.5943232417537825,-2.8491658036197363,1.6270321868261917,1.919933528480497,-1.7910593193422657,1.3847349360506849,-1.8388690389999136,2.5145746335035546,5.4538502788860574,-2.742216176503301,-4.36621629766269,-1.3230051898402977,-8.987655282270644
83958,,-1.7461122794975128,1.312688075779075,-5.663107634425426,2.3585247879782867,1.1322148775167435,1.185125819446652,-1.502321597236738,-2.019104126565688,2.143994716211624,8.28674017146672,-5.432276144205995,-2.3703389416831016,-1.0892364532916488,-8.2612371528298
84208,,-3.066318296154848,3.6485606061727114,-13.761737633648748,1.2559890443438837,-5.84790753071074,0.4771867774869374,-4.593144415744163,-7.54009668301868,-5.655763541852732,6.81617001991556,-6.189092506856127,-3.139507075020494,-1.2417358609278355,-8.989360427016692
84458,,-6.882994362188106,1.6456082671050414,-8.618079462839088,-1.3304078641875483,-3.3884998903995065,-0.6565565215418903,-0.7074346536909164,-5.13135709931075,-7.0344002152846565,6.795634121632147,-3.8672570002214313,-3.843397994393989,0.3879357672875816,-10.02460958754472
84708,,-6.011077587956054,1.1362895873951917,-6.007588079266327,-3.916646659830169,-2.7942947353089176,-0.7920101159189461,-2.654089355804265,-3.3000638218401264,-4.678919003645738,8.051506605931314,-4.645879636630982,-5.355877406333235,-2.9271165077022374,-10.396502594350736
84958,,-3.2628215049271656,3.1803309955411887,-6.657497266704562,-4.359673814562425,-0.1291223631799529,0.6513795912212597,-7.089998310022572,-3.549012654992437,-4.982102847743425,8.386188110565897,-5.6921919211713,-5.4509687369795214,-3.187473366844775,-7.499733213411908
85208,,-1.397717332629522,4.203388353203215,-5.589375205500689,0.4464718806691169,0.4734376820663167,-0.1221419002616608,-6.242889426206726,-4.250128807060354,-3.324525312582605,6.766230727765652,-7.269750114368763,-5.955811879311158,-3.5880714748118328,-5.72740119986049
85458,,-0.8847537662558979,2.940512993821136,-6.966904649181707,1.9440729084417896,-2.807271873382727,-0.1579773053340472,-4.20423354254575,-5.536385803261858,-0.6969098133965406,7.654982119587777,-6.304967892573387,-5.324309993288248,-4.568486423882061,-3.989406841693495
85707,,-0.5519039346453676,3.003689868218755,-5.142819882597639,0.8410515183516664,0.2136779002199845,-0.3918830639769683,-0.9210866001753414,-0.8582591919749082,-0.0936403206772875,7.742209216057142,-6.938338797335711,-5.49921489430937,-2.178455130740113,-1.3453173103995777
85957,,-0.1126428859167054,1.0847291534611805,-5.015453504054966,-0.0587246777212622,0.9824211352466704,-0.3093846670977639,-0.2817533756970655,-1.774591340470241,-2.5144458974820907,6.819123350121217,5.372265764660505,-3.3552370707582124,0.0496163280396297,-0.7460464831808521
86207,,-0.0851033544126317,3.4936866814024707,-8.320338858058179,1.0872043166516967,-3.677280757551581,-1.81648708510424,-4.1292088595657965,-3.390876762199504,-4.399800235002006,6.422196371605375,6.601226248036937,-1.6857866777013577,0.2947640122328415,-3.89651081274158
86457,,-0.1024264664969895,4.650438567943133,-7.31666340359086,2.653133443730295,-2.8346911831635317,-2.123091818794518,-5.147073134275066,-4.7139624095095325,-8.819262174873291,6.6023110099904505,-3.248730470168203,-0.6891386375529783,-0.7483920052375875,-12.336133012085991
86707,,-1.6437942877669731,2.5891585308444687,-2.3320899199683334,0.7892398460706285,-2.787526992119496,-3.963790542460559,-4.762401039630973,-6.778777086788709,-3.1677369304330174,4.735094179930607,-8.257957573210874,-3.3051922246763654,-2.334797955739453,-8.057384281158912
86957,,-3.258078204699817,2.2810961969797776,-3.9684154331259553,-2.4961895683080293,-0.3127631770532006,-1.7245629764101813,0.673415606540954,-3.596848172198257,-0.6823925829186196,3.9441020560353897,-7.498838123368579,-4.804559463583972,-4.293855243060149,-2.190426295385317
87207,,-0.6135344571035327,3.486275076537884,-5.800995102613509,2.980319410697449,-2.065873879606271,-2.184240312769264,2.920638993908025,0.9128003072589154,-0.941076698782464,5.497363065642258,-6.334198646838747,-1.3829918892941098,-5.586620813115237,-1.6372310853408911
87457,,-0.884794849548991,1.7487909070403287,-5.160371693562714,1.444170580760416,-5.818140172988984,-0.9413915306216558,-2.0202558950722445,-0.7806667292930283,-3.965405264206749,6.742343922162737,-6.128758581526257,-3.6501195606411274,-6.368616727417589,-4.863818569386061
87706,,-1.862393917132531,1.653553506004072,-8.11420875760229,-1.9152525930543487,-3.3088931947270126,-0.0146006607589847,-4.734250360958789,-6.015407483181586,-3.54378888493559,5.524382079619437,-5.5313327077111705,-5.434123146804355,-1.6653832913704043,-6.2685103646892495
87956,,-2.192849458105048,6.216715333344727,-11.19739417161243,-2.3154682785858656,-1.6916337494114564,3.599855374629568,-3.4614697075194107,-7.326202394271116,-3.177062538390904,6.190492059685212,-1.5787588142586038,-1.081204464670976,-1.9733784624309223,-8.225933125600044
88206,,-2.284442302844456,5.449556744079454,-11.088229810644712,-4.36314734508276,-3.120565869489467,1.2263138960678883,-3.228365620168685,-8.598629674434097,-2.563529949187279,5.353667701487139,-3.153845988403528,-2.841504190641505,-2.401982692844057,-8.457051430465057
88456,,-2.7916532990792047,2.845685602027542,-7.8816716837073475,-3.035215232241961,-1.7703619596234257,-1.8311877625742337,-2.3001117902515213,-8.162266210528522,-2.3602426008596384,7.110881642928112,-4.775516198138988,-4.766675142761649,-4.4857683021253445,-8.174006645350753
88706,,-4.822553102601439,1.526429073168552,-8.52094452045964,-4.059231349866139,-0.8436390717476165,-0.2689368300077357,0.621869572431596,-9.356479301956371,-5.866864619082835,5.360945235349722,-6.199954339725441,-0.7657921286082187,-5.185114812737756,-5.374545245607227
88956,,-2.854813633901056,-1.4479561487084047,-8.376193755405843,-3.3283590993194547,-2.7744388793784776,-1.4541549150102735,0.6643823538360661,-8.359102087300375,-8.351555519672218,4.641948231328634,-3.87449044452952,-2.712637427677867,-3.6562377060411584,-4.689746742699551
89206,,-3.502925262397021,-2.0775065078833546,-8.006983869036459,-2.4983318392345057,-5.393065092383367,-3.223109483630318,-4.457111798181568,-6.778786350377152,-8.904151152466635,3.187904031972215,-2.9208661939987017,-9.444821633871635,-2.585210797714156,-8.044992312040188
89456,,-8.541495376951941,-1.9470123948608595,-11.171365300403457,2.8683617351042443,-2.6905259693351646,-1.9647713012136347,-2.3479074357071403,-1.6619719500049854,-1.1864903567253802,3.935762967910379,-4.142951381249476,-10.95848998561867,-3.120754362782687,-10.628021228472331
89705,,-7.459187179906235,-2.5704051163120027,-12.850216647142126,4.728713344598284,-2.7495898358020137,-3.2514940640569625,-0.4257377109658913,-2.2049263555700573,-0.4702615994041229,4.032042860334886,-4.835222259827749,-5.716472134738985,-9.490740467506743,-8.487092649410268
89955,D2,-9.109402063434256,-3.2368307336284,-11.57196136531679,-1.170852055446932,-6.564557972704993,-3.4788787731784105,-1.2662078369240248,-4.988822479068426,-4.358072508850485,1.1825675578277417,-1.9337039590492635,-3.307542162297594,-8.405159475067446,-5.140731233858647
90205,,-9.281227964717491,-0.2263277366079932,-9.862418024837163,-1.5587403300828029,-2.640145400114009,0.3035283690079794,-0.4038022394909125,-3.2587213944101694,-3.0022266048984747,0.5994027020468341,-4.175206855240018,-4.315160054514238,-6.534618994322894,-4.950564664019904
90455,,-4.869664099574197,0.4823552403438827,-7.918790740632234,-2.1646231259500834,-2.039160506028716,-0.8521302471785758,1.0767217889736531,-1.641185210790406,-3.757668648745497,3.2206520689160234,-5.129255040768194,-5.418983330469529,-3.5553181139410888,-4.769164593391909
90705,,-6.589227990833679,1.863257713598088,-5.849817743597397,-5.6315606163097485,-0.1817468394811597,-1.8605382309173435,0.9078524059764064,-3.7653877471953767,-3.131886845029441,4.509493191986434,-4.388896575318502,-5.682176997277065,-4.265519383593112,-3.786809800240401
90955,,-7.30556254195551,2.5451430328881908,-5.289032185648709,-4.5321492042091736,-0.7462083521318273,3.0705975126189267,-2.746024660513109,-4.184540799518827,-3.233922385131192,1.982869405611968,-8.042666698125407,-10.074820948220198,-4.565370132296039,-3.938662498900447
91205,,-9.902044692611888,1.1663422090475657,-6.759522273438691,-3.911580242798106,-4.677813893285682,2.5899204804768985,-5.489238455799276,-4.403779085922493,-6.484333341103225,1.087443638259175,-8.696735008727506,-9.403940235031808,-5.874897308485584,-6.785300575967748
91455,,-7.527160792788644,2.7521343800391875,-10.6040684285635,-5.253976237031647,-5.904258858323138,-1.427186188879037,-2.5395256152745955,-7.265808655273577,-9.327366244616266,5.232782883219896,-5.289557105165208,-4.951068732766231,-7.390078690757683,-6.519962984403009
91704,,-4.671114505202969,1.7562588091344975,-10.046136244308324,-3.869698349101616,-2.1755281111227176,0.8728290454606893,2.000451490399792,-5.047347653202323,-7.175078918508111,3.10175295522603,-6.389515129427641,-3.048089255219997,-4.798730441107756,-4.982008256506957
91954,,-4.271529963167347,2.2497225392673936,-6.889243963094449,-0.0995124079093814,0.2729273067718397,2.7294762536906654,2.2557283743172807,-5.471020711658965,-6.011121140847534,2.0339247781599306,-4.535228045427051,-1.1255479873156082,-5.087388825971876,-4.591149660359156
92204,,-3.908373538266311,5.056227655432604,-5.258462024392216,3.7705272092228,0.4220447903645669,4.400045852053687,1.280584645395807,-4.357422740550131,-4.939045166353476,3.637098120335632,-2.4584685287873667,-0.1284504298658664,-5.932570255615883,-5.186030059277976
92454,,-3.4881837607510096,3.2278048152142818,-4.907763715054456,4.728993668890979,-2.3473623159265173,2.9495858309670324,0.1034013409029185,-5.400247498338109,-6.79244772668702,8.846479392229606,-4.650644485418844,-1.83027760360002,-3.801928381110359,-6.9002632963137245
92704,,-3.576210859141326,0.6483689320740604,-7.489194912307458,-1.247114484368836,-2.2163292035060884,-0.1370887860344714,1.292432205523168,-0.5001338080643195,-2.418541502944477,6.784360184650541,-1.683841523226835,-2.4852896921497565,-4.965575800038308,-7.472489734147444
92954,,-3.7168314449768913,1.477239323662075,-7.279122003757729,-5.388898197672897,-0.8279479453677446,1.8759955571073148,-0.436421237512409,-3.574384625334704,-3.4416297941628597,6.154705749633504,-0.830905195998375,-2.717674862296298,-4.933085939163175,-8.589086667072758
93204,,-4.817625961038456,0.2063432796367363,-7.852037924958659,-2.330646775787808,-2.1940573037557267,-0.4321101792469767,-2.1336971175857182,-3.5000449012182577,-2.1813395977860845,3.492227473646681,-5.245606405226223,-2.925993003681175,-5.114459841916967,-5.201111862959122
93454,,-4.2260328106005804,0.9217143198502152,-4.995769869309646,0.9679699918288044,-1.8564186821568225,-0.8570989114347048,-2.37070919622745,-1.7407608678220634,-1.1484413916769152,5.645848830056895,-3.25610672150503,-2.43942090412406,-4.75455885750378,-3.971795034039541
93703,,-1.6726503310788312,1.7999656690518406,-5.008930798883782,0.8714682624688406,-2.377787828815492,-3.819273212419039,-0.7528452768971845,-3.3017708634570893,-2.8988825026681804,2.8508569593919457,-1.5558163081793397,-5.91434478482649,-2.1598765693060185,-4.808830563455064
93953,,-1.5005507742014546,4.689875131712857,-5.271404194347374,-3.224873151199211,-2.177665562070904,-0.6597108673663353,-1.931044074726459,-7.551727477151435,-8.159871661376869,4.817444974138258,-0.3387787144804505,-3.6461252176468735,-0.7489614291342437,-5.907304072560501
94203,,-3.636581189002186,4.568991561940831,-4.008838761597316,-1.1999656517903132,-6.232726717940969,-0.0819450937882195,-4.843486239081112,-5.176837605054007,-5.463725443528944,6.163647853176107,9.539564626229971,-1.929502020237686,-4.013012095015561,-7.602599213514994
94453,,-3.5137228844222483,1.9090287757184776,-5.840591611754574,-0.8488574300969142,-8.769455797920285,-2.999344175396073,-3.0776976663132043,-3.5187277142631723,-3.188844832514826,7.817107419383525,9.927670340549875,-4.083359919100993,-4.177240907440055,-3.615955562064478
94703,,-2.888060956362158,2.206262663098756,-8.295481046250426,-2.3608571960270868,-5.574189576108555,-0.0696890269077718,-3.854515156149233,-4.583993281225756,-4.405775616204708,9.658408065548208,-0.7927649028074669,-7.418305545921102,-3.968291630654133,-6.842483458212949
94953,,-1.0285671550950382,2.078545195330248,-7.020887343160202,0.0187502251816004,-2.453169623822841,-1.2891723933568326,-6.216834767374992,-7.285205327093545,-6.943900861918038,6.915478054589704,-4.596746567170128,-6.746509745054664,-2.6136750696880053,-8.122889321369573
95203,,1.5821749188444258,2.81347010036476,-5.600999035099671,-3.2228070125191,2.486370257014009,1.5095517028768843,-5.598338817427319,-8.631070527138657,-3.479481468570561,5.618170696448239,-5.198246856178481,-1.776784528029132,-0.1848320055415353,-4.272918500728677
95453,,-2.1289844464618883,1.504442193324991,-5.8164934423605175,-7.262237228266922,1.6479697969744325,4.718308229058503,-6.002518948514277,-7.6709863032266306,-3.790690016765559,5.039312076199401,-1.323996440412025,-0.2126414466757538,0.8445418423873547,-7.081802613509956
95702,,-3.342805557994055,0.8838653384505426,-6.135422247398524,-3.753253460696741,0.4466199557528041,2.5310533112970592,-7.457467232154062,-8.723360996131147,-4.328616887191069,6.303513110385246,-2.945685995390349,-4.1876141695663724,-1.3341484355554811,-9.134043928173469
95952,,-5.396779251184709,-1.2817639830198393,-7.822374583495648,-1.3041228416491235,-4.274059474844312,-3.596647255331248,-4.042882015556369,-7.878826777089928,-4.083694946126074,7.279028124006279,-5.426990265108737,-5.831494500066371,-1.3126105925354876,-9.305733407992996
96202,,-2.0090529012943747,0.1384767840905994,-7.098770923397355,3.472502414358623,-1.839183864336272,-3.157460996869641,-4.640781106334559,-7.509062081542234,-8.20570618654251,8.736852761325784,-3.11176183885018,-1.2609512665172808,-1.6397607109429144,-8.285919593123564
96452,,0.4357585493278718,4.021558080856553,-3.841131514027942,1.0506083752098248,1.8357584945091765,2.41084673988582,-5.551786218967443,-5.158809566807299,-5.1198452227118905,9.310383851903168,3.369093504425322,-0.8798610147870671,-5.917373621835845,-5.929000825149274
96702,,-2.217312477175634,5.580377497076374,-5.159094072780553,0.4911684569826623,-2.430183188353072,3.0698404145275364,-1.6657029270658592,-4.315880888268518,-3.6520484666279,5.849742123537785,1.4777153362527318,-5.553657064626666,-5.051529266050845,-6.061086565612967
96952,,-3.473059727659005,4.725972121451808,-4.862542312202836,2.4745480685177403,0.0927362687024093,1.9293409079609456,-1.3294074211514673,-5.577907139620807,-6.173092486440391,5.754916255233376,-3.436489103101402,-5.47304435576134,-0.0413598520156127,-5.589841779669939
97202,,-2.4518303707576563,3.9209463967722167,-3.18948371765166,1.921327068071924,0.4739671190011356,1.7245813771104768,-4.224778872550646,-4.922614017627183,-4.9500959459355895,4.594188729926135,-3.921320284704693,-5.788799571788086,-3.1870353563774945,-2.992570545673166
97452,,-2.5441667169067865,3.497798081199223,-4.580133792897325,-2.8335383583649154,1.2244804688208335,-1.9604164276647655,-1.4648719435499378,-3.1757751543179227,-4.989945723338779,8.541807779946687,-3.3155952113379734,-2.9594017015878475,-7.211310826229431,-4.538438995245839
97701,,0.2195742851289273,4.341821349407006,-8.55456663319639,-3.053771587211203,2.010741670420095,0.1371355615982379,1.6066474563727482,-3.244004817558311,-5.069133987358442,9.367781299463706,-5.37950203819325,-2.966679083714283,-3.286902800933296,-8.23332559750107
97951,,1.6372514272185317,5.048668589636876,-6.669401592498881,0.3788492378110845,-2.176610630509817,-0.0049994595369806,-0.1006823697818418,1.3105324616769656,-0.5395314392182877,6.5643228284312745,-4.609399084236614,-3.2387983915279284,-2.939623414329724,-3.01211312721302
98201,,3.370117722358372,3.1181204537789804,-4.829156385700511,0.5155238104967403,-0.4759839150532553,-1.1377332453200908,-0.8191977121301476,-0.4233567391816784,-1.3974987483950816,9.625249968187742,-5.756600044112382,-1.9336981707395888,-2.2636621195134463,-1.5002589447498929
98451,,-1.401625277925786,0.7766790023559926,-8.140497673442106,-2.782428656233117,1.7391041749696905,-0.1629365137444846,0.3898131120892127,-6.047894553467323,-3.779041720685665,4.9600495598668335,-1.471268245966795,-4.556857204917414,-4.185694644811901,-9.866522887748904
98701,,-2.040719196382992,-0.8794967233929679,-3.5906209308068107,-1.2478771407275362,-0.7643174504858188,-0.6874740141340445,-4.751767412511166,-7.060885734899632,-5.1319500509881415,6.33310898463612,0.6777555959133376,-3.704219984051499,-6.20743927968972,-8.761419646817329
98951,,-1.7238159806002002,0.3315328090109978,-4.148682738295511,-1.894784670985228,-5.835567061178252,0.5636806243210989,-3.4130759708045715,-2.977862089993612,-3.181558305526032,4.895909393160944,-3.975527695132157,-2.633177799178134,-7.362786420827807,-5.801815472848224
99201,,-2.867385470399407,-1.5955452335032896,-9.741825469758137,-0.1143113814307977,-4.796982899381115,-1.566599280077199,-2.4122148020050544,-3.40436666703481,-3.438170955230768,2.344963464277525,-6.331179676403325,-4.731010928637572,-4.378089208843528,-3.873259694920054
99451,,-0.9995336353011032,-0.884920863721964,-7.671866284019524,2.363990399616261,-2.65309398786675,2.582729820524308,-5.543160122261433,-3.016611702188752,-1.741975363048801,1.3001736586258024,-4.816313608380037,-5.049326563541343,-4.28042784573851,-5.243221748347221
99700,,-3.243641878590289,1.568269475878171,-3.707261929227295,1.2209356479361153,-2.44064308877794,2.441581594589781,-2.569110176531143,-2.6540733977673843,-1.0054749058383117,3.4983603862456407,-4.799641448491913,-1.2510568493826364,-6.438193389967864,-4.933913262269395
99950,,-2.9273171827530287,4.323668311777899,-3.963054791036961,-3.0644396713323947,-0.6361192580275628,-0.9752941624614828,-1.4574046052406349,-0.734290538600715,-1.087921984711364,5.359830464268477,-8.417467928794371,0.76386885204703,-4.933746908195131,-4.36914795580423
100200,,-9.744089395012386,6.801864961648667,-6.786488377610603,-0.4376473616048473,-0.5281747959255388,-0.4033641309707773,-5.277623010887783,-2.9932306734631657,-3.3508471283728825,4.753444250382098,-7.848335249318773,0.4154076352528403,-4.149007033121937,-7.442985906620837
100450,,-6.7257931167430165,1.7659932814749968,-9.870977299202876,-0.7375917814735883,-1.7286979763722772,-1.378135358111924,-7.219671376268353,-6.141751355317057,-3.249782493352475,6.685259598528304,-8.038871699465977,-4.74685559326067,-3.1416641531758795,-10.726874010625489
100700,,-3.813891311606597,2.086110364415061,-7.711398204585132,-1.7187330960331395,-0.938724208079578,-0.4746010465895794,-6.300448014037977,-7.122009365430495,-1.745458949726688,8.66689431440278,-7.404525989228475,-6.822665815409246,-2.0680811407121054,-8.308037192712835
100950,,-2.3468460033684737,1.3591375029766386,-8.901003635750783,-2.222196005900937,-1.1087051827751062,0.1350295941935574,-4.668101008891945,-4.045135941523725,-0.6866683206360341,7.913440769780347,-5.402754450998373,-3.861345985996864,-2.1922561555850018,-7.283355900583088
101200,,-2.927259966220292,2.561330536509133,-3.364335661674296,-1.8231371238762173,-2.403200814299689,-1.0268183339298669,-0.8914125287498109,-4.148183899715896,-3.2524596740715466,8.109599162941608,-3.1330436232236645,-2.399133784177957,-7.094341320330528,-4.662366505265173
101450,,-4.593819680294723,2.5600602014392617,-1.3963509399185887,1.0655530768494934,0.4406897566291564,-0.443474980438486,-3.635389211186893,-7.172601566938187,-8.196140655537508,6.307239806655568,-2.4665801583957565,-2.163937440733822,-9.97671196044555,-4.805265908816053
101699,,-5.263804193971422,-0.7586449011694554,-5.06340645370501,1.42381281103653,0.8265053321842503,-0.5819712646619638,-1.7161952725342906,-3.903476057885277,-5.8506405677699895,8.297959637722853,-5.055789423167122,-4.277082338766044,-5.606014617254508,-6.4551037128474045
101949,,-1.176749717298763,-1.5297526693610637,-6.149903553362535,-1.3477796846253485,-1.6317715110430546,3.2845776663644584,1.93962454440483,-0.5314635102949803,-3.431335092762093,9.97636954833504,-4.263879933667514,-0.0395771077198455,-4.27110028763562,-2.2478880848025997
102199,,-2.584201049019116,-0.082952774846516,-4.928068986955266,-5.024861800926831,-4.942607908063864,4.437837893647496,0.2715998025390035,-0.6441173949467972,-1.965201729073046,9.634342871179506,-2.8158824446593336,2.194756823742253,-6.744156759624835,-2.674756106754856
102449,,-1.79720130996743,0.270516647073683,-5.893205097948933,-1.78424072117557,-5.079620662277335,2.1887378460004787,-3.441333868933903,-1.6098595826011035,-2.0860075453848426,10.03615599312134,-6.589780735051946,-0.8371987174222919,-3.4713116688482133,-6.201678865509343
102699,,-2.847403881608634,2.410660384082685,-8.19633912599066,-0.6491577521119127,-6.667282641750561,-1.3898982750554802,-4.271336036116308,-2.835323283805624,-1.1588942662026605,9.372348890896228,-7.545490441040342,-4.584571943148362,-2.5825601634068027,-6.2930539460321775
102949,,-3.086659380904841,4.885641763213712,-3.080666059302692,0.3249748940986887,-5.599224170746865,0.067013438825089,-1.195779032307838,-0.8144798665285823,-1.7605198166111728,5.476948195211846,-1.7223131154485396,-2.5213109228113586,-1.2116313169107542,-2.2646527828512477
103199,,1.1310454334338924,1.1453118439352004,-0.8996150034988876,-0.4524700947879718,-2.895987596124198,0.4113909087728836,-1.2373690795206551,-0.6699809142949924,-2.796516493386453,5.896103337625337,-2.55470409848227,-2.255322806026554,-3.0328107434653893,-1.0414366463218454
103449,,0.6427919701529315,-1.299629400169884,-3.5687464730985807,-0.4346856685843542,-5.049218040674177,1.1120538386431138,0.1138963414201741,-3.971209999727771,-3.3366937537952075,7.754009699730485,1.5589254126525125,-0.9319823325104082,-4.8363235369126665,-3.840920727162569
103698,,-2.966886741314733,2.8119285880639477,-6.666938487465352,-1.4659400423103552,-5.054165984650378,-0.1041506393401576,0.3394580371731965,-1.893525479812625,-2.8450385143298105,8.557057826109464,0.5418443459687963,-0.2121684634445585,-8.944219312730509,-5.802198692665687
103948,,-3.338762727741812,3.4037871496908503,-9.762916970125412,-2.070846456989478,-3.303444200753953,0.9096269102604488,-0.3395715595778798,-2.453294581296671,-2.9379164475557227,7.978531845264635,-4.907281041527529,-1.4910871187413963,-9.240050800534942,-4.384245222642877
104198,,-3.8278505300165513,0.9297260145268872,-6.188837351809431,-1.84044335904624,-3.128247762632687,-0.2708017382058866,-3.037200434291092,-3.080792624543184,-1.922226092140216,9.317698963529637,-3.6883981897152336,-1.301002591847472,-6.503113530151388,-6.363223393861644
104448,,-1.9808075249943915,-2.076836819258437,-5.616434292848524,-5.8417298983154256,-3.756475393720338,-1.1111562247526217,-2.933437280692341,-2.916022606699617,-0.5099245616653187,8.532341652809972,-6.52681941160804,-2.332527963209984,-4.019442216878276,-10.348088290842252
104698,,-2.209664017225621,2.798099540082393,-8.290323907255425,-1.2082553293255602,-5.092981195584371,2.6386331792012103,-2.6322148764640723,-3.380790284472911,-1.877955307962463,6.067788441449052,-3.0464463535748747,-1.1790036274554307,-0.6684722054769293,-14.590430904941254
104948,,-2.850976512282011,4.107774612257052,-7.267451733456726,-0.418544435137626,-2.676957998160321,4.064971639943159,-1.859926220281822,-5.6535285154932815,-3.209488083050478,6.185000711187831,-2.631375074163428,0.4726731037027081,-1.3620511895319567,-13.510642522925927
105198,,-2.494493932094758,0.1546297112273553,-4.492480246188907,0.5530773884291509,-1.920431653948056,4.445242419719122,-2.04155075605781,-2.0970735834705105,-3.791621680741843,2.257363343819203,-4.279792739075926,-1.6623905465799993,-2.199419917267088,-12.238643715935924
105448,,-1.5012886760768156,0.7101044821597337,-7.713387410320246,1.2924522873716788,-3.542424263634283,2.0537467265258376,-3.5523539071325483,-2.6455995709061875,-6.8039050220813655,3.3125904259613392,-3.62266144674334,-4.908996158504695,-6.664512294255243,-6.978428364200619
105697,,-4.544616907207941,3.950044273474557,-5.184547938064323,0.4472741334777071,-2.482925661348593,0.5589445920665869,-5.858617471660716,-1.9819979677183603,-3.323214807863828,8.359940179165378,-6.071714949995153,-4.1321264579073045,-5.424725928314103,-6.2429661328281725
105947,,-2.687082872808804,3.832640074496354,-7.427783087089386,-0.1518719749107568,-4.3413550571830815,-1.1092436923869529,-3.7633600519530335,-2.1916021731384943,-4.021039822894147,8.872461542682455,-6.187262364024951,-2.7924959723559266,-4.476930765376547,-6.190569165542326
106197,,-2.678367634882683,2.0000850800414485,-5.776663478406396,0.5777708868007131,-3.7492387183085087,-0.6631771267739213,-3.8856854285998192,-5.7843810682970895,-6.698803409791923,10.530523029680404,-2.6496050596127345,-2.3922571940467634,-5.31162554947594,-5.4514884855249335
106447,,-4.520883826357379,2.683374949631413,-5.726367989780159,-0.3797358093817333,-2.6538288068510845,-0.2854096204369025,-3.5639288416405024,-5.325600304702402,-5.39754891195676,10.73624995501146,-3.467969769211534,-6.388988064121099,-5.650525628116991,-5.663165667515298
106697,,-3.2201011448621024,4.899955511182405,-4.431765677406277,-3.4867446353125384,-1.5367632769582005,-2.9440002537319683,-3.865211718960084,-5.443431501799623,-3.41978175272339,9.037760984153236,-5.485225584955939,-3.7918704818789934,-1.2626526101859996,-3.2246803449225254
106947,,-1.0814606832988476,3.02780235874192,-4.136083947938677,-5.004975844230684,-5.97723874161712,-0.790098880772623,-2.7267702581735085,-3.2125385980027605,-4.367178498012255,6.244884373927863,-7.11146131563808,-5.574960576633982,-2.629934333866153,-4.3242780577479465
107197,,-3.266912153194168,3.785730122807636,-7.819313126847364,-4.318996480827532,-3.5042463164524618,0.2961586043458359,-3.733461515210974,-4.766158515474421,-7.134743072580384,7.765054190798924,-7.699807639430299,-7.251278815324391,-4.867674359244871,-10.218920127851296
107447,,-6.366023286882477,2.8647162057043145,-7.373851578445421,-2.1752959193212447,-2.2187218822241523,-1.1330384238704654,-4.107932330643504,-5.846101094145329,-3.8872524072703194,8.365317603950995,-4.464714495775487,-5.942615850795833,-4.056181560867057,-7.208818099788516
107696,,-6.735626236975523,3.157641726322012,-7.688433601797859,0.6119543924586234,-5.936656377409188,-3.3417820519257937,-5.746416750906351,-6.681513907158441,-5.24410006504765,7.270184212266717,-3.343414615172456,-4.841730961168823,-3.7586302101579294,-7.351926824628043
107946,,-4.248665233337955,3.5418924666664764,-9.344572254041344,-1.3480446765928358,-4.621681191262842,1.3011985421720529,-2.683530691754835,-10.04425018125322,-7.779580698914245,5.915169975595131,-6.367847207176942,-3.816071486463784,-5.542350620508949,-6.979075026683503
108196,,-5.282623796731555,1.811023516547683,-11.218241549398256,-5.350643740000215,-3.9613357010387,1.1416584022605762,-2.5591896025090355,-6.461048568847224,-6.324630732604287,5.782421285405219,-6.732031108229766,-2.69069153800607,-8.595314827553223,-7.374630884885985
108446,,-4.988545844887969,-4.710626289304441,-6.322886176026302,-5.587853702824677,-4.9683425829950165,0.5929665253013828,-2.937859955088106,-2.5143899715157425,-4.234560272467367,4.333614071005004,-5.671152719339915,-5.256015145749863,-4.475801824620444,-11.636100193145271
108696,X,1.821514729408094,-2.6866258204150792,-5.384473352566163,0.4859828841060264,-7.936900066941258,1.246606572424418,-1.5109127107731954,-1.9738749690702568,-2.451006667892483,3.387607161414401,-8.441342909875798,-3.3411397974951567,-0.6539414908596329,-6.017511080691289
108946,,3.0004735852306053,-0.5664648432671094,-2.723460571407888,0.392633848585587,-4.933109250779278,1.1799696839389646,-3.614573913322423,-0.8827600139397979,0.1077515838865882,4.8733505428434745,-8.239374348763683,-3.096850710244442,-3.203002488304551,-2.523265396848105
