timecode,event,eeg.af3,eeg.f7,eeg.f3,eeg.fc5,eeg.t7,eeg.p7,eeg.o1,eeg.o2,eeg.p8,eeg.t8,eeg.fc6,eeg.f4,eeg.f8,eeg.af4
0,,-14.629297377980146,-8.433529234182927,-16.671648201562263,-11.017374054306329,-12.586126925121205,-13.98393660808422,-14.652988457395525,-12.629416043077292,-11.82675944723862,-2.954491174753759,-11.651287187089686,-13.62941002593673,-11.596442527076864,-16.78271583035282
250,,-16.297395104612463,-10.44932274289095,-16.59727448641613,-12.22557958022473,-10.57727462225944,-8.341648487702676,-11.880728247131673,-14.25566955250288,-10.773937392718029,-2.4492471941626586,-13.573551038288084,-14.213370351083238,-10.925074554764828,-18.44439306587188
500,,-14.56896121990946,-10.07702955325346,-16.126733161656645,-12.723900084611223,-11.956410111348468,-7.735148787707544,-11.582818087130098,-16.176524120098737,-11.262305978810446,-2.4821349694764723,-15.21116400938549,-12.249608021053248,-10.857960469028225,-16.65710762429408
750,,-10.532021660102334,-10.028833281980011,-17.016057156126465,-14.55425099292475,-11.273154219250326,-9.311021208771203,-10.22583605752936,-15.591334053725967,-9.599382538381604,-3.5258894644864824,-14.173739258317802,-12.182934944100683,-14.642640922451251,-15.31725095252976
1000,,-13.080215111388627,-10.594041523600149,-17.131704325577225,-17.493080078522333,-13.093556246076965,-9.670482220678094,-10.177500779255972,-15.02464513641385,-10.168882266277596,-4.327597765248548,-12.110110509469582,-13.276779802872326,-15.219011067419023,-16.573714648362532
1249,,-14.873211432986402,-13.388492425990638,-17.361813187641474,-15.04138140917222,-15.444496594685017,-9.44622505283946,-13.518224972063862,-13.956665917778812,-12.036698073373373,-4.541845007134709,-14.421213622983313,-14.997781696622832,-13.496737071866916,-18.473371886398844
1499,,-15.792749491409246,-14.031825433841218,-19.21915021942873,-15.301337934623248,-10.542823972426469,-6.644444097073005,-14.527704573312436,-12.734579330683564,-10.497837366043468,-1.3556188761506132,-12.577812618506773,-14.341173811399733,-11.530770124084588,-17.528565392398768
1749,,-16.334204159019176,-10.47471169335832,-17.08757039826732,-14.966583693491302,-10.32590045078603,-8.811631490407516,-14.139829540530176,-14.580867286848337,-9.13071740700547,0.4977753236037899,-11.11669563814187,-13.449600383872935,-9.451132903505936,-18.13623115571967
1999,,-16.417998327652,-7.788319044415331,-15.832781934086482,-11.49483254290488,-10.913388630610164,-13.401447210432131,-9.65340370824572,-14.02374999753974,-10.18360318772277,-0.0584465605691389,-10.807024842250009,-11.706671276970358,-10.771487682519918,-15.758769365513736
2249,,-15.163791261715163,-10.008804322172022,-16.18174341056188,-13.564062940792793,-11.447806381474663,-14.947399398940895,-10.790928322788096,-13.167824482407378,-12.83885852093345,-3.2754816380135128,-11.361807321688085,-13.75874766254336,-11.45764915720485,-14.898742183332224
2499,,-16.200480632414106,-9.383615504183105,-19.538019503985645,-13.385990141613616,-11.015362991622524,-11.618952393589575,-12.66322633153836,-15.177471849207397,-16.469722635511886,-4.170673477529341,-13.402703528161208,-14.643266339210635,-10.4195903327794,-17.789853110697134
2749,,-15.56928823526408,-9.413557303757043,-19.79088957509028,-9.95590354620766,-12.996369634532494,-10.008003134603673,-13.729538546866936,-13.365763377503423,-15.966734773996867,-1.5659015697234455,-12.488130849363529,-14.196938855020772,-12.710373200133994,-17.52606801561903
2999,,-14.477233044806695,-9.693533276807496,-15.803757718934442,-11.505099528542605,-15.84771440774518,-9.13552732729227,-13.14838280077838,-12.63064239396092,-12.949016334249448,-3.36286515753912,-12.646611449974204,-13.436827452997573,-11.639552043431232,-15.36014868511649
3248,,-13.045688015468448,-9.564067484029392,-13.234310406568596,-14.227482000608342,-13.981016408900826,-9.426793308899526,-10.400742156871452,-12.85747690118028,-12.108284553222502,-2.7085675195972807,-14.600228092326171,-14.425594285739685,-12.12247394217868,-14.453766656105092
3498,,-13.673458554500266,-8.933589337551224,-13.63173650946772,-12.88609439414638,-13.555503055616018,-10.103594294868955,-10.279805709630953,-15.518287645607996,-12.56262356674382,-2.811498169090897,-14.849025702192543,-17.984574404512635,-10.665485794152934,-15.920473260885515
3748,,-13.75805713093561,-7.237390317490851,-14.738566856584752,-11.333616591124716,-13.30809700700539,-10.305005004248804,-10.285501751703848,-13.11825169701881,-11.473729080187162,-3.7024326906867735,-15.298399383287364,-13.606241458851486,-9.037995376868036,-13.586730454419545
3998,,-12.725991353937298,-9.296824539775638,-15.36279349931402,-9.929631623475869,-12.79050432797148,-9.691479115359874,-11.0283498802172,-10.21099923493091,-12.554635970169803,-2.259713169553884,-12.924129991102635,-13.74280570665066,-12.072455980452188,-12.276210967111144
4248,,-15.079289165940072,-11.244941533861592,-16.392356677897567,-9.784065228798555,-14.209435723857268,-11.316060290578134,-10.731992833560408,-10.037742612321082,-12.335065611759628,-3.510737820574138,-11.74451667416979,-17.065311550691163,-13.939275947121684,-14.535300358992895
4498,,-11.792943896891572,-9.161760291827315,-14.518576300395727,-11.047505006760108,-15.853366109239072,-8.815488975693897,-12.278537597192932,-13.692370274848765,-11.890314373822669,-4.520758988822002,-12.117471515261135,-18.66569600156,-9.598860683800275,-13.890941465848318
4748,,-11.025923127494766,-8.565420930667361,-11.529153694055324,-8.656605695992742,-13.20231679225438,-7.509879963393622,-11.375757951244148,-14.550119083452254,-10.711785075551427,-4.364194317324428,-16.484007758576162,-14.1560172583849,-11.699619380593308,-15.87478813683808
4998,,-12.2407673518063,-11.384647114372823,-13.766095754452214,-11.779504425432396,-11.46249806990374,-5.696986282875141,-12.905212706040832,-15.176589940590109,-13.996454213713278,-2.903027176752211,-16.654824920005296,-11.18176757140809,-14.638553737606475,-14.590873635600396
5247,,-14.135375030495004,-9.53046855701758,-14.392436356379765,-19.139120728611516,-11.35680695308215,-7.750587286641062,-12.632565170787435,-12.908772093330985,-13.430827324614638,-2.961257563756617,-14.04852345866587,-14.151298460532226,-11.334678347165983,-11.666666559351334
5497,,-11.72833659061986,-8.171993188168237,-14.88474116910574,-17.294351560204547,-12.34578313624768,-10.292818547359095,-10.636057075476646,-11.24328467857584,-13.67822307621906,-0.9401387840133316,-11.988787747315197,-14.110430426514286,-12.391533554048532,-9.583529034239614
5747,,-11.944984003843334,-7.926422638768587,-14.19669649196984,-16.013974894953783,-14.12773432060157,-10.34483482036818,-11.509019650993334,-11.322777457290664,-13.362888765704437,-1.7036444865456926,-11.881020021246997,-15.72769746630654,-14.089522180038008,-10.012194208733272
5997,,-15.90107011589012,-8.12250640511553,-14.335363860966856,-14.592323511065455,-14.410820503140071,-10.797202697441165,-9.957630487309489,-13.020136800803728,-14.861295294621646,-4.6634900426440575,-13.932113488836483,-14.11930457669966,-16.238215700274033,-10.99297023876802
6247,,-14.33728630333694,-9.322742073153504,-16.05940080268497,-13.78657343740668,-12.799389809553368,-9.338819761213356,-12.309629058254064,-18.466080970947424,-11.627766955908667,-5.824748171400521,-15.715436223095631,-15.484415423986391,-14.062451077035224,-16.668617515302774
6497,,-12.852278762527618,-8.809919816943367,-16.446352268160574,-10.762327273883844,-13.821639785038302,-11.775525615357946,-11.86897084569652,-17.27606494739166,-10.858225768708,-6.051873567242008,-16.976611273373045,-15.132434533206974,-14.967661498690452,-20.945916332896548
6747,,-13.969432455345864,-10.916038468108107,-15.94226406828859,-13.23509437113892,-14.700408383339193,-11.4600333556613,-13.371577356563051,-14.185353633513708,-13.00973205693644,-7.12442160279028,-15.738147393506493,-15.10321233305972,-13.984015234672588,-21.32034963405884
6997,,-14.840677547948726,-10.279978692001356,-14.687827342613051,-16.01665004002516,-13.1440913883541,-12.5697554832321,-11.19238105299174,-13.756236509619004,-15.745534183300467,-6.327410413590039,-13.865323812756117,-13.86766087583882,-12.36519641022902,-19.48799231481585
7246,,-12.650943033257144,-10.882537162679926,-16.459950811742406,-13.977855332139962,-13.066724236399846,-12.025735417385343,-12.958482722587526,-15.312763323483786,-14.75722711786768,-4.341319718353888,-12.893794166055276,-13.913854767725477,-11.701916109874595,-18.34009826975573
7496,,-12.821365746625414,-13.019888291274944,-18.57022457942489,-14.970324193458186,-11.753145003271252,-13.874148872456322,-12.023901239536135,-18.196002593401243,-15.01062246421011,-2.515399908862341,-15.796734971852285,-14.115515258985038,-16.274531659296237,-15.674702712643017
7746,,-14.149547301309545,-12.172576211768272,-19.395850864858872,-14.52883993904333,-10.501965735199304,-13.12725778536572,-8.719311636279022,-16.978234797840543,-11.4208025026817,-1.3814266924579668,-13.23554253309293,-11.679771076682815,-13.392194138766287,-16.231777323866304
7996,,-11.65065077717761,-9.58536531342598,-19.25413318897437,-12.041012681332766,-9.392206452552315,-10.208687282704323,-8.867374358429762,-15.09423741026147,-12.50385914728802,-2.1996089811586748,-11.933486638775474,-11.496540701290066,-11.547993634533452,-17.65462417995166
8246,,-11.91842728030897,-7.412439467498415,-17.250216205250496,-12.282245871465154,-9.2075338469738,-7.942349229747895,-10.360330929196584,-14.29760432433892,-11.603443257952524,-3.0004357565165067,-11.50961069068864,-14.72411588146182,-14.48898679199596,-16.586766523686954
8496,,-10.87970100440768,-9.927923458331568,-11.506143462008584,-8.522876975936573,-9.112798894317098,-8.214540064813363,-13.106177850830193,-16.450520562749865,-9.299659583337393,0.0988447677178217,-12.859177927071489,-12.700038183569962,-15.55150261473276,-11.880129716802852
8746,,-7.980273402877373,-8.595026605710272,-8.63083155469725,-8.994826903459884,-9.085138276035208,-8.887056306098403,-10.196901035174085,-15.109327379941217,-9.61980635119476,0.9506905338477328,-12.407370477213597,-12.187240287977165,-14.242258939834292,-8.398320481078049
8996,,-8.499302233630372,-9.1786823318337,-11.81304715810581,-9.922800606602031,-10.90418083380558,-6.867547847418216,-9.124014132385836,-13.501257867878058,-8.179164106636437,-0.0580350327090163,-13.69365974273608,-11.203039985115826,-17.25807070528061,-12.049244129171008
9245,,-11.34184878080512,-8.255682150401753,-15.24483211091658,-12.86041911338807,-11.363550139692071,-8.272811228118796,-13.01193132379934,-13.373127730499592,-8.704853891255786,0.0643932266708887,-14.632713398687468,-9.351991289181749,-13.05039335155888,-16.17899178690533
9495,,-11.145226931468562,-9.462392678540157,-17.10753390280077,-14.597676464697836,-11.527488741965795,-9.516100085096026,-14.734148472887664,-14.625583528048614,-10.0971854700202,-1.930584222577004,-14.139609736942983,-12.620923825475352,-13.51348367395838,-14.68812625127094
9745,,-9.985025127918831,-12.236756119931604,-17.553689349470027,-15.576096327848177,-14.002624351925547,-12.048016938074928,-13.63406414125167,-15.256770273387035,-8.117614216435955,-7.17937141438591,-15.096063491480985,-12.3683740852961,-16.918640710527555,-12.530061677042276
9995,,-11.392700059056642,-12.10341618232084,-17.003576150031428,-15.71355704334364,-13.784161107818942,-12.7300485861875,-13.106025791713192,-15.468021625226054,-9.697592147362077,-4.509260400241385,-12.109327960110614,-13.417581394905213,-16.168980028293703,-17.53081384908603
10245,,-12.64915956011867,-10.74593186320862,-16.420790811208413,-14.821483854219748,-16.42807763062335,-10.26786055691656,-13.44083460029334,-14.878015135383972,-10.720766432916896,-3.948463106442623,-12.002964053919989,-13.6593547994745,-14.7582032608699,-16.581946867659248
10495,,-12.01200399200587,-8.323308312777678,-16.307224219984068,-14.753400390961108,-9.95126090960246,-8.605081355964941,-13.862124204728772,-15.04649602994671,-10.504044504433985,-2.430065346343655,-13.146221111895208,-13.273209093494938,-15.654614669499464,-15.705920557185731
10745,,-8.574431677138023,-11.480263533430977,-16.144422788681336,-11.935904031052615,-6.850707211374721,-13.409580692504672,-12.298785275360926,-13.829039829457225,-11.155644365257924,1.7807269774132268,-10.849783161545952,-12.847821944482714,-17.13563995763774,-16.227403529916252
10995,,-9.946182695261433,-10.994781501174131,-15.04032476895109,-10.054639749461938,-10.121013555853452,-9.467714611178058,-12.780229269843112,-16.66933836530804,-12.817062678696065,-0.1558366071940276,-12.334652843736531,-14.624333362936484,-17.285385044914776,-14.467976159036702
11244,,-14.79235025724138,-10.4390266475113,-12.203524111232356,-10.715481438981715,-13.529166974611249,-7.819861041716029,-13.719835777202196,-14.36742184035106,-10.47788569856985,-3.876241890977955,-13.971583879831076,-15.18442373862294,-15.01827432305964,-14.300370909042345
11494,,-13.113907952254934,-8.22328553481759,-14.604333739773864,-9.374130618380956,-14.477364987412326,-7.469886801315906,-12.150451871045895,-11.62932793840404,-13.448235361217955,-4.321513289041269,-11.3673544100006,-13.154063626463854,-13.300978858049888,-14.520676994267918
11744,,-12.279956219883028,-8.118962535902629,-12.825586490806804,-8.782979692829807,-14.144070898403353,-5.73543734813657,-11.746013703140498,-11.028529722979869,-12.72022333422925,-4.0374604081740015,-8.74705655813068,-12.272292787982536,-10.791458321782518,-14.379725650966307
11994,,-13.731119337743792,-12.116957339031632,-12.25202312453082,-9.68883405338464,-12.136768153738284,-9.063226876961762,-13.489537762668489,-11.206592084915473,-13.807310735751308,-1.953516125182713,-9.440944077598862,-12.402034789085953,-13.39320205647043,-14.342466290203312
12244,,-15.081687355161003,-12.542879073510242,-13.64739817693544,-11.587765143697148,-10.92541997978123,-10.419862831367547,-13.708386298391588,-9.994528130648032,-11.012608313764876,-0.9564009743178044,-9.588575190550882,-12.714349451473346,-14.728877301118512,-14.826338565995796
12494,,-13.541321362167665,-6.012435463392975,-14.095350146267316,-16.162109075609102,-11.867589868734076,-8.390819155106852,-10.96428918273912,-11.132040887488923,-10.925935078590877,-1.7898603538377034,-10.63606041213718,-10.378357777761895,-11.125947113352783,-14.682591124834714
12744,,-10.67695367744175,-3.769764144547587,-15.727764901031492,-14.128399143977372,-10.414740757685951,-9.510817088140202,-10.847561289931,-12.147290383982805,-11.126846169876192,0.5390333380522353,-10.455246608287588,-10.904830580157242,-10.85878650927982,-16.870917342132145
12994,,-11.95938921164606,-7.450618277923069,-17.365064559911282,-11.570963298411945,-10.5532426868825,-9.04406460053374,-12.033271972578596,-12.723781192695174,-9.955644567926829,0.8805675567211939,-10.055284491754357,-13.97571058241141,-11.833790160622984,-16.880373089016828
13243,,-11.416083725654683,-7.172261421286828,-14.678384118974694,-11.312697590081516,-13.565046598963075,-6.158357654325456,-9.197945727649152,-12.67229172165033,-9.210277401142054,0.6038433778536462,-13.509491401362192,-15.602059971189568,-9.912093703776884,-15.128001170656484
13493,,-9.958780696282757,-8.77188092523545,-12.886840125508192,-11.649611550092589,-13.262641471891492,-6.688677219402607,-9.861262816625636,-11.627025413170596,-10.065986761690544,-1.6330527740352498,-13.198668777310791,-13.14309018542126,-12.48224330495047,-14.672721645387227
13743,,-14.438872580892385,-10.07852013193074,-13.66249363016284,-9.078212707328497,-13.775258234804886,-9.492088815972862,-12.57342837588703,-12.407688521885976,-8.699329341965647,-2.187504387895961,-13.409938069957656,-14.169881720511237,-13.425891637382472,-14.910373717998189
13993,,-16.898786223723647,-7.176878132604278,-14.829930025458644,-9.29837958499876,-11.46801081042806,-9.193644660307832,-10.457212792803968,-11.323251318688758,-7.324006258097859,-0.5316672029023026,-11.800499087569936,-15.226920838517255,-12.54056146137696,-14.395143623985737
14243,,-11.990008277871048,-8.228878348421427,-17.594714333158947,-12.330116361409043,-8.577380565157544,-8.64375116127722,-10.841917772819698,-9.752521319736456,-7.665963135577217,-0.6106838540061976,-12.709730383793374,-13.835334671068615,-10.351665559030376,-13.552371542207316
14493,,-10.944269223392103,-8.380497114854244,-16.80047977413208,-10.923436202284298,-8.527638166801214,-7.1657467868199,-11.51792358572293,-9.165981166204691,-9.283547831868846,-1.866867101822464,-15.950817210942228,-16.17965499873234,-11.453136516151565,-14.231021803770274
14743,,-13.676631864908249,-9.311833364989434,-16.950786615403157,-11.242019026577385,-12.353636720806085,-9.158690003842787,-10.30010608739034,-10.048513381357065,-11.068254439026342,-0.4642954796042988,-17.89028965138424,-20.537898135066047,-13.377692609186171,-13.550091013046549
14993,,-14.43398212904265,-11.737054798474787,-18.32773961196573,-12.806944551692554,-15.432865235303847,-9.480421650037638,-10.602773403734718,-13.345574662731224,-14.499080835571355,0.4015229014801363,-17.4241530213343,-17.277797083864957,-12.324415186944393,-15.551262168256253
15242,,-14.49392337111547,-12.471890206108156,-15.053562547511596,-14.90324097651584,-15.224016316645246,-10.58006784875503,-12.760155987694702,-11.811261123679344,-14.473288340998064,0.7201395918320165,-17.57394047314804,-16.116996532637483,-13.163569503010958,-15.417643076875711
15492,,-14.904247657106842,-14.593547531298878,-13.710254825472578,-13.892095334007008,-13.822212718348494,-11.132022622644032,-11.784426531767656,-13.308359326031702,-10.85949484723584,-3.058667362854029,-11.01995473443245,-16.801252312994592,-14.932217596674857,-15.223931074113908
15742,,-15.624526884547816,-12.141272514764484,-15.687976299126769,-14.107228744068747,-13.273454801044256,-7.4080515560576785,-10.662243335256385,-16.497654965286767,-8.618429880539658,-2.470995252844601,-10.965079725852943,-16.811754058817083,-13.453861018698367,-14.746883554369075
15992,,-17.617355176173426,-13.436292374118665,-14.063885156962282,-14.144110516909256,-13.139416434414482,-7.493747827928071,-7.898332786784625,-12.00774918064904,-6.679296727989248,-2.6860203001382734,-11.855230089144635,-14.995271067647408,-16.775535450229306,-11.01291336452018
16242,,-15.973759349832202,-11.031551551171134,-13.062109485020336,-13.088963803209053,-10.12704892703843,-7.1452569003034885,-7.718559280024959,-7.930244369711322,-8.715822078729683,-0.7284563548254962,-12.627631681329785,-11.826423923454412,-17.92912741559075,-13.91816411242002
16492,,-13.574562757714022,-12.023526547657388,-15.955448467864263,-14.031578246887292,-10.848439180931427,-9.577079974731488,-8.213074142476692,-10.865839672831692,-12.548990133935746,-1.3637583976235503,-12.610111678375624,-11.415905500110895,-20.94253981179639,-17.589062279745384
16742,,-14.21341773864552,-11.842336284501553,-17.904420021261046,-17.213301262807832,-12.470815753453078,-9.351636400871572,-13.9533084400796,-14.53232515223393,-13.610924991100934,-0.4506839810278317,-14.25550276743,-13.953259191078008,-20.15373788487002,-13.675673403197768
16992,,-13.896939016010778,-11.268331489262772,-14.293366021372648,-11.392124527247525,-14.00463107484233,-9.767314940887182,-11.281102005583636,-12.463015441817143,-13.6536514939232,1.6031255863048457,-10.887273324596904,-12.451624891266263,-14.822074893804707,-12.211212281905809
17241,,-10.616434747612352,-4.668010536638806,-15.127584526203792,-10.538749911733474,-12.215205962026998,-10.594418075648631,-11.4182258530244,-14.083395060342722,-12.917464217158669,-0.185629974031297,-10.171665559746552,-9.720314240141022,-13.08849156945751,-13.716350849454376
17491,,-9.759890411509303,-5.05974508077859,-16.392202484394108,-11.495616062933768,-12.679922014657931,-8.935618801363796,-11.809299180802135,-16.145754123676927,-11.936368511798186,-0.7544053993118618,-10.718327471955693,-9.944416042246218,-13.622796419633865,-17.01549737707763
17741,,-14.701439200489752,-9.697125384853718,-13.190974059506535,-13.76707115220726,-13.03741243928167,-10.314439555559716,-11.766825338657032,-13.067839883112178,-9.831346072921276,0.0397149041903385,-11.000658069203508,-13.284009794104394,-14.126487162538249,-16.383202752981767
17991,,-16.150520137177207,-8.543146643101666,-12.876933542931322,-15.13442854555712,-12.577426906350569,-12.232056759317215,-13.128720564426784,-12.200166612725427,-9.99969057625232,0.2605704441714955,-12.250655058200376,-13.285915654932392,-15.159115710803466,-17.21403996266278
18241,,-16.16718731850072,-7.298166661214883,-14.110039081008026,-9.885496206605396,-12.723250268125138,-9.937232612625714,-11.07632801355135,-12.461014840581692,-11.31593184036796,-2.816697010796835,-13.272848288398706,-14.31941611325026,-15.329072132634884,-17.93120545648834
18491,,-12.0271309300196,-12.79216974593863,-14.98042544007684,-9.708736850299346,-8.681419333017566,-5.674961316503376,-10.074924533698676,-9.10158495852919,-10.89299444447018,-5.666870448618675,-12.40491645846082,-11.20030723968542,-15.678303936371467,-16.49515770022369
18741,,-11.58149498364885,-13.14452597984232,-14.441652319201982,-10.305084770718215,-8.81267340960824,-6.925425133039709,-10.050101581604544,-12.89218907783366,-11.669345931718258,0.1435102449756351,-12.319327293750357,-12.305859637203987,-17.542114633040953,-15.12215724324872
18991,,-17.42964201979004,-11.070800032460005,-13.89625694556292,-4.544337252118528,-10.390172921000143,-8.140186762058221,-10.608790579392569,-15.925036135878312,-10.715484980620973,2.8259818665021568,-13.453916013913467,-15.882638066909632,-14.29533439110628,-18.612529459377093
19240,,-16.02230522581752,-8.962814355920914,-14.105248596510531,-3.9053133286793855,-13.10372070821714,-12.750801349323822,-12.491548474113523,-11.630760144455952,-9.951399930136764,1.3687161776886692,-13.873826867941633,-15.921874013370612,-15.664431314124172,-17.48112657665034
19490,,-14.976015535438323,-7.907893482134448,-15.900345748962572,-9.000407301144499,-10.31135104402129,-12.655693796516248,-11.623153005180557,-9.527357051722856,-8.615702861378336,0.9054008315709794,-13.421843361929122,-15.089137175692308,-15.380082220363434,-14.811454327192264
19740,,-12.606587798573816,-10.384783403119451,-13.349020413695529,-12.010501212408226,-7.028536284015408,-6.544858305680603,-14.720549227606243,-15.121299592696442,-9.868969645486793,4.049384697469892,-15.979222603969736,-11.790314763402282,-15.766592055755469,-14.253809232179606
19990,,-12.036561403131174,-10.562554566720596,-12.994227720421854,-11.574733455580212,-10.065365218380718,-7.93513519626276,-13.221238312565337,-16.261955817094922,-8.455074136072575,1.857573669669536,-19.321007643358435,-11.538416537428738,-15.92666844973115,-14.573068781645617
20240,,-10.77767937303772,-10.384570506414024,-13.942677862641425,-10.949256205257218,-10.6638912041572,-10.12609121782015,-9.815763246448997,-14.351259795882353,-11.51631588018528,-2.536283736375144,-12.43941235162305,-12.902747517574046,-12.974796436350797,-15.473801889691057
20490,,-10.80467951727836,-10.074478462893197,-16.09384255323947,-12.849521540833369,-10.868767590721824,-12.032665332182964,-10.13467859847716,-11.803898429118169,-13.086238548084944,-4.899637027624836,-14.005530767906931,-14.777194737290417,-15.453678215830903,-16.109119520796117
20740,,-11.759368867356685,-10.413764167849337,-16.391908098613857,-8.33701269057954,-9.066058709585596,-10.901643299858518,-11.118856036131426,-11.580459811078825,-10.3177222577939,0.0612604455465344,-15.307049419637073,-13.655006574297373,-16.522807382584094,-14.713952713368014
20990,,-12.273975949297087,-6.127227600458242,-16.915252090754336,-7.117696800469979,-9.349993373094154,-6.567109600957561,-9.723333598978709,-9.504297235994557,-6.218560856959221,-2.3235368333516613,-13.254263599903696,-12.87120668679795,-10.61484811021139,-13.729352509441702
21239,,-13.547453350478031,-6.7013973696733045,-18.016252668278543,-9.413403150703058,-12.800438148363352,-9.297767892023767,-9.311405767305873,-8.031588117781165,-6.777391656192768,-4.953465835334494,-11.8871812106602,-11.8216395250984,-10.53032218733732,-11.84408894419824
21489,,-12.755156297783758,-7.700718475090631,-14.969758760433034,-9.01480044916956,-13.574393812165106,-10.37041934112423,-10.66791047241719,-9.101629105986197,-7.461887338646282,-2.200849474643069,-11.478232817041906,-14.46182092972098,-13.843536598315575,-10.4163873844593
21739,,-10.160266204294576,-11.410843694873126,-11.69435955038005,-11.417348965769325,-14.266300261485252,-11.646483190016486,-12.263941713325975,-11.577585385783475,-10.366515255750777,-2.087046941211693,-11.511350715947408,-14.197333475828138,-12.94762928646527,-13.0795597588963
21989,,-9.724530503711016,-9.67974293526608,-13.359546210336577,-12.238384466597918,-8.759244012802379,-11.110650903352006,-12.77923186681119,-11.890794694434971,-14.239986481252316,0.937169445421974,-12.73093122436827,-12.33540138118168,-13.487873864169025,-12.700564097364593
22239,,-9.46526411488384,-4.224303397349491,-13.70616967345047,-11.33862169001148,-6.860734480609319,-12.195613383615076,-11.284986479947465,-12.913959557033197,-12.401365297197382,-0.7611208725066887,-9.62468775081776,-11.68785984563814,-13.489421040814712,-13.059128773488023
22489,,-10.756656238380168,-7.478327282031044,-16.808995229828646,-11.425972070462752,-9.416693456356606,-8.799956636958077,-11.458458762757823,-14.21181293190926,-10.376416856181065,-5.577229081137844,-11.856017788575569,-12.21958880703794,-11.226656016147436,-13.36318440368292
22739,,-13.14858895965754,-9.589080166787005,-17.969472437237172,-11.122838337553382,-11.433464524196486,-9.752672883862775,-12.311525589785983,-12.534548818773892,-8.904593926478485,-7.5760204173672765,-11.116272041266129,-13.645099485381513,-13.382540005807666,-13.839373653487597
22989,,-11.312281099123773,-10.508540723052544,-15.68650878477624,-9.48827047127448,-9.609705021307434,-9.815891963287836,-11.649494350322268,-13.193095739478045,-10.440296185427409,-3.052949313611366,-11.394195043699671,-13.939065021178967,-16.577438609677902,-14.106436826064638
23238,,-13.305488714900749,-11.569127156316002,-12.465754686114591,-9.274065728525436,-8.18227604078122,-10.62234839612243,-11.976255234038415,-15.75863913988773,-14.919348182348337,-2.0951714906555527,-13.979884896984258,-16.888108856324973,-16.225607155193828,-16.83358569595997
23488,,-15.174962858689913,-13.113580785372928,-11.057774534414008,-9.917049657674582,-10.433722285214085,-12.851026016534435,-11.955269764901386,-14.82039914989038,-13.71762225542634,-3.413491330563427,-12.708418385281847,-14.020599331960092,-13.810866411042744,-18.06345805273296
23738,,-13.825192838937353,-12.19197852041596,-13.310014733794432,-11.79202707523258,-12.552117678512523,-11.238006005944294,-13.938049571421889,-16.145034533546866,-13.27245345080524,-2.6553544675322884,-11.5712128971403,-13.067753974573847,-12.366365158749916,-20.245339170536635
23988,,-15.097734013040093,-7.101514736290692,-12.249742780641872,-15.177436110945798,-13.313853919695989,-11.087909015333985,-12.63109265300804,-13.470977988000447,-11.656855853664602,-2.582529774492817,-11.417636125034152,-14.749965690377037,-13.534489496196793,-18.267074484234417
24238,,-14.516554616041995,-10.36423196451952,-15.196674179962177,-15.763831366378838,-11.63307047932726,-12.211170088891397,-12.285924943475235,-13.639483945552158,-12.377298258085778,-0.8535987716311666,-13.97462149912891,-13.975855737412653,-13.290676775724112,-16.864386655029126
24488,,-16.254349094263937,-14.222457554420078,-17.108959113309606,-13.215768789800626,-12.148826991601585,-11.166564381730904,-12.35348145620926,-17.731518148181948,-13.588231802938113,-2.3434286374738327,-15.424033213034836,-14.732295084205855,-14.487384303481656,-16.80690185221987
24738,,-16.13019061485996,-10.443928626385627,-16.008321844793226,-12.577467185814804,-12.450111309785648,-8.49639142818212,-13.664346079516635,-12.184099428965135,-14.198312619535606,-4.409343647514822,-13.677732561347412,-14.487474224607611,-19.716742627494572,-15.575068330842893
24988,,-13.476686016282011,-8.10285809192831,-12.576532851763355,-12.889890401588254,-11.459801957287732,-6.910944458017019,-11.226709755109676,-9.3192069574382,-13.352197779150146,-4.252256488769639,-9.159580263234664,-8.57157772408685,-18.090726047941786,-12.82242942095019
25237,,-13.333845352300354,-6.378204898040951,-9.214810249551771,-9.9834272998371,-12.570562719479405,-9.2247711493518,-10.916013969891594,-13.009613740348591,-11.8711278491722,-2.1244217374743184,-11.923919114281642,-7.3397652747642415,-14.49874049436946,-13.230053632137276
25487,,-12.425985221589505,-9.153392007244769,-12.68367666400892,-9.94051892696618,-12.22140708176135,-11.221655539784868,-11.191518164203147,-12.964226107973555,-11.361771383408172,-1.7030899074229098,-12.749908735241126,-13.481072546721736,-12.785587211931524,-14.073304506602147
25737,,-11.36515226443252,-9.906103361481568,-15.70169380768724,-8.127553368435663,-12.01507044804315,-11.536364215865634,-9.001061534502238,-15.002541095680876,-8.50106576532277,-5.053641300937446,-11.807420854403537,-12.621184319987952,-13.953791107467756,-13.369848391640268
25987,,-10.28964258949831,-10.315826485931144,-14.500558251634292,-12.161897181334268,-11.34646966619586,-13.20365994459593,-11.165558947836876,-13.841838900610057,-7.935869780428415,-7.77905495097391,-12.582441307815165,-15.34873270832707,-15.751899590817413,-13.985196115359855
26237,,-11.55661288453144,-10.632208648248543,-14.370292293101413,-15.05822581625681,-10.368001533180946,-9.827081068268711,-11.5153927327627,-13.723672114772308,-10.62907091623947,-6.417724505742882,-12.616370286481642,-14.366563591488273,-13.789650243288843,-15.514670549057495
26487,,-14.20398864262772,-10.709170064984704,-15.180535838714304,-14.961550581365657,-7.082526707958073,-7.70621278573646,-12.909874839618512,-11.018250975858988,-8.793689533224422,-4.402968065281278,-14.161760314511543,-12.80576130834347,-13.717074469436888,-15.520390301968586
26737,,-13.412882250588812,-11.616733350897306,-14.718152135967909,-14.12230946630704,-7.749921774213542,-9.120763521335151,-11.877781574625486,-9.936079497924698,-8.61741126637625,-1.0694630584341285,-11.667332118525582,-12.591958071321455,-13.044690312204027,-15.231338360308328
26987,,-14.018982669068588,-10.375472355564334,-13.998361154080117,-12.883609602312283,-10.011860891130514,-8.474571810954714,-9.808051143369344,-11.91209194479728,-10.25743725346224,-3.567671156351966,-8.795514546623961,-12.226199061692755,-12.270217568245744,-14.17619593476294
27236,,-15.63058476798357,-8.14100678164376,-15.233500033149154,-15.659955153729452,-9.083152631616915,-6.953521259085679,-14.969205358003077,-14.603927094310665,-11.042291607166293,-6.085017250114358,-8.996394070666925,-11.765317559908516,-14.246718542073776,-14.974446099979149
27486,,-13.1604289134189,-7.894584488334111,-18.077040193513337,-13.716990010250225,-10.234607866638274,-9.43133469025522,-12.516759913437143,-16.129396464795146,-14.962794417039657,-4.915214560737386,-10.682972054793517,-11.798236728005358,-16.982565995172877,-17.240350965606595
27736,,-13.929052627446367,-10.06430969690523,-15.370634419833618,-11.536192112308314,-12.172204234056256,-10.164763101493396,-8.566182609555685,-11.85898803462795,-12.65430834157958,-2.975531513523201,-11.377869745472983,-10.14863537200557,-16.029543153506374,-16.172025210865666
27986,,-15.61284025543496,-8.998854832493304,-13.978865366323465,-12.765420564753857,-12.309507260326464,-10.121633813840054,-10.034033450317812,-12.666379517474589,-11.131123133998932,-2.244950004092985,-9.160256544956887,-12.93432529266756,-14.67511605453689,-19.595017363241887
28236,,-17.755379379577377,-9.214067937404243,-17.7727073873747,-10.737337137785374,-10.412153179613142,-9.273337916207312,-10.370701999226275,-15.588320520419254,-10.982523510119274,-3.648841200541903,-11.438162994191137,-15.48448215808474,-13.906096001284832,-17.013993473974644
28486,,-15.009992480251649,-11.166323363280226,-17.19917006063599,-10.240342108374582,-11.449701950440524,-9.458602356966672,-13.52628655843128,-14.597260202926211,-11.5192979715291,-2.75016082708965,-11.840520742289277,-16.635110663721967,-16.22687335287226,-15.1490032131562
28736,,-12.897528087997408,-11.696449576245747,-15.20858988236524,-11.38496373870495,-14.51208606379263,-11.114358951860376,-11.306239846637316,-14.59392759698996,-15.178006654764504,-3.5548673690352754,-13.026392361639626,-16.982873079985687,-13.203235298966543,-15.97499482339636
28986,,-15.867653748082889,-12.874221427736252,-15.048893838905547,-14.142396298901636,-13.7337047675082,-12.813382488544416,-10.990556922699998,-15.43400877467488,-15.424321403866568,-2.864129926505404,-11.278568266190437,-14.559386368401851,-13.152934958492562,-14.585141440705993
29235,,-14.656762273768376,-11.379727752181244,-15.4700273875597,-13.95561666558596,-13.009484799885104,-11.624351167080412,-9.454570146652635,-14.665113288793377,-12.47270561580326,-3.4991059852364503,-10.062169923370924,-12.425133638036067,-13.41528417107306,-13.453449096927653
29485,,-9.332060789955962,-9.786866610964983,-13.054611460418991,-15.056359286545732,-10.743727214105336,-12.23747430375874,-11.161310177711076,-12.887849059754,-11.658481069431945,-3.629274962832377,-14.657515146018891,-10.763222989994969,-15.691119643900285,-12.210919122384611
29735,,-11.087169666913132,-8.65464946547037,-15.917730840187003,-14.458524235787404,-12.916637947045068,-10.961358592936364,-13.526785466773994,-11.797848646228852,-12.031067229515228,-4.763363902900607,-16.857543447456223,-13.010252435429956,-14.047415735596644,-14.49301922633129
29985,,-13.589951292570747,-10.38173508761522,-18.805763586764705,-14.03597729393243,-13.78446224865202,-9.731259950564294,-14.418139641601677,-12.260255566487816,-13.68256370789548,-6.315523754634089,-14.345643308012775,-17.249760138859433,-14.594936224608478,-17.042446770404414
30235,,-13.972229396183272,-7.982894707229207,-15.532244204479548,-13.889424945438977,-14.943274982081611,-7.548404856739861,-13.021404120550804,-10.805340160583595,-13.972829860965025,-3.3376184228179016,-15.664706863717178,-16.48801785603044,-17.535646228793293,-19.53688760975146
30485,,-14.498912616481118,-7.424180771430745,-16.4798118188654,-12.499050700090804,-12.64247984705477,-9.326144866663284,-15.072293348454409,-12.917084797829672,-13.973355651836542,-1.603883340435976,-16.065461082958574,-11.88949226019379,-14.373033725917445,-17.979621854811594
30735,,-14.37769885623316,-6.365155197853847,-17.55113397898153,-9.065703667444016,-11.034629485415737,-9.936315516498896,-12.06860034858439,-14.264936455756205,-12.237098418623845,-0.7017854556770459,-15.364664793163762,-11.233569937434972,-12.579549670771152,-18.33778173865896
30985,,-12.752753292636571,-7.67214096279531,-14.9568041513194,-10.917348280409682,-9.585577649385325,-10.310466260290063,-9.819544256068282,-14.351172053276692,-10.918711307618846,-4.290054748489806,-13.346280325315188,-12.786813309121538,-13.246618187442538,-17.38128066223843
31234,,-10.760632953595728,-7.364930278398375,-16.868595624621786,-13.5773692710192,-7.296295704845214,-12.298606624037866,-9.090899082539934,-16.29897885874464,-13.239695800382094,-5.516914576418524,-12.069569588530316,-14.62229996761786,-13.66215819258545,-17.56547018709139
31484,,-11.547890301654826,-8.192095090844578,-16.39480828181523,-11.872781819937387,-7.816162196643273,-11.998082242011508,-10.182171176444212,-15.645567641182536,-13.771388944876843,-3.825818616050197,-13.166745417781712,-13.757135374450511,-15.880986679942415,-15.844019468444632
31734,,-15.161388399289478,-8.64797063912389,-16.7687143758681,-11.968155087337792,-13.60964962734658,-12.776942545471089,-11.32152696574481,-14.060167099592825,-14.08761730286994,-2.3443969503325905,-13.659183282921616,-13.853674370292072,-17.287689734852083,-17.17014457072137
31984,,-12.362711282168192,-8.683038083162161,-18.13611946915934,-9.923957368378888,-12.55019227432527,-11.060925118344375,-12.007704884055538,-12.763518720803006,-13.970261772976684,0.4796172442898453,-13.170257233532816,-13.818535421756408,-15.820006866889624,-16.605033030877497
32234,,-11.897417283487751,-9.281917868090158,-16.246134092091708,-9.320870116598948,-9.378377893368503,-9.078237158098336,-11.775345165331297,-13.52941820977871,-14.078270313769949,-1.7099539537799615,-13.524820744940042,-11.73996796239816,-13.048317754027646,-14.784829405844455
32484,,-12.51367422014656,-11.29510716885482,-15.406679949488977,-12.771819477424192,-12.842976063653715,-11.638850463056087,-11.812172030381053,-12.425750919405926,-16.952016222788522,-2.9535631304186034,-14.940506673413427,-15.054426683544268,-15.170263499086868,-14.232398797070353
32734,,-14.295186947796852,-15.626019016655054,-14.622682458631257,-17.084801311000067,-18.05105184796982,-10.814844318349303,-10.9495797345676,-11.835292388667895,-18.65307073244976,-2.4343954081692,-13.58084841418874,-11.401681017888787,-14.635368684336967,-15.291467456586226
32984,,-14.664429120969356,-11.129582177928324,-16.562158195831845,-11.980979508681022,-13.871375054213292,-10.740204411799224,-11.20606982015023,-11.1949556946733,-15.744104933088042,-2.67236704053809,-14.626690475306184,-13.752013436827204,-13.199235030660123,-16.82639625267821
33233,,-11.563398423797706,-8.917353934637005,-16.74011512951012,-10.493589293558763,-13.606521150088358,-12.471693265188586,-9.652778724617168,-15.675018880814724,-16.66170417922094,-4.360969712817547,-14.683499249301482,-11.664780443255008,-12.577941163591746,-16.214651879422945
33483,,-10.872207899861282,-3.589765610763095,-14.901812402177416,-13.669960377258956,-14.896607601789356,-9.335684442876428,-9.553162201945517,-15.871789090443452,-16.522382314850233,-2.4531292252475305,-12.516083003572662,-9.283519831163934,-16.211086889242484,-18.282770127012743
33733,,-12.023709257886908,-5.565829594601272,-15.820056968993736,-12.204270422185637,-18.07411791121212,-10.796991270180731,-11.897231470087872,-15.468497428435375,-17.752337009757046,-4.173093468433185,-13.900492540648182,-12.815362812543592,-14.922927901186526,-19.34725515396326
33983,,-13.887011423318691,-11.075296082693548,-15.856452247048145,-13.125821609798688,-18.514736678314613,-14.238888992242686,-12.592547903716786,-14.985186889206007,-16.438101809230965,-6.937151891644473,-13.844926135594184,-15.07284373334869,-12.476593219608503,-15.991139869438287
34233,,-15.194884287096023,-11.294111397516922,-18.58975521305108,-10.21139331581402,-14.824233613209756,-14.68836902439516,-9.04054977207112,-15.864341223327164,-13.948577450792106,-4.328997115161637,-12.272151079535831,-12.697856159481592,-14.800367406774797,-16.556938148413206
34483,,-14.04046615680523,-12.146433200917182,-18.12484777850165,-10.933775358756714,-11.849507899187795,-13.098505184689817,-11.52365597090754,-16.639917290562288,-14.673049573554916,-4.033178808748335,-15.976860326249469,-13.798952471584666,-18.74584986783368,-18.884708753109507
34733,,-12.57121944994528,-10.669498753955484,-16.273560458960745,-8.916262238894058,-12.343546253284412,-13.080973005068424,-15.252019688124216,-12.54869699560834,-11.796268305673692,-3.772857205306198,-16.218798338168888,-13.728234238056707,-16.867243626584983,-18.05154080622063
34983,,-11.5361620488938,-10.336570860654158,-16.221856163524222,-5.24075552690554,-10.397011021106504,-12.03522633602872,-15.305812504834911,-11.956928056106047,-12.278593759129464,-3.761759997513977,-13.967644839598757,-13.27161031627545,-15.582477104894137,-14.856447576081422
35232,,-14.940212308735656,-10.05630244922532,-16.137091603629887,-9.548453912621357,-8.39090486533276,-10.353817424737072,-13.481033532107489,-16.75483533667562,-15.769781575431882,-0.6156271510377168,-12.93243444487478,-15.126334140292336,-15.326820937606358,-16.221474088284587
35482,,-12.50075919421218,-4.818004897941382,-14.138472687943462,-14.07372797103556,-12.71332191331896,-9.900947915861709,-11.666077224935838,-18.03788894691571,-14.992174003473083,-0.5559562932251995,-12.720520658448391,-11.037176878989934,-15.123811396112972,-15.426751725877686
35732,,-14.211661951744656,-6.858001394311341,-16.87854778427362,-12.535678090960024,-15.850467619392738,-11.188891360539625,-10.867469955431218,-12.526702775247758,-13.50159712045787,-3.8248075531118446,-10.438348376618976,-8.400651997588986,-13.99111529150241,-15.26544613436828
35982,,-14.5664891476176,-12.371536364964005,-17.888969577585204,-9.298535894989731,-16.291018620572054,-13.120872608380758,-14.318659441863575,-11.353513194618415,-13.400619988339349,-4.02222899125113,-11.686332836327813,-12.51010172355322,-13.063500301106888,-15.084159111696977
36232,,-13.008821698991795,-10.546704052426804,-18.02189272216208,-8.976154976842995,-14.767993343284564,-11.078527964036782,-13.344867282119676,-13.938364870024673,-15.050239254247444,-7.261732745430864,-13.905173826022288,-16.609141334114376,-15.01389309863171,-17.101525768289573
36482,,-14.808661690967382,-9.708558009799791,-18.38027792426092,-12.016033150171085,-15.222907418161762,-12.11675325199433,-11.32017943040309,-16.04125558822335,-14.176081987563014,-7.7071418528978,-13.1384713872413,-16.567901589935346,-17.28540417751257,-16.37685096294967
36732,,-16.52005544265277,-11.289284254158572,-15.274049188430231,-14.548123552464212,-13.015016647974392,-13.02223396834412,-11.762271199997528,-14.094457991207396,-14.659092603773448,-4.626417816707774,-13.566754683744124,-16.451530801123397,-14.773914994915849,-14.793031035417805
36982,,-13.566113437331602,-8.95576072273292,-14.471333999095933,-13.177279926152654,-11.167589605394454,-12.959186450531403,-11.21270209098735,-14.988650627813588,-14.904805820706375,-3.27915375549173,-13.740198531870004,-16.594542783070157,-11.120232784836952,-13.80100205345965
37231,,-9.73785925620624,-7.191250432793548,-15.74193820160998,-11.440092617876726,-9.193626588399043,-11.881979663424572,-11.376090802363237,-16.555690166840733,-14.873808507456111,-2.5952602454317697,-13.650735023548892,-16.7942318449437,-10.766228094176924,-14.487424698108024
37481,,-9.72225650150074,-9.046504656881986,-16.77522505131944,-14.406780848980985,-10.325174720229446,-12.783481322210552,-9.73440392396575,-16.920802698303298,-15.214272905599692,-2.900603551091266,-13.554705577882224,-15.027226718917492,-11.169376158548236,-16.244716908270227
37731,R,-14.64291802920965,-9.673124493390352,-16.838659770434926,-11.328909985822351,-16.365643079159376,-14.58334633248555,-10.370141127297272,-18.022070882821776,-16.786648388555633,-3.7232848988903786,-13.266641809732016,-13.671079373567924,-9.948324048500744,-16.95632115900636
37981,,-13.682513474683988,-4.739458365916137,-17.34116986911256,-10.008961749039202,-10.45949929070877,-11.283666528558133,-13.008059214331649,-15.578364269085991,-13.193560118013147,-4.863854832256122,-15.48843576127868,-16.41417035089852,-12.640235556392172,-14.002343428612058
38231,,-13.030978534720546,-2.539209965859253,-17.131008736387017,-11.059810484953084,-7.519082417438949,-12.228880221023498,-12.01459915992332,-15.920010806165871,-11.452041934542684,-4.96742165030034,-15.064539618054097,-17.856842093998953,-12.866536703647268,-13.796374464528032
38481,,-11.885983685226506,-6.183449280208796,-13.378761527414383,-10.881850000964992,-9.804991703550606,-12.22820490815659,-11.091961651471502,-15.33163141660179,-8.146248302194751,-3.684772813070948,-14.860542376876182,-14.702798228787389,-14.198949192097189,-12.460648275414844
38731,,-11.458094533780905,-9.33844201146501,-11.94376273599599,-9.28523377295885,-13.299355260428287,-10.406705251298034,-10.269032829536805,-12.40773274146437,-7.99319710881405,-4.496033305876489,-16.199493270273738,-14.04172724302056,-12.958806992821764,-12.32431379260893
38981,,-12.5355011400765,-10.039553136710111,-17.179191290593955,-10.775090608152638,-12.439460648850847,-9.879202897191632,-15.005781012470653,-12.065464657994085,-12.104300362734012,-10.149212717685392,-13.562600976653007,-16.35431963637972,-12.087738138812032,-17.674151560148722
39231,,-13.072924247626217,-12.38256276346954,-17.42176211216203,-13.690414776195976,-12.06740585348591,-12.827056248946253,-13.625066367323184,-14.46392251504199,-14.765735325282904,-8.023603282373017,-13.987808088004511,-14.62519595208434,-12.706450508704412,-16.415270957353087
39480,,-11.21315864744309,-8.1406474385204,-18.84697108366793,-11.374882610848504,-13.55846573550659,-14.189178393411703,-10.212224593004082,-14.6235501867388,-14.010123596482432,-5.769323300398495,-15.199287641263863,-12.682303119980292,-11.908229014286238,-16.95260994163137
39730,,-11.586878185217484,-7.543494714632687,-17.667643013094864,-9.27308049952599,-14.531297794605608,-13.78319677011248,-13.776713519848329,-12.896956151101216,-12.325382090582572,-3.649074959484381,-12.535506635129115,-15.73922075406459,-12.509840136306074,-13.785492023376229
39980,,-12.124250275205256,-7.8888697293538845,-15.573371984065922,-9.690906003910795,-14.754320602379916,-12.594358928219094,-12.470278053491926,-13.237515519771703,-11.0713810586683,-0.1192399617324481,-8.910517653824805,-19.098238580801524,-12.4854746231872,-9.259913862260555
40230,,-11.585378638357874,-8.691067393426895,-15.037620416862389,-12.523049919489209,-11.400833833878218,-10.640334341039368,-12.24021432038752,-11.61641979554328,-10.928758377714995,-2.26897713896075,-9.797644493713664,-17.722561543833667,-12.068131225583262,-12.378700116150496
40480,,-12.274055574982476,-8.0293730041527,-16.55184528149278,-11.159856902028553,-8.90919309212299,-11.934626119742312,-13.351557591942637,-9.889901016158968,-8.322805804097865,-1.5586387779905937,-10.79820156438598,-9.786911361963147,-10.963896742722136,-13.26292340077764
40730,,-13.90906993174558,-4.979252256667129,-17.46220782571727,-7.382788197459664,-10.558967242902,-11.412224446330317,-15.249565822577438,-12.844384847384545,-10.272895442409212,-0.6756161763168732,-8.107968669793985,-9.833664874192753,-11.671189704469946,-13.506135105577036
40980,,-14.863842417944255,-4.228872698237563,-16.13229380565077,-8.42343614735643,-13.25039451747488,-10.957574802586867,-8.925452307687852,-12.875753420350808,-10.65456041190197,-1.5888406820586,-7.540149014448366,-12.16997886773753,-12.4988909664496,-12.829846928912136
41230,,-14.448489504985012,-3.641028350910045,-14.229264434647453,-8.44435156743132,-12.146219961815694,-13.488170354916049,-11.460882702405376,-12.21034299593419,-8.220459528834214,-5.95893805805427,-8.871414916671224,-14.062327191075653,-10.025373460157612,-14.14037820981732
41479,,-13.241513033914664,-5.6281123968289934,-16.02475446567027,-7.021204757419856,-11.68083190639308,-10.12151407568027,-13.631004699949996,-12.797950552292924,-7.737834896341722,-2.662459381614424,-8.07301942896739,-14.222177987224208,-10.996934130078332,-14.233832793791468
41729,,-11.08984500419747,-8.827654867529104,-15.396897407966792,-8.836285376683882,-12.415429664063666,-5.763295154029064,-12.608025454968768,-13.28394457606851,-8.708201743793081,-1.37086449081298,-9.439767353423813,-14.40460886032411,-13.820369273520914,-12.769478703911956
41979,,-12.309447261289872,-7.329307599929324,-11.70118381562267,-8.181745007653218,-12.117465729241813,-9.692813847773644,-13.145034703676956,-11.97694825035816,-7.25627159793119,-2.9077604326634106,-10.004047945164654,-13.206292606923714,-11.401231240998102,-13.817554789045827
42229,,-12.697917702912552,-6.411795411163598,-13.107152551819274,-4.317501021155271,-11.56812808784782,-10.393481081383444,-12.152557892047056,-12.213587964947994,-9.229160313946634,-2.024123399783489,-10.185411438151814,-13.659035777745688,-12.554051893899748,-14.822649223477256
42479,,-13.597058654373566,-8.5640864069893,-13.471405000726527,-5.946665449377804,-14.445108961830888,-8.473782854719786,-12.406289051693824,-13.403985077149905,-6.4854568251338565,0.0328884894345504,-13.070778273999794,-12.360384149273845,-12.436663033391069,-17.508663557712374
42729,,-13.501379254414328,-7.279168896335967,-11.84839708183717,-6.443442909101579,-10.29529162809653,-11.61239509643068,-10.109857464150476,-14.799770605440962,-7.171616663990164,-1.2625431012919923,-12.68495543210062,-11.686688369505756,-11.649794494292268,-13.45191024114936
42979,,-10.076555461918472,-6.366627209690243,-12.99542937262254,-10.342074822481282,-6.695279827645766,-11.300720722013176,-12.05828185857585,-14.45731876918148,-8.09453990686615,-1.7719078711469471,-9.598267715080462,-14.555483180345046,-10.797942176396935,-11.675541354655262
43229,,-10.218588858805951,-4.926256319835087,-12.607329850559756,-9.36402399132482,-8.861539825440513,-10.607564188073647,-14.505438122351183,-12.73804070971682,-8.183027271532865,-4.794660471764906,-10.898567050735082,-11.706531702352644,-10.6319153251029,-13.00855278997654
43478,,-11.90823855730379,-4.127401043573078,-8.619234091018281,-7.457092146248553,-4.211028470457148,-9.142571604305957,-11.142074747379242,-10.419632919214566,-9.116121825059786,-4.817109111249128,-8.210477456171617,-12.513192842052426,-10.125364833524166,-15.070360084465577
43728,,-10.591314391398267,-5.761467483689651,-8.17797719769175,-9.551492273202378,-4.518223107328122,-8.318377810984476,-11.819016971744198,-10.890189500966104,-12.682779445279746,-2.2990550996632586,-9.193373760975842,-11.360106633929965,-13.618749273856611,-15.001221657372191
43978,,-10.077495553591076,-6.463036205515524,-11.563240782188933,-9.398472020647986,-6.456110665538177,-9.6294675642052,-16.026834872254668,-11.580131915479338,-11.461716649161076,-3.843034136154815,-10.802186850938272,-12.258588791002726,-10.714030729357669,-14.821089082835815
44228,,-11.659529252935348,-7.811006295036986,-12.63308550818824,-9.310790503774882,-9.326325499485192,-12.310799633448894,-11.667223090397307,-12.436096311817735,-11.035975292770424,0.1401807524431549,-10.25180628950164,-15.04011078371378,-10.782410781817005,-17.726267357204065
44478,,-12.613258207598308,-9.440144301915778,-13.259247543131435,-10.734120073696198,-9.496231429307084,-12.27195689085184,-10.92876767401691,-12.80518785443456,-12.35871033249892,0.504478486706497,-7.824100664706516,-12.363719901251171,-13.609589578507569,-14.004130535090797
44728,,-13.165953160655016,-9.872297306398,-15.387805802700182,-11.0006608216504,-9.534177934567833,-11.645093754471414,-11.904956555884104,-12.610516891033273,-10.772582385153864,-2.6359149100593453,-5.880428099088669,-12.046658245678277,-11.079030992833054,-13.278559379541733
44978,,-14.412141232002597,-11.226027055771716,-15.618053749133823,-12.130370776529723,-10.518914422415996,-8.94160850594951,-10.877418451470913,-13.69579129383402,-13.16047110355094,-2.65665754045254,-10.75529032041575,-15.27331971423152,-10.71950660011778,-14.742217824658146
45228,,-13.868154800287858,-10.02367355679648,-13.80545767355575,-13.871460123813875,-8.862438021448128,-10.430556387050189,-11.538262377117704,-11.668645183764731,-14.212679354481493,-4.288459923117028,-15.493001099046849,-16.296432041545234,-11.45277235075502,-15.593034531302276
45477,,-12.39047629279942,-9.969254415712792,-12.698177155717492,-9.50682706638704,-7.75183649235993,-10.225672554001203,-11.9860877819815,-13.41506162584446,-14.637876247311452,-4.7836861199875145,-13.018875889514987,-12.48061996695162,-10.601674259362897,-13.914744660648688
45727,,-10.655503355110856,-9.45886353770015,-10.580614578886946,-8.916757429386907,-9.00558506951501,-9.70850693500748,-12.390174265369176,-13.58357991191835,-12.610528788482029,-2.473977183870448,-8.377464755102585,-9.6442826735128,-13.228978509307968,-14.032293301459934
45977,,-8.298577116787074,-10.599448029457731,-12.644378665705094,-11.694591107578551,-11.166147259214124,-13.282644702420392,-12.834182036557015,-11.424943730394403,-10.161622047651878,-1.1803756178412237,-10.75096607947286,-10.138317107227152,-11.966213034947478,-14.325220368579386
46227,,-10.25755217822419,-12.8037118397684,-13.060955640362351,-10.115713078264951,-11.487919316278363,-14.741522658659802,-13.298898916606198,-10.488529599875068,-9.035124314557123,-1.5044748843728164,-14.835057195988586,-14.670022974301702,-10.286851413801433,-12.852195261599022
46477,,-13.773826056305046,-10.134303997309384,-13.378186859021778,-10.091577408936418,-11.44967105744416,-12.47709757611153,-12.578004809720936,-11.214255292927042,-12.04292822494375,-2.8113832060418096,-12.806575692434931,-16.676489020570408,-12.87633064763062,-15.75482907316648
46727,,-11.501916868697812,-9.462236730623076,-13.58496455291107,-11.440682969981166,-9.737891434370312,-10.699865643203797,-9.19151166544862,-12.427981747686133,-9.328314370507789,-4.745692960882529,-10.443970799277862,-14.217518496353907,-13.574277036634168,-15.424293641742974
46977,,-10.83038281942751,-8.905567241774552,-13.78072813100496,-9.965737930784432,-11.9881933180577,-9.251137592726955,-8.26839320536664,-9.832645475389048,-9.66017391975202,-2.47088822744689,-13.072923788641742,-13.42849696925639,-12.049308238697716,-15.275741078539722
47227,,-12.21019330014397,-8.466302274148426,-15.978209988685157,-10.3640153536623,-11.852183536747846,-11.598705143333428,-9.842398872031596,-9.523722640344964,-10.021385119478776,-4.656201097234023,-10.486066634997917,-14.372228152750548,-8.886823758148632,-15.375210335345972
47476,,-13.359563549206424,-8.72618662431644,-15.272401842951131,-9.9412250079402,-8.509311448916998,-13.700688497688065,-12.91487056131858,-9.727153559755347,-10.169570382990848,-6.786566032871052,-9.145843684082728,-15.31075748035802,-12.016739158493268,-16.02922169032021
47726,,-12.49755623401322,-6.546499234852176,-13.239321349761312,-11.938292833781755,-9.276168395594471,-11.071456091666256,-12.59697369508132,-12.197157985640125,-9.969707648016906,-2.867437117752009,-9.53395198158844,-14.844251005305296,-12.702010082626789,-16.664154567633453
47976,,-12.842359031357136,-7.324823642891479,-15.829326352973132,-10.809984306397045,-12.44189505165238,-11.491350971085208,-13.410186522934756,-16.923148170873812,-10.072145995592823,-2.0267459414535964,-13.49059772394892,-13.374149610847947,-15.782233989909436,-18.27789879497164
48226,,-9.17851627973309,-6.438923089548673,-15.674632419916612,-9.557441171619272,-12.896577871706263,-11.80074266594742,-13.9492520326956,-17.691562138977794,-8.040686106444133,-1.9580653193397912,-16.242667016778434,-10.813048568836784,-15.192938157400764,-17.403082886421323
48476,,-9.531721374760044,-6.834851167273209,-14.666521981765944,-10.63469869932935,-12.298655886804491,-13.0036315548981,-13.70026913238944,-16.763452137594314,-8.306486434719298,-0.0304775142519201,-12.16481809197678,-12.21828061839237,-12.79832986753262,-14.975544576092451
48726,,-12.78550265777404,-6.557435176083011,-13.713558261021625,-3.00879356761139,-11.962565643167904,-10.242238332707448,-14.037505926301538,-16.324244094582287,-12.248020718938584,-1.3234110511220545,-9.550164599775629,-12.34040260134694,-13.828472299984684,-14.58737298023269
48976,,-13.67508254478306,-6.260054746938462,-12.963067351492432,-3.752887761382353,-13.564026825116564,-9.21071997237035,-14.960784788849166,-17.616277112068566,-14.867375301833658,-6.511265206429243,-10.89545201071867,-13.138647838633924,-12.844153282925868,-14.38076798134164
49226,,-13.7765162559088,-8.337703789412469,-15.17431595870013,-12.470240781694772,-13.11027423410987,-11.584157052167196,-13.291735468079429,-14.708289188831513,-14.987815172787911,-4.485854883453538,-10.96447422194784,-10.969499777402834,-10.911298713407952,-14.073817506904645
49475,,-11.120368738534545,-9.040151098170025,-18.091223636892085,-11.525021857894364,-12.4152167344492,-11.187811056629144,-12.441962423897854,-15.06398965354758,-13.057042288625336,-3.320508977610061,-14.467970825049017,-11.796807338757633,-12.176788684937268,-17.02296246195645
49725,,-12.492856676970195,-8.080785918999094,-17.831901376112643,-10.38914404780698,-12.189985834065434,-9.72606223278758,-10.965652597579991,-17.639508314383804,-12.2748970761446,-0.771265730465643,-16.468233195123535,-13.747402712694385,-9.366806433112862,-17.72209639765081
49975,,-14.046301587148577,-8.47825248798076,-15.609821001282612,-13.405762840898776,-11.555382998776816,-12.487769536902464,-11.712529462751135,-13.4039419449792,-15.746478838063618,-2.07157148845554,-14.40728697676586,-12.369840728676492,-11.908534399186523,-16.973978402167575
50225,,-13.63968670770809,-9.023428773437546,-14.954787728589242,-13.12385565319115,-12.066206660057356,-11.98377120117062,-13.06479417716613,-12.427416809974838,-13.897386284210643,-0.407058408033722,-17.8405460133143,-12.966115383899146,-15.410314660900472,-18.148985072082173
50475,,-15.252785998605653,-9.395374057928787,-18.14287093238154,-10.367854541770194,-11.578738156493936,-16.086299747380817,-15.028249652469016,-15.016579856393175,-10.573427626036906,0.2066947690667375,-15.341639432533508,-13.800107032789295,-17.6284352189938,-15.706255068219514
50725,,-14.94244158173878,-7.174200243307177,-16.59343742461873,-10.280986359193845,-12.59654576810287,-16.23139381768119,-16.124044824048184,-12.60952571884391,-11.152618989318164,-2.422590959663374,-12.09461129420027,-16.514920605002242,-15.978627934380578,-16.047130088677996
50975,,-12.93875675873496,-6.619223737571415,-19.255885831414112,-9.574294861063809,-12.65814601923934,-11.7455896691885,-13.427969668342596,-12.401478771410376,-8.628913582449142,0.0977089058908966,-12.325961603084965,-15.718899076179206,-14.64963766268064,-18.06430330616958
51225,,-12.44319298164969,-6.039720251443402,-19.04787408940008,-7.119676977859795,-15.228421388327735,-10.865125690937656,-15.407653322783474,-15.210188104075344,-11.31857312995378,-2.0831688186894604,-13.644127164881436,-14.564313793984097,-15.789851530325972,-17.52549621256034
51474,,-13.565451085722696,-8.530147968517213,-15.661357382794744,-9.92269419190952,-12.215473582653209,-10.433055141887364,-12.12148261533722,-12.96994862444806,-16.204959094415862,-1.701637597171255,-16.392721398392126,-13.02032410985898,-16.49226245944462,-18.03622554935342
51724,,-18.034101468196816,-13.49331648109782,-13.346448905116624,-15.911154660978378,-13.261214831363535,-13.64886154393912,-11.645274416543012,-11.374120275468185,-15.308632941498384,-1.9630764055155936,-17.376319154327653,-11.751323419591674,-13.793554629902529,-19.529234149107
51974,,-13.260446834737907,-10.636811095494409,-13.3054075492174,-14.416725796537094,-10.603990661911851,-12.630055349431707,-12.591780423954235,-13.28063958448875,-14.843485397587246,-4.638586492229782,-16.784980574331854,-14.681445976388812,-11.153493293413655,-21.89471244638805
52224,,-12.74309443342866,-7.764096214303348,-14.999710147663068,-12.173469286343703,-12.144573727050428,-12.559409171171898,-16.728456462889962,-13.286709006452153,-14.177445187214923,-2.6618670568291565,-14.90466377162832,-13.946727140912037,-11.087843072204013,-19.543757250107024
52474,,-15.10436283862714,-10.004282848408474,-17.609396458132046,-9.607397302497017,-11.253035894098051,-11.603224956913175,-15.400426178346777,-10.768858717308836,-12.302324478059152,-3.2621381543118706,-14.448191052523637,-13.81708045269512,-11.083404944723585,-16.07847119236926
52724,,-12.536737250801773,-8.89824055958416,-17.249478633735457,-9.904356613570418,-10.511136721325762,-12.06331234692269,-13.48205198007662,-12.642919062402177,-12.62784583707358,-0.775840608810011,-11.54539230350586,-13.130855915699664,-9.644727360498829,-14.311895166212617
52974,,-11.45856955646317,-7.990298358658784,-16.15529507691528,-7.351975121433081,-12.266514491854998,-13.555951044876336,-11.36835591747847,-12.5511116414777,-11.450045441209872,-0.9326962654168424,-10.476455163306518,-15.435023921461488,-10.458231795836998,-14.278644635583325
53224,,-10.29240672383849,-8.175863184685376,-14.43547510118525,-8.716240372674394,-14.142059505334476,-12.202144480928654,-12.08601262345596,-14.722342128996676,-13.762253348741,-5.426131352046654,-10.467828179147263,-17.66941296334169,-12.072294502106582,-16.25841313744045
53473,,-10.602987205914124,-5.789533644636973,-14.419986216366375,-13.42784963431752,-14.647380950859612,-11.92430093738028,-14.825390487674133,-12.189271122351396,-13.646741769578414,-7.379442082250328,-13.176089594612924,-14.387888933916203,-13.76727181418687,-17.64746539111471
53723,,-8.84535984107528,-5.390564901454256,-13.702931581518412,-17.012825179953868,-15.443192747838973,-10.700602435589577,-15.872927668418283,-13.266851409465335,-15.983764911421105,-5.121869318145635,-17.957845895421137,-13.348028234479411,-14.678485538374296,-15.882815751881116
53973,,-11.55908386697014,-6.866890439886506,-13.016783468266247,-14.674264091457411,-15.479261129529334,-10.678032703394267,-12.022882543691855,-14.089350867928635,-17.791004935460776,-3.607647947793786,-12.663229959004518,-15.262662722755085,-11.02726870715452,-14.889433862870858
54223,,-12.559906621996673,-9.194221413629432,-15.44841023619507,-12.655419430763152,-15.789801765798751,-10.855151442799745,-11.641670951033367,-12.069154762510433,-14.385207027205762,-3.404939517067503,-10.29597776762703,-14.57363771095016,-11.21581786048042,-16.514560362892116
54473,,-12.216445133865676,-6.876278902345191,-11.70928388584008,-16.653512229066692,-14.308015062134483,-10.98829335753538,-8.647818138638085,-14.810189965272691,-16.073728069922254,-5.589409237554442,-13.312907798936696,-12.609218137842642,-10.777444975055126,-13.252052314643558
54723,,-13.031801053801711,-6.898335887449971,-13.268172915049355,-15.359027649804236,-13.472455396248506,-9.765102192658851,-10.815594219050723,-16.89435175068059,-19.246599730791427,-6.170702096453153,-10.823558167667418,-10.83691454679936,-12.566169886248282,-12.164257700035911
54973,,-10.970358309149354,-6.27851867512311,-18.755948209773702,-12.20205129902391,-14.33267686949428,-8.599463752390287,-13.6304335273221,-18.33333807634124,-15.874296627245648,-3.3586612633719226,-11.298347127715182,-10.790978259736235,-13.686591954735691,-14.940367330900033
55223,,-11.866310573672328,-4.425845024944578,-16.01383572289254,-11.59713143988604,-13.014861700882904,-11.32895340214618,-14.62567357753791,-16.97236460293141,-15.527056669651651,-4.63579602960359,-13.089715895453304,-12.097811787132812,-12.54925877056134,-16.695712148794296
55472,,-11.195652091952033,-7.12820696015667,-16.19722336455071,-11.402807797295406,-12.954508471535654,-13.030769783214108,-13.35778034963928,-14.85565456108933,-15.777722382518844,-5.542512782114376,-11.944797329085384,-13.411256451041725,-14.196732271890696,-14.57571417091521
55722,,-10.351278441023402,-11.443660168218878,-15.769033441141662,-11.21508987820901,-13.11813179705213,-12.615199587242882,-9.650181114716212,-15.221492347331846,-15.486691357519364,-4.942327765633008,-10.419213208960237,-12.741400857510008,-15.175661716982932,-14.345345883046337
55972,,-13.74167930671608,-8.875637587265592,-15.756504337004031,-11.099423973892469,-15.132872043232911,-13.27548766735305,-13.527704224490718,-15.019260106521063,-13.571761514389111,-3.1900435795410957,-12.161775009810915,-12.30990341841979,-15.28253041812528,-17.58328746053155
56222,,-16.621422023283866,-8.201810713650172,-16.508945197445982,-9.499336244776998,-11.491696830312517,-16.538530281211937,-13.905257901451868,-12.953128060471048,-11.826683837886726,-2.895915715722195,-13.685527037056652,-13.049813130226852,-17.596093194266466,-16.083169817058376
56472,,-15.549817035691987,-6.059165034836672,-17.596702608731817,-8.086749649172445,-13.771769246240178,-16.46081245336442,-10.59515021251033,-13.649199069089736,-14.593124281998588,-4.799571436870423,-13.23662340951972,-15.800286969074373,-13.853571937998526,-15.680788765626389
56722,,-16.993771924855796,-7.1129243454101125,-18.438196003050045,-9.79476185730203,-12.1604418236329,-17.068892821166244,-11.183731726908675,-14.322130992546676,-13.429083709612431,-4.958077079369291,-12.623585749097684,-12.49899512130543,-16.48695092140609,-15.251225076335013
56972,,-13.166467791841193,-8.608890785328168,-14.72628118156796,-13.206172077429192,-10.247984350739884,-13.471974738514426,-12.138833804986156,-13.953105521645377,-11.8411555325167,-6.423202901359078,-10.691134903301974,-13.954766337367824,-16.669386302772548,-13.211117265460803
57222,,-11.677233766739649,-8.578524408830962,-16.22591018419042,-12.377121276214432,-11.02917945582371,-14.317033153131714,-10.770151102701544,-13.983144609521773,-12.117381760418224,-4.465087338001269,-13.47405948067892,-14.04292222726122,-14.151852290199692,-13.292431466953463
57471,,-12.409924517045749,-7.560147485333433,-17.873234802389803,-14.145036868688283,-14.644914154099842,-15.731237831654234,-12.273902427054,-14.523746641802372,-14.376742594574887,-4.851919385283597,-16.402626502341747,-13.888906627867064,-12.657406917602344,-13.847572190234704
57721,,-13.395271030711452,-8.307134601647556,-16.36715677935956,-12.422375754270838,-14.558193456350716,-11.90257854329455,-15.389431450620965,-16.008782168470507,-14.787998238545194,-5.964322321570589,-14.79505847743742,-12.58541660950294,-13.05673581077432,-15.129291205013992
57971,,-12.251099725742394,-8.137234308776833,-17.475050057545754,-8.702071758807335,-12.559121214296734,-10.596359908068846,-11.864730248806936,-13.738880855807691,-12.314050369072236,-4.497314932967473,-14.943423657921072,-13.220804334072955,-17.47063016622576,-14.627383456027072
58221,,-13.917670511574745,-9.356280417114547,-18.46381426509231,-8.076135363455313,-13.625554123797226,-12.269041281054564,-10.95973935365923,-13.509036293576331,-12.785416920114468,-3.4333342309604293,-12.888188708551889,-12.517691362151568,-14.220951918941232,-14.033772921614611
58471,,-12.497296110231382,-5.970210464947324,-13.656646360281384,-11.26740638189728,-15.557341832057762,-15.033440926244245,-12.225458271583044,-13.13801109556216,-17.085650982601607,-6.596494643377156,-11.090730939068775,-10.881677618808078,-10.140893987442272,-15.91628333546841
58721,,-7.305857858858806,-8.001192158946184,-15.744599743213165,-10.57229171320188,-13.183923178714416,-12.592985150680612,-12.731587788869271,-13.906822052061395,-18.9329226131376,-9.93184158984475,-11.725719617671588,-11.752192078162176,-10.913697796826687,-16.73599833570553
58971,,-8.813355206886968,-7.454820438854074,-17.503256906380116,-11.702416967600051,-13.054384290224563,-13.021940224537328,-13.603020883545454,-16.078568457232926,-15.296538560038236,-5.272870879402822,-15.022929625869628,-11.66160094711749,-11.45194181711775,-15.236451997850873
59221,,-12.40158367284515,-9.843678329747217,-17.340021500252565,-11.14266742728606,-12.58989418676562,-14.10302324532652,-13.073197583491956,-14.2877879743539,-14.412971571302034,-3.246472095703708,-15.551231757861714,-14.343413810346991,-12.416664550985823,-14.79812526439343
59470,,-12.05113879563654,-13.628355456659367,-13.429893507707115,-10.681810814874432,-12.663792530849722,-12.1558884659637,-13.570380387388036,-13.181236914334676,-13.751608523718328,-3.797738197095547,-15.42533148934914,-12.210482246538536,-14.200782286481342,-16.448190332206146
59720,,-15.832508100202272,-12.77166737755014,-12.085808141412054,-12.954993321881313,-14.460207548241955,-13.770826220159956,-13.655926817554755,-13.973639647528216,-16.403832210252926,-4.842234480788759,-15.710190208622963,-14.577042084689849,-14.55453668280915,-17.588858922164228
59970,,-14.414092366356936,-10.447300468984842,-17.307921535114335,-12.453512809253848,-17.573298980232348,-11.312789023293984,-12.320744819988722,-14.75437166265442,-16.597677966935276,-2.315442817289152,-13.719175140818765,-12.774908206806051,-14.849113150040816,-17.313564522860148
60220,,-13.125568726019592,-9.337122069838337,-17.780445951584273,-9.854934996312018,-18.560284823822983,-13.362722076779225,-11.160407269179345,-13.86716818404252,-14.888403819939002,1.2346176479875288,-14.78697738384902,-11.833677187692356,-13.16761818443981,-17.140859520523428
60470,,-14.25201663150381,-7.0651751003168535,-18.175723753984496,-8.384476303662659,-15.465494136668676,-11.388682995832454,-12.597258874902256,-14.494595531118012,-17.61157519049453,-0.7817299259768616,-17.040372351771254,-13.137992165127576,-11.743690756659085,-16.339711714462098
60720,,-12.367615685188076,-6.133223318112638,-17.547496614907445,-11.394298642625,-13.74477203948668,-8.94798963192101,-14.055336994062383,-15.976687302410594,-17.54995278332495,-3.2068497426164715,-15.360066486007025,-9.333058926935674,-13.315860054305936,-17.50909377352445
60970,,-11.850255455268025,-9.93772330636432,-17.49472250681022,-8.774038440449608,-15.76268505718227,-12.907243599928764,-10.891783446213177,-17.8621350620367,-12.244442559769466,-3.511205408281506,-10.498785553485924,-11.378697454343708,-12.696438375198,-18.49642091326807
61220,,-12.312928621047604,-11.598526084543222,-18.62415740753068,-12.6931099944391,-11.938038450287287,-15.732000405265143,-14.19621256740112,-17.44188547648949,-11.789857251987067,-5.183117486714606,-12.162287810574409,-14.740992394413157,-12.992738721919771,-18.19247177545128
61469,,-11.156654889907324,-10.53933151490791,-18.557983574481696,-12.72663632650996,-11.17922929412118,-11.536366711911874,-15.916422057497986,-18.300395861985617,-15.399538582600504,-4.634189639452178,-12.90625422366853,-11.428814065298075,-14.559469898643124,-19.001975534049198
61719,,-13.245899035793542,-9.479700893941812,-15.490152209177452,-11.48877734011914,-13.191822400507858,-12.652325126485088,-13.847212141455309,-18.09370662150007,-14.266059651123728,-4.606462637843282,-13.944198832278207,-13.185085503779018,-14.619476202975596,-18.46945003432329
61969,,-13.80021340772753,-8.899135933182043,-15.738294629926756,-14.529951476488502,-14.875084558107616,-14.593004561086698,-11.27259021368506,-18.807691929043227,-16.0989405995492,-2.7210455379953613,-15.85860199988046,-14.406724603479644,-14.778852503880138,-15.84395812538791
62219,,-12.551973479043,-8.370047876384334,-18.372332339712948,-12.92449851294154,-10.332674367705724,-12.926430819227592,-11.11051453452185,-17.848056553158067,-15.533839315309608,-5.233377936494319,-12.411442516409114,-15.734803487393506,-15.481114638841074,-15.242871448447056
62469,,-15.675938541462294,-7.610628405077481,-15.763506765266476,-11.009474827512662,-8.228759547834567,-11.03992412564442,-11.417841175941932,-13.67007923376475,-12.402732426623375,-5.742569260394379,-12.939437484553103,-11.142830375082424,-17.382838232355976,-15.060331027529436
62719,,-14.795081001814465,-7.394190504874007,-14.934269322716816,-9.856048473742776,-10.750633206143856,-9.481674366696716,-13.073390402884437,-13.772943079000566,-12.903610402274984,-5.376631825738752,-13.544826287444796,-10.76551178887742,-16.765867682599126,-16.099037139581704
62969,,-14.672614814072633,-10.066244221555255,-17.542604400706864,-12.3062948813771,-13.506557042131227,-9.683063779189371,-13.670474301874034,-14.360967479233404,-14.98126313415484,-7.319908986670751,-16.14098625899094,-13.606775747117698,-13.678609615885913,-16.45596922816904
63219,,-13.578440110029392,-7.616285160622679,-16.89143515192529,-12.028902245695413,-10.1362002396333,-11.556275618537548,-11.297902872254468,-11.439167676973083,-12.952113578130254,-7.128002666205178,-19.009907962954777,-13.696635646032297,-13.325988857621365,-17.068067931163423
63468,,-14.219657740513728,-7.604382654453846,-16.123111116005443,-12.00039712050209,-11.762944154351969,-13.126644263449784,-12.420365779077883,-11.452776822292034,-13.362801873974425,-4.206689106568026,-16.182478502384996,-12.28419803866528,-14.421818544517782,-16.383318821800884
63718,,-12.56403112620516,-8.196413900161959,-16.14359949874883,-11.747492279266428,-11.7411295979894,-11.509951594193772,-15.069686808463029,-15.140136997239704,-14.619050350953016,-5.575185552437115,-11.615807294961693,-14.444032976698098,-14.55226733646674,-16.10662528144459
63968,,-12.69216588927833,-8.457556405415795,-16.697849581825217,-0.5696728325221259,-12.774573043077751,-13.377562441522423,-13.44922062926192,-15.330981876536228,-13.791691311755375,-4.656661717981624,-5.618477673656185,-14.341552622543611,-14.7857212016887,-19.304780795464808
64218,,-15.323493834081695,-8.831498604204734,-15.64845842099434,-0.4661003826554417,-16.065757226647246,-15.680602728989792,-13.374185848242588,-15.736524739501768,-12.969660985331297,-2.8625189847563526,-7.058789465922633,-13.274373733777976,-16.406612329714203,-16.40622946658214
64468,,-14.39048864875312,-8.694560263405846,-16.037582909286126,-4.76882320443509,-13.054716136587706,-14.250216261180402,-12.96129108561394,-15.08450358204552,-14.976542771446814,-5.770136593500833,-14.764576774255351,-14.295105920193516,-13.213513165442572,-15.790129463516198
64718,,-10.866721719600417,-10.082619368534935,-16.09052781656561,-3.669294188860426,-11.63364414147236,-14.975412839158684,-11.49084879933294,-16.22523851982888,-17.819598757466355,-7.238880952603877,-15.386645611954489,-10.480851664848268,-11.403217104933097,-16.770238400298545
64968,,-13.50013971265824,-12.235340449464871,-15.756342143694113,-7.05318001274804,-13.63491419056476,-12.473410481105462,-13.467080185585846,-14.468812621113916,-18.94894143905565,-4.306383620155016,-14.077798608273673,-10.915284229286264,-13.648863401195932,-17.477817780258412
65218,,-14.135196038689337,-8.241768627789517,-15.57636420036804,-11.68409243466762,-12.77231812698928,-12.653919045825315,-16.697195285920372,-14.380257543436809,-17.178917415566758,-4.192880914297721,-15.192053837477582,-12.17785500329054,-14.53541013550641,-16.16671279604201
65467,,-14.594724578704216,-6.218231202707897,-15.62620226192199,-12.47923920741944,-11.411396471172797,-10.096216879368852,-12.21875251080503,-15.753109809211804,-17.467960998976753,-3.0837157332192384,-16.42241108789799,-12.140483951705946,-12.594626906466177,-17.1289752289505
65717,,-18.417510266372908,-9.866713481299124,-16.168353225312575,-11.583097759960898,-12.653456696682788,-10.478018101536808,-12.144092445695644,-14.87005225767609,-14.99275915405092,-5.092757136315306,-16.330393302871954,-13.408179093346906,-15.595265273087849,-15.21740372508438
65967,,-17.549201249231533,-9.815447769259112,-12.090751173221514,-12.683485996570225,-15.190703793160887,-15.718919456548786,-13.152189748363936,-15.004009533342366,-15.232017796173311,-5.746223754893216,-14.17684714691047,-13.685086418900402,-17.59919278728059,-16.003636935534225
66217,,-16.533511422121613,-8.670985281516348,-10.63877867929747,-12.101558899848923,-13.736997313783696,-17.67065644557438,-13.496436216898651,-13.650615750227663,-15.708294329540902,-5.902744955459602,-13.582401210517965,-14.112770224320553,-14.021915729237298,-14.75855525095518
66467,,-14.5345342500862,-9.408512995294538,-11.906568969863564,-10.820155596243373,-13.491670067204034,-16.65059313557179,-15.795994541503855,-14.2653409090297,-13.969630651810668,-3.714659786432655,-17.01463681818673,-12.194506010694797,-14.057296460447557,-13.786976637704411
66717,,-13.034448715506509,-7.059837285092911,-17.501734530008413,-10.428142154377362,-13.7681567682776,-13.589686486482186,-15.634016642537826,-15.247795499096908,-13.92457498871952,-3.054147878924525,-20.155988931966974,-13.155163446046243,-14.970822748260968,-15.799736508993032
66967,,-12.60188507326972,-11.597234177721226,-14.642658115224114,-11.005217559304056,-11.754812637182203,-11.913804145114211,-13.455855660927249,-13.52060337550721,-13.581666359051992,-7.803862687053136,-18.21448852708432,-18.07888273991771,-15.1519477479599,-15.951954624351169
67217,,-12.734517124449658,-14.917766768701268,-13.000495475435796,-12.735015819981584,-12.646403304575164,-11.472382986419053,-10.845574912381002,-14.049745414691714,-13.154260702437464,-7.356471600575193,-17.908946228836548,-15.906605388927732,-14.596771606390227,-17.38603370429458
67466,,-14.649785909455552,-10.416406759392052,-13.746280299045557,-13.013878032142262,-14.71572290379592,-10.41023193419968,-10.970548429220235,-15.396657659747364,-13.326652934965791,-4.782868835300401,-16.93564048323494,-12.018631202425809,-14.893331206339862,-14.146898253715026
67716,,-14.183973596414091,-7.536472678921843,-14.808076609520343,-10.927713439069551,-14.851006731965205,-10.649154803567288,-12.803753011443844,-17.274247286351272,-15.273921263408033,-7.0126213991639705,-17.50446912582347,-14.061218412406683,-15.353513191475868,-13.872247538782954
67966,,-11.88256037096851,-8.36381888409218,-13.44839093312845,-10.472437505447054,-12.954866246054715,-12.547569045970237,-14.68994435876954,-17.07127232542173,-17.462492705530913,-7.970433345510257,-19.404817677505868,-16.707898516640892,-15.667442682729058,-15.465449728695058
68216,,-12.62839262561753,-10.39091823409234,-15.142065343807264,-10.691185091686892,-10.757863061716456,-16.72015764139171,-10.63954076783181,-15.895071195273612,-19.29714947830274,-7.09885342972751,-16.20035002153692,-14.523241893739092,-16.222417050284307,-14.473716377137322
68466,,-12.793100906289483,-10.399487090986694,-16.485116243480448,-11.385405742255564,-11.300766771340651,-15.03162007315813,-10.504167022264753,-13.4781495047501,-18.89920188014761,-8.467892668509084,-13.537133303105636,-15.29485778361078,-18.001944007330138,-15.055692111223651
68716,,-12.700650088772871,-11.835337862673445,-16.63901453511761,-10.147638100743269,-14.606488748884631,-14.276214512961529,-11.16247613695415,-12.132859808685406,-16.12012492086333,-9.185633837508565,-14.183856084843704,-14.030234699668725,-17.708632463592952,-19.30837016650857
68966,,-11.628747258273988,-8.289482169985797,-14.572428307608396,-12.015694392515318,-15.350647301395506,-12.481478141912742,-12.178165741533569,-13.024591654711733,-13.337882920420594,-7.832676637707893,-15.547355087540458,-13.044360459755064,-15.555423834222696,-14.843297138670655
69216,,-8.769962981401058,-9.73819115409276,-12.639515514465284,-13.941692493154395,-14.965975396197036,-10.864422202005102,-14.865695491200215,-14.321549502332989,-11.539461594296707,-5.201241219058961,-18.20667812027522,-13.009282036675918,-13.350713639233662,-12.413686398741769
69465,,-9.461788394043644,-7.585533278706263,-13.107271422888738,-13.39837828850376,-13.006028900453986,-10.005835440709546,-12.150619590225562,-13.5505826900096,-15.26193451250006,-3.719265882797269,-15.624421658929586,-11.201243784196103,-13.558705078871698,-14.945142468785416
69715,,-15.196402730969238,-5.631210877024815,-19.37921730377873,-10.767614180675128,-13.383161972535728,-9.26068785343697,-10.04230155488903,-13.526384947357164,-18.84087065593892,-4.8339837804848,-13.999764891122862,-12.963208377316096,-14.46976633097484,-12.878704829680728
69965,,-15.40206255171528,-4.335992078235662,-17.90006984195885,-8.970626706053654,-14.972769717717672,-12.200069785154463,-8.713261060761305,-13.928804687055752,-18.28837057077677,-6.954136523365506,-14.188301366604335,-16.226514049098085,-13.20720315691132,-11.190279308315787
70215,D,-13.15923681413162,-4.687997655652588,-15.863212619298023,-12.257020863973578,-16.12991328117476,-13.07378983088057,-9.481440757605307,-16.421252306880397,-16.500138941097106,-5.321107759523529,-15.791108207110824,-15.521106635907342,-11.949724818266835,-14.234074832305772
70465,,-13.498388771970728,-4.684669658551936,-16.119992426231228,-14.070106788895114,-14.41022352772414,-11.634580377974387,-9.642700117143155,-20.36891965877724,-17.01472143833471,-5.233327827313923,-15.298730984095815,-14.337876540848082,-14.575297348737662,-14.695510572217858
70715,,-12.131383303589162,-7.789496539341596,-15.532742167083226,-9.369319458793171,-14.328255050151393,-11.13012165775194,-8.680857217576296,-15.023450817026838,-15.07619353853636,-7.550264774019325,-13.4149489064532,-13.42615734497585,-14.165354784915518,-14.145039125681713
70965,,-10.640117738996594,-7.566412876558902,-13.25935962274736,-6.059137085359037,-16.231673553690904,-10.493870191536026,-9.989684397322923,-11.825009476013804,-10.411336768053838,-2.6329582282401547,-12.173456314587554,-13.8908739629251,-13.374864878453396,-15.901267853200466
71215,,-12.529045162319632,-7.102062864412435,-16.072515221687524,-8.673678608336253,-15.964994961114268,-8.412078762581384,-11.516496574068638,-12.155758377936124,-11.44631226676738,-0.8300380341706126,-13.644658509028758,-11.414933664918102,-13.653465246071232,-17.635149966020236
71464,,-12.376567880617207,-9.852235661847592,-14.706885325854772,-12.958497882816063,-12.791728560127478,-10.767631271106648,-11.846037075245228,-13.661057948119655,-11.538454921311844,0.1255566218167878,-12.025933807144972,-13.006587823555552,-13.071071710682268,-14.853198966827756
71714,,-7.551394269863692,-8.173896606697596,-14.48542507772807,-13.4150114229638,-10.7144838285136,-12.35679947502456,-12.239293377857429,-13.147282616970568,-10.095269615812434,-2.724966034754775,-11.18461890162429,-12.087828734670454,-11.241167177560769,-12.778712151451847
71964,,-8.836308246798604,-11.390814107055409,-18.062234597435754,-9.74138115328659,-12.406519234081683,-11.032423982817605,-10.55075124958883,-14.155066163447469,-9.584613788191676,-2.970001842762477,-10.9400174599798,-12.016416160501027,-13.13390269350037,-14.867404796626058
72214,,-12.7041545673523,-10.297287260935413,-17.170756096192267,-11.490329228734408,-14.604757820492711,-8.328153688888113,-13.370830722080914,-17.96356375569072,-12.99301476301956,-0.3011401726062894,-12.34979334328907,-12.39111383029904,-17.19146850048922,-16.319663630911233
72464,,-14.217558748409274,-9.145244023355971,-16.006472798798452,-14.817752660112792,-12.371729353437695,-9.921136062575131,-16.71874104635628,-14.61609416803043,-15.923734787485891,-3.161187992554204,-15.329696592800117,-13.717437678396902,-22.005961756354058,-14.811029681913002
72714,,-11.184301596580235,-7.998219980656509,-17.2461382154389,-14.244155163903931,-13.34314950141577,-14.867394454414562,-12.05119894303579,-12.66855200701899,-15.693634630019355,-3.621255189412982,-13.96745835659002,-14.81654762623316,-19.093090624685,-13.862663307678469
72964,,-12.14091590935488,-5.560199094437545,-14.937232762156189,-11.332814119238655,-11.109254970275291,-13.456753859337242,-9.62263323586145,-15.270946766083853,-10.580312642546172,-5.615558620489348,-10.840366235935324,-16.391198127471302,-17.446134571790516,-12.904057531638838
73214,,-13.46349806658684,-7.485910722647368,-14.855756464962385,-10.897622310295905,-9.928799050655773,-9.54111039975896,-9.64838968698712,-14.735859298618276,-10.142789337212555,-9.129068065188658,-12.496566013869554,-19.816619946165645,-15.26331930751875,-14.650728380376757
73463,,-14.95092928751884,-9.56974807061224,-14.377860281105605,-9.050044343749278,-12.380573684679373,-9.22851565766378,-11.48055031378344,-14.161947548941772,-9.9243234150833,-3.814826880184656,-15.25748708886272,-16.789173573895816,-16.673875070790004,-9.614953481153538
73713,,-15.95367201520818,-8.929414041693304,-12.256520323988235,-9.72990620609651,-11.939780798521811,-9.928824800333684,-10.874832993418424,-13.9282323256216,-12.515172343713932,-2.172712889716542,-14.86192591107493,-13.3933685233274,-14.676108198007595,-8.53498124212834
73963,,-11.269126270622603,-13.21995958382488,-13.205076167342051,-11.374776306936823,-10.81843068330278,-10.49423806896698,-12.110921068427473,-13.272455133558116,-14.833134823396676,-3.762469385006585,-14.612668864891528,-12.981601937008394,-13.451190764920227,-13.431562497663451
74213,,-8.186407290899243,-10.123536770326176,-11.96214485922538,-10.89430899922839,-12.974799066936848,-10.930911664398856,-11.676173883088872,-9.98660059947355,-11.083539625739052,-3.019139161796786,-12.323347235947836,-12.047845685054469,-14.25897665347022,-9.613823241837844
74463,,-12.139855223893273,-5.504277359704517,-10.649768629746228,-13.350006219253778,-10.875352976414462,-10.302514361217792,-11.4097844375712,-11.700427302096706,-12.495254092522831,-5.252906406673983,-10.983148880475284,-11.607740475629988,-15.736050490351342,-11.019821234997169
74713,,-13.635806331297072,-6.520570144477934,-11.274020637973027,-10.409625182038322,-11.606887643478991,-9.61683326052113,-14.54684251429972,-18.40457575629972,-11.401476811296774,-4.863792657571814,-11.680110197091125,-11.818355592587864,-15.426917541065311,-15.315687147829571
74963,,-13.421067749048436,-11.653498798466789,-14.190496322891628,-11.562921249971303,-12.953771022436538,-11.162325226168468,-13.338537744484263,-17.466208279672795,-8.590048607717872,-4.294097938663651,-15.344187282758222,-13.112105079292697,-18.08061872738555,-16.975304639895658
75213,,-15.719441752878083,-11.184015923997412,-15.112516744037388,-12.85297660206198,-13.707210729535726,-11.506345541667605,-12.915010252754186,-14.524583355813911,-13.108426035736372,-5.6169973624583145,-12.172192789913272,-16.449496597474678,-16.33632256956508,-16.391938701691874
75462,,-15.294209745059533,-11.076344739738907,-15.40441392710824,-10.504510397227897,-14.541709604163572,-9.77268964144696,-12.68296987291876,-13.671910612862847,-14.754480302713755,-8.899252192447545,-7.146970846307167,-11.871982681697064,-15.592051536610898,-18.214139428950787
75712,,-14.061623461895952,-8.798591117446266,-18.691529134965425,-9.029612300528616,-14.774517212019935,-7.2662557780470225,-13.45011034668824,-16.012660655693583,-12.602559348540614,-9.50676897452942,-10.625570473521671,-11.358037759022926,-13.3922101739009,-18.637265613751357
75962,,-14.362448203767272,-9.210738049299284,-18.79427652771357,-11.124796840986996,-12.346344971811886,-9.113427562866445,-11.239232496718907,-15.740839848771436,-14.741161099182658,-4.418829119688873,-15.425368755887447,-15.812532125569682,-11.898338232388724,-19.618722638795507
76212,,-14.979153736184015,-10.104468206266803,-16.69743148687793,-10.981847463676877,-14.041905511429452,-8.455078039763222,-11.497867156810717,-13.27706311433236,-15.776757727463766,-0.2528882768089616,-15.250463104548349,-15.77262301003805,-11.93035613741289,-19.497414954302062
76462,,-13.836786570763255,-9.70087837339804,-17.06451451575761,-9.323522575115213,-16.20765928569157,-10.949952300347034,-12.069168902897102,-16.39226114713407,-14.948390467962849,-2.334120388131708,-12.136619076824156,-14.71732935528756,-12.24280087664286,-15.342236576052713
76712,,-10.620511621787852,-4.51447791625552,-14.44504725831351,-9.38494674290802,-13.05813573633316,-12.6457682516857,-12.566789702218948,-16.39459891715511,-14.737680457755824,-3.4291337666134414,-12.441985377850404,-13.640888306123728,-10.971552586093786,-16.775485862290818
76962,,-12.577052399799102,-5.403573691259378,-15.484191521995909,-9.593479887181257,-11.353244647629882,-13.435824089795076,-14.084254241846397,-16.087233679445635,-12.17357824646842,-5.161833424685214,-12.803002738829912,-11.980792802566114,-14.067185867238711,-16.969829364310556
77212,,-13.983602594777238,-9.986893864835652,-15.395347091933626,-9.84449897860879,-12.106622274390178,-15.57817014515601,-13.774925287296702,-16.12258044236521,-15.738426828594951,-4.4134945559162295,-14.748636209310796,-11.862598641567434,-13.67817820275729,-15.67063690598312
77461,,-13.53588717008835,-9.893256062455135,-12.372101054014644,-10.14725884897013,-13.097782054013967,-12.331263435934732,-13.42380121907066,-15.366304807704848,-14.986593176897395,-4.096198217812571,-14.893357620570134,-13.714573300406512,-14.317435567193812,-19.45452282307126
77711,,-14.765538075875916,-4.321560504348798,-13.177564956717486,-10.245780254380067,-14.438065334526948,-11.268786726187487,-13.438500439933447,-16.437824596012508,-14.126194770924318,-2.4005121840404358,-11.614165749001868,-10.63369247519907,-11.705284387868796,-15.372291587713974
77961,,-15.564900974086315,-6.482542053476087,-14.745095902395482,-9.60830723779645,-16.812999572974633,-11.989929953272188,-12.796343745893758,-13.74335971966472,-15.830170215671798,-2.741078037846392,-15.43811703954566,-10.63357983605127,-11.175012094628045,-15.808619123171638
78211,,-16.763503921418263,-10.992721945740334,-12.397285610053778,-9.130727860425033,-16.207002378488205,-11.249900849019305,-13.94708255819264,-14.304110639184968,-14.51438051897924,-4.006197022852521,-14.564502421607282,-14.456351950756904,-14.118435450939742,-17.805176207050483
78461,,-12.858567323772156,-9.80490266647614,-13.78836216309974,-10.379072634857152,-15.63588771679939,-11.22670076676506,-12.660453306425577,-16.916364600226945,-14.956539062276349,-0.79976797568201,-13.01659200234097,-14.385097111150667,-14.727312836151029,-18.40140546703679
78711,,-12.262238155039526,-8.221171108337437,-16.17837986325286,-12.666320702750095,-11.525210794983971,-9.04318176935802,-10.218686173873568,-13.286513533199775,-12.857055617591504,-1.823317336749572,-14.106856712860864,-12.568660269006855,-13.986357059893187,-19.835662969849015
78961,,-11.96710890316856,-10.205701538724396,-15.617116363069126,-13.910636955034644,-7.754634141022622,-8.858543010169765,-10.836525902324745,-15.044886060327,-11.876772563954814,-7.066741297998531,-16.326513556668804,-13.875293422890431,-17.79449947243153,-20.296112964893037
79211,,-12.94345472935545,-13.04646367092216,-17.66746760646804,-13.223624759356971,-9.771540867007356,-11.444584119097092,-11.036029276440086,-14.89930656218993,-13.068036561348404,-5.253898407162025,-17.723185660339638,-14.56321398364727,-15.661161519106436,-17.191504486400095
79461,,-11.92690785150604,-10.471038623752646,-15.13195246632645,-16.277430037983653,-13.28708043893849,-13.222845502429712,-12.39454419083299,-12.24669885979863,-15.174867472778493,-7.270448543727489,-15.38209304859092,-14.358213098326242,-10.877869469046129,-17.693838410032473
79710,,-12.561305201196568,-8.84923958345155,-16.76881875498195,-17.487527581010156,-15.68103226270368,-13.368135904536288,-11.257957968312269,-14.630104153346782,-15.698981736947385,-7.401454268797899,-13.15418335995482,-12.27329808104714,-9.719659165009332,-17.8919204450659
79960,,-13.65371998823193,-8.337530833304909,-17.637099451171196,-12.328563764638618,-14.623705719855678,-9.629076631158853,-11.508675881798103,-18.187552552206046,-15.90075039828676,-3.516581352462387,-10.951367085361102,-11.366915612316667,-9.527210256976186,-17.137769726098124
80210,,-11.177186787017948,-9.857951216677437,-16.390419757431964,-9.476377876285834,-14.634299342626033,-8.12078148809529,-11.89000918229829,-17.77515475767262,-14.364907769053977,-3.758104649686232,-13.85115868743558,-13.31119178054749,-10.884305749094512,-15.812218721051549
80460,,-14.627020088186534,-9.827458287745548,-14.216997305673155,-9.824429467258158,-13.499455806265075,-12.98365412101501,-12.289465538001703,-17.250817452487947,-14.913227982151229,-5.7365452772220005,-17.543366789856943,-17.16814348182104,-12.657670968435571,-15.909731100269074
80710,,-16.97527273079188,-10.484264048979687,-13.749089786176665,-11.801016918183048,-15.189228536543933,-12.799183792387543,-17.278476559841188,-20.589120821430875,-16.823074184787544,-3.518045855635099,-14.831935053791812,-18.27488252761168,-15.03709904904727,-15.80892033463376
80960,,-14.7218727619281,-8.382708371235275,-14.894860156583418,-15.973912508800998,-12.24787158806248,-10.648977490689566,-15.91602264387385,-16.684005465750865,-13.551697307310231,-2.3900875005357864,-12.9367125252495,-15.40635175038529,-16.60824464126663,-14.057712316361846
81210,,-11.60989867483378,-3.6033508049679455,-13.468692872859794,-13.999653471618911,-10.947039253836625,-10.973198888522717,-14.100158841666143,-13.244312704695956,-12.157378492554209,-3.747314677878736,-14.01623462519094,-13.39439816877137,-14.273118268573814,-14.267852369931951
81460,,-11.927934689243322,-5.879266418756316,-15.077869746720005,-12.766002409715968,-12.004336616408152,-11.949972362648875,-15.025668263157836,-14.317138032481422,-13.020810836482928,-8.481166007543434,-13.4600050563936,-14.191992268391756,-16.070319052849822,-15.002766418028884
81709,,-14.327393035768976,-8.948049534826637,-16.025920526062745,-10.03353982997361,-10.709755533531045,-11.357827985288344,-15.636516401031464,-17.228192103868384,-13.077472979015086,-6.2759012785215145,-13.82280761580104,-14.739051405951846,-17.31177363442541,-17.114438048431364
81959,,-13.181897628558568,-6.67607234989961,-15.53347657738489,-8.474306958478419,-9.952901606117162,-10.429393548084269,-13.282527309705223,-16.485959702860097,-11.87878888205126,-3.5404711893804635,-14.448474155774546,-14.045745826968258,-16.612723700778627,-18.80875401523053
82209,,-15.77636028624858,-7.732377671834538,-15.301798067243642,-9.393640354965736,-13.305888710261035,-13.97266927182627,-12.210174120477234,-14.86922691609987,-14.089038282648618,-2.5859014317410804,-17.985429495233312,-13.429925593640917,-16.08587440028929,-16.71813402543506
82459,,-16.46603078544592,-8.092024555026663,-16.2852415040966,-12.621355066879056,-14.129553217727173,-14.032065365001728,-8.515702630254403,-11.828315135613522,-15.238731959915896,-1.990205163397722,-14.205241644569202,-11.519405691836363,-13.142836913866704,-13.982903974165843
82709,,-15.204892582314695,-9.614073273310554,-15.453578845731288,-13.068254219724016,-16.95080394562182,-14.122910713869224,-11.020466808935591,-12.182458546398603,-13.60653528679935,-6.15586973685957,-15.061802254318728,-12.652030625386868,-14.643023821981952,-16.72167954071046
82959,,-15.77129596013171,-11.298003694132673,-15.01250875097456,-10.426567587717718,-16.144117679021125,-12.063233055825975,-13.053326484097898,-11.781464080238004,-14.013724737342494,-7.361342337705688,-14.666734172530813,-14.736470349957337,-14.967967386763483,-16.443578343683917
83209,,-14.214806514010414,-8.526302324584226,-12.921796731161216,-12.313603078329098,-15.466354456274487,-8.557723480882704,-12.12599761277739,-13.147676463240836,-13.164114379900395,-5.883697196244215,-15.745372985771048,-15.91163505294298,-12.558644749199914,-14.899877395830693
83459,,-13.958671827998652,-6.349597711213494,-13.278806477994108,-12.168224433838027,-15.01713563846378,-9.542413631038622,-10.613577640984884,-14.686333502208468,-15.641605162904042,-3.817348897579671,-14.781247481379072,-14.457029822755166,-11.44327249053314,-18.290017994265263
83708,,-14.725918657686698,-7.92474107169979,-14.987064644006264,-12.089221936998218,-9.529203599029412,-12.66587189733113,-14.349611125675509,-13.56697541166122,-12.732714454248066,-1.7131917626097035,-11.695203299307073,-14.354016451334967,-10.62806902556244,-18.463711944234134
83958,,-14.475372268398903,-9.388310564064833,-14.730587620533706,-11.57100072762103,-8.614176701373362,-10.741064333852156,-13.822010494235528,-13.54363573883463,-10.085839584883884,-1.6818906178044304,-7.910458862430153,-18.55431797096413,-11.02185840477609,-16.28568703871299
84208,,-12.765509375709314,-10.961208696974245,-15.299307723273191,-12.725824579881166,-13.35101361231085,-11.131161442551068,-13.008188287566252,-16.523703593528406,-13.62411603495838,-3.975181284971656,-10.462362954467778,-16.47638900480355,-10.169283187707723,-14.768417004615763
84458,,-13.759013465951432,-11.031940293149477,-15.146580143650834,-13.395083759314115,-17.41761627469119,-11.093224473055065,-13.66625066477962,-17.058009692188204,-17.03767921040287,-5.856297250777902,-15.114021904248505,-13.80285963890973,-11.19154961854754,-14.37163512941306
84708,,-14.401587239735424,-11.13728367802866,-16.26462899852161,-9.883128733330588,-15.45595251743208,-12.986714481837032,-12.16746205014539,-15.572606797780518,-15.885154044949257,-5.206044323801805,-13.949893004266398,-14.018955474099132,-13.495784839928572,-16.991424686645153
84958,,-14.264643862353736,-9.282305390380891,-15.49813866211993,-7.945774669628149,-14.295608769045046,-11.04552953269452,-12.012915394293222,-14.769482006527484,-13.070124204343283,-5.802584267269894,-14.156358142678169,-16.07761695448358,-13.56420584196374,-16.75311552199477
85208,,-12.696697068610394,-6.503916917312655,-12.826448481182426,-9.945155338966192,-11.510317934467931,-10.11633477093591,-14.176100014462046,-11.772600272158677,-9.933967164492833,-2.2708253751467917,-13.378277060605262,-13.416546127137872,-13.309325577943056,-16.535392128474818
85458,,-14.038856758090938,-7.025027235162052,-14.388562355294532,-11.324710603162895,-12.070093822209165,-10.825895604743929,-14.154134791145704,-13.373066745366826,-12.461739420691291,-3.235391291988868,-15.058490082669152,-11.582980061980066,-15.90655657866833,-15.811581390784422
85707,,-14.35245656442336,-10.214757208010996,-14.506043324992726,-10.28990201195228,-12.327948728683932,-14.506113435263186,-14.999972258966244,-17.932130568302803,-11.7844580181026,-4.459592931580562,-15.173043772210285,-13.74941396564499,-17.17311331191452,-16.36378157747413
85957,,-15.832530018802991,-7.848916140759846,-14.70727571874627,-12.781782710615593,-15.325260964593475,-11.627187050489308,-14.17219123612801,-16.208584746760675,-13.607023825211895,-2.910184788657906,-4.726598391939906,-13.140643688084864,-13.958013792125604,-15.03103315882394
86207,,-14.539829990278545,-8.071887803108101,-15.10637120980988,-10.661500031849238,-13.271260866225198,-9.9101308818202,-11.292517168908354,-12.612207271312794,-13.441777589838466,-1.2785582846903285,-2.4358082588651686,-12.426637813405655,-10.208323863057917,-16.14015289050991
86457,,-13.386885257011018,-8.79632533050965,-15.151127426839029,-12.956120005397684,-13.929039328595715,-14.491649089962994,-10.931476037708558,-14.435479154852716,-12.517690548300926,-5.1299843872465045,-9.591508826334564,-14.45763988746546,-8.68549856297887,-16.931532233434787
86707,,-10.607785657528504,-7.840917871735364,-15.29048654848872,-12.131228062617245,-15.841592447173385,-14.557130974314743,-10.917787461602206,-16.625369919755695,-11.82647854399757,-9.820027931467376,-11.882820872668043,-12.05887409861621,-10.506542715013223,-13.888891177136571
86957,,-10.48549316391624,-7.482710968877431,-12.525744563255046,-9.87812845440937,-13.251152364052466,-15.326904765572928,-10.40291139755908,-14.177661428286212,-13.441254115862671,-8.90169786478046,-14.57741053814851,-15.373045129725678,-15.141122097561208,-12.04145577178022
87207,,-11.206183380934158,-10.888562548168892,-11.990356586523404,-10.469197436399323,-13.984571388129456,-16.568222738190745,-12.39339901005765,-14.31204867426468,-11.73520243809811,-7.82186428584096,-14.963072611474146,-16.837497608476312,-14.315421496976873,-14.620552247432204
87457,,-11.504168589440166,-9.205506192629228,-15.449214188776336,-11.60982116088852,-14.839024589328718,-14.381453343032014,-12.17705041861732,-15.16997155472733,-13.075743253334377,-5.429931568434277,-12.028722731494494,-17.909142976383244,-13.102897683229708,-15.422624887869066
87706,,-10.074851016387118,-8.81092206483699,-12.85583290135684,-14.473472676676844,-13.095568340734449,-12.4375377111362,-10.890343800555344,-14.251611190129756,-13.258347625803763,-5.799522298166498,-12.212798702085683,-16.14107477179239,-13.342190209882869,-14.635519341188353
87956,,-9.95901486475875,-6.132414336972217,-13.2851655240602,-17.70730920986623,-13.481346092429307,-11.711941427400468,-11.85903648342327,-13.844306383841884,-14.50210051313661,-6.44099727981285,-13.984198498169745,-14.068737208637303,-13.015272338708046,-15.19911757586874
88206,,-13.031879852465272,-3.808349783347348,-15.898688299120556,-14.21285379805399,-13.0824409687206,-12.51056525115736,-13.80794242062279,-12.171910174166277,-15.358295105597335,-7.694913343438811,-12.385550541197556,-15.40953372607907,-12.17144940693209,-18.11961133033449
88456,,-15.333670020592937,-8.11360988387445,-16.586660068785577,-10.53429674103123,-13.555774914896649,-15.054315860281308,-10.665421680578628,-13.862735131104191,-13.420747199635972,-7.021561381238969,-15.24876633050872,-15.276698688753353,-16.05216819794082,-17.81608342184484
88706,,-13.885884535434998,-9.453766579458788,-18.349971292814647,-13.560094021829592,-12.830002881660093,-15.4425520676355,-11.158642516113728,-13.71245214715496,-14.969339264873412,-7.974200006378358,-14.571465189184014,-14.7995999831345,-13.14705453305826,-18.25656973384889
88956,,-12.317124325156552,-8.098963806336867,-16.15082771080119,-13.67395232656406,-12.591683911350003,-13.799269495508096,-13.304138821819812,-14.924163583435732,-15.877897801881485,-4.061282208108167,-13.18528022972365,-14.32907403663527,-14.144108911237868,-21.36718824965632
89206,,-10.820726290986196,-6.8887660338106125,-17.964711850060873,-12.104095728599184,-13.114665855148498,-10.247311981636743,-13.347952845637083,-17.720096888363393,-14.685728698263668,-2.791928221603244,-15.471094673132455,-11.762370029583051,-13.541800430106177,-18.620206901279577
89456,,-12.0598974220677,-10.424192038976784,-18.67454563996606,-2.952177743423936,-17.12788879122317,-11.268983939462968,-12.79715724989153,-15.408312501778427,-13.261325396071184,-3.365709898720124,-16.355274791088995,-11.681006191862243,-13.884819765093376,-17.94536063506521
89705,,-13.144181412652609,-8.71130529189042,-17.025282412804987,-0.925519146817491,-16.97664352201141,-10.277230885837367,-12.252941959320063,-13.974051158355971,-11.930220937058312,-3.742760576978928,-13.433795121965469,-11.316091653262976,-17.72200603367341,-17.047950849778296
89955,D2,-16.9109341331114,-6.481717177004226,-18.49591155251384,-9.738610415419693,-12.538842317026806,-10.89047691432306,-11.97656844024781,-12.928467997315128,-12.678683978080318,-5.722478241046723,-13.83923536877961,-12.465341337702846,-15.065701657399462,-16.311962694369676
90205,,-17.482216637989552,-9.205161278877991,-20.64160285040276,-16.170470643996918,-11.867331903504676,-10.23615881964551,-7.664089693642023,-11.33151929441134,-13.860252439656204,-5.350133538460388,-13.566101773228654,-12.211497556127837,-13.130837715290577,-14.7779881308053
90455,,-15.481950682557953,-10.526390913165198,-19.310366604259837,-12.334502744483078,-11.46577827338215,-8.553437342959832,-7.393869058312461,-11.754591832327536,-16.827924996047773,-2.063757788804714,-13.075286957827554,-14.822241899955234,-12.73861236148965,-14.946161391170811
90705,,-15.508450867120962,-9.466235739200693,-17.10234483468614,-11.123417062116282,-10.565681171028796,-8.06309764731589,-11.034306960823749,-16.28178633895874,-18.98900567069088,-0.522422064067722,-13.766906349104634,-15.203494985938091,-13.27966751087021,-16.482500325643777
90955,,-13.287852923350004,-10.861541606825453,-17.752001156126475,-13.76387447001182,-13.226405090559028,-9.24753258967427,-13.64869374489638,-18.97260803802279,-14.88831335721323,-0.2106475990292128,-18.166625001147523,-16.317713088937097,-14.660289670336972,-16.02301440540883
91205,,-13.780553330701888,-9.305223282076224,-18.207514991977483,-14.470256023722508,-12.292750923084125,-7.53445115346521,-12.8421313257641,-16.5663890132779,-14.264694282192243,-1.7490309430903317,-17.450992974504583,-13.774955536658538,-14.739790195162865,-17.5609313741699
91455,,-9.433359070104112,-4.728026674813679,-15.423600638503938,-10.37065109438126,-14.59451041034074,-7.336067037235895,-10.108967226416633,-13.120484511436254,-12.568136498512082,-4.25751001692365,-14.501174246340724,-13.681064858422094,-12.702137596859291,-16.698572748757744
91704,,-8.564778235753703,-4.876665381036185,-14.457387580868804,-11.882554368029206,-13.784588051224162,-6.869864261667857,-11.713257941761093,-14.246198976960516,-13.118369625139527,-2.3203761199815136,-14.1417962625773,-15.56015588288329,-12.427985594021676,-15.013787795875857
91954,,-12.122690376886542,-9.541674673107677,-18.233485580373998,-14.963234116006907,-9.830417850542704,-10.11262929538604,-13.582108132483546,-17.70133035641974,-15.715365043045791,-1.638882784118962,-16.31174346274279,-17.091601609918218,-11.660424095810892,-17.730548089498576
92204,,-14.564794457376609,-11.10826237891444,-16.05737611325261,-9.96024016053245,-11.620613848935248,-13.514287655323225,-14.1574595342309,-19.17993288121845,-17.91897864511521,-3.493444319789898,-14.43101113627882,-13.630624409098829,-12.892995746628737,-16.456835504791393
92454,,-13.532433474264996,-13.505291154530529,-13.867527710789185,-7.990122023861751,-13.577974844367231,-10.66936497880941,-11.844054322958806,-17.983518516507175,-16.574282218617803,-5.302165479086658,-13.516101751688298,-12.60193243052482,-12.231892227933775,-16.46404449301511
92704,,-12.57550730984986,-10.718179283147206,-15.039489019906943,-10.30394689318356,-14.675114093062431,-8.879115626767595,-10.922579634121782,-14.559679164423752,-12.437236257799835,-2.548593026751837,-9.565811893041214,-13.096198712589825,-11.50976578738356,-16.45276074065404
92954,,-13.44489178481529,-9.898604551799648,-12.782092014991797,-10.244544392903023,-12.984783004305609,-10.931102615843836,-9.375436908647858,-11.55307928849645,-13.705100937686105,0.9364782860230356,-7.311308688141537,-15.84054168420031,-13.248131813914137,-16.33459584059681
93204,,-13.830356495011287,-11.25705461074739,-12.445211744951326,-13.815210864879807,-14.81582842358722,-10.919154325177354,-9.644095290950377,-12.68526649538101,-13.749684335210612,-1.370936060104702,-12.72795065129786,-14.75246781036186,-11.513586404753893,-13.084507614301648
93454,,-12.358901495593944,-10.094733590211574,-16.2771307545349,-16.313625405499966,-15.669659926272638,-9.71758792284892,-11.705608693720002,-14.662368129454633,-17.024279394836558,-3.7784852390649935,-12.802906812292528,-14.137207355800127,-10.805013704443816,-14.3790649505753
93703,,-11.026988531191437,-7.536205219638596,-15.25198732449949,-15.648240558348888,-15.06602058653823,-8.140220464061436,-11.524959322965843,-13.99328774463789,-18.287469350860917,-1.1424481523676386,-12.65322249373276,-14.581863729172344,-12.650836851213658,-16.745938444217686
93953,,-13.554206648267549,-7.318164717180895,-15.065575641608604,-10.35108599903258,-12.556539154023554,-6.22781491926896,-11.76939862620248,-11.858985508481698,-17.068922912726038,-3.1027990417612568,-14.239675018177907,-13.976973709669496,-12.1966497714614,-16.030538153574533
94203,,-14.660803467007185,-7.920418025347699,-13.089906779944265,-9.50798222398724,-12.602323902545043,-9.876647310061466,-13.278995427578906,-15.674560083114336,-14.27594784535822,-4.277291565054825,-6.60030977603828,-14.958308465935824,-14.574470986760415,-16.559542512187907
94453,,-13.26881985052144,-10.581866222988658,-14.283659547203644,-12.863876549542477,-16.138357685481502,-10.743452118187328,-11.919351079183157,-14.14069794287412,-14.509324154833044,-1.622383121156754,-6.512677246782856,-13.295331141740569,-14.607772695224838,-12.62582675149542
94703,,-11.808748600948904,-9.45995876192675,-16.012242432081536,-14.66926180032753,-14.959160715955836,-8.411613697790228,-12.646093225264082,-13.919234873493512,-14.354435662406528,-0.3018144583945953,-12.860865604358096,-13.254922136470055,-14.602002411650917,-15.28213886872803
94953,,-11.43213622913901,-9.964926063547074,-17.731628026865376,-14.410801842253813,-14.09522900254031,-9.508590204990902,-10.983560851676506,-15.023186932782057,-14.213835288682237,-1.3050248329428835,-13.397186174101318,-13.83927830292202,-14.361373872496518,-18.292649367251915
95203,,-9.474877700317633,-5.540539390304925,-16.312859443026476,-14.26922565220237,-13.974204386602151,-9.05566694190979,-7.406700437595744,-11.866903082041851,-13.3427443235644,-0.8629415853333464,-12.04146564363847,-14.171718060145778,-13.27633392413026,-15.844928951263382
95453,,-11.090036124884591,-4.722569163300458,-15.68967337818832,-14.321476835317352,-11.648413328400023,-9.2726380061984,-8.76240967304409,-10.338671712900544,-9.771707855813348,-1.0391932746977512,-12.007464214435217,-13.242694010571256,-11.351337265229011,-15.333385040907675
95702,,-12.47776862936378,-6.039407359305621,-18.66276354722508,-15.019256324303567,-8.323570723499712,-8.80649345778364,-10.635479442745952,-11.891980998237363,-8.924381050187648,-4.428233206028197,-15.123189323556598,-16.956609314910125,-10.935445206667008,-17.76841714063731
95952,,-10.67444265595733,-5.255117570975948,-18.371737384610626,-11.128200822014696,-9.068480184751998,-8.299349443386406,-9.851525670022056,-13.218957390466938,-10.666032935480963,-3.716113519465027,-16.091335956122222,-15.88041727561863,-11.210871479349656,-19.197518633708228
96202,,-9.76712805088379,-6.769471932127412,-14.196670912746166,-9.56046032864965,-10.521320079728495,-5.439964553720228,-10.275214810589778,-14.194633216057628,-11.991467027658125,-3.968091079650425,-13.900023664209098,-11.745538729336628,-12.094184319854904,-16.27193346536485
96452,,-11.32183240446678,-10.503964063789986,-12.34959845072642,-10.814369242226023,-12.669651782312346,-9.865053620745442,-11.80510475361989,-13.903489917580943,-14.662433718542754,-4.281064894617175,-11.15742159808807,-12.433959968524665,-14.32443331288865,-13.38088854009938
96702,,-11.095167683458811,-10.576173670491746,-15.1188831136714,-10.530724630853596,-9.330062705809762,-12.7706782513534,-12.970534481538367,-14.00005888457516,-14.160641479552943,-4.808954397198195,-11.510806016575073,-15.972728063243885,-10.870058599779885,-13.652109867091538
96952,,-11.53636463981378,-8.827336417449342,-15.789226912680553,-11.557702351028478,-11.144342726309322,-12.7953567284842,-12.418871424950794,-14.305326282532633,-12.218364949335095,-3.3355223043232924,-13.74552410738675,-13.884277599097103,-10.22881532028154,-16.434038568819755
97202,,-11.86080440752743,-7.604058325268874,-12.930483713369243,-9.66161182167504,-10.046759895545566,-9.947260578813896,-14.27340435874671,-14.02552723888703,-11.121887845925809,-4.550311591591051,-14.549362264911208,-13.971931539019309,-12.635015584011956,-16.18072705861645
97452,,-13.41156321020497,-8.635570495941874,-11.740558442599372,-8.276259325382057,-9.367883761661822,-9.401150617038336,-12.614657169391307,-13.630268617257832,-10.19108077601545,-1.713866064885614,-15.228030066704845,-14.107379222627838,-12.99499079265816,-13.46863151382726
97701,,-14.003330694589806,-7.469117277422399,-13.540611004591302,-10.52952580372125,-10.37799427428536,-7.444341425213916,-10.923597738051942,-13.742807762061345,-13.358653622548886,0.8256945697785123,-15.002553555127394,-12.428300964007995,-12.203442107553633,-12.903845957261591
97951,,-7.394791062639864,-5.21455073502395,-12.222967400727589,-8.873266153359156,-10.8907591665465,-7.693732957649438,-11.427905930121522,-13.966449476056656,-11.778114640363636,-0.1547929906174373,-10.875531854301151,-8.608072725421273,-9.468661826242252,-11.838909197273464
98201,,-5.502915343612918,-3.4109718220943126,-11.400151344118068,-9.537476593111018,-10.75857673245176,-7.526445038231952,-11.14697573873212,-14.33732416972461,-11.741483244752814,-0.8564365850640325,-9.500027570636052,-8.28182857846779,-9.7730716621436,-11.841663144755652
98451,,-11.02332661286684,-7.017128684757986,-18.21575030499736,-13.133086077685654,-9.791334261486652,-6.899821227923367,-10.834972715731112,-14.359880442760453,-11.232894332977317,0.4586210369764579,-10.065676440695018,-12.750316817485423,-13.642266859609537,-13.512388291493108
98701,,-11.95189789988396,-9.313828432873494,-15.284685428107569,-11.38590505341462,-11.34002937328022,-6.9116994015419415,-10.229646958393818,-14.012766382156345,-12.93573307020012,0.2268970848127265,-14.651775498907838,-12.185378902190273,-15.65845592662766,-13.276035846770585
98951,,-14.542416749438551,-10.206613823005036,-15.215301007313576,-14.050475931739983,-10.478325713857988,-6.865731233750648,-9.64865012214706,-12.932737713287484,-12.700632557207232,-1.216252688792319,-15.205315102198846,-12.325084876893513,-15.125903776838392,-12.281645504855906
99201,,-14.321713135619325,-13.10054023104419,-13.802242047805978,-13.819024838048136,-11.676897870150633,-8.394157298735118,-11.871893424149818,-14.08657567584677,-17.138364422901095,-0.2580848022144081,-15.14141826230912,-12.49726072807137,-16.05247606630499,-14.055145274559376
99451,,-13.587592495576056,-11.725772411226048,-12.640319091970175,-12.53162699644196,-13.343663344750956,-10.307734311402085,-11.50950500873224,-15.244072451900784,-16.070031041622972,-0.232311678755003,-15.723904746303026,-13.428418766003654,-19.679063165282432,-16.631333720305612
99700,,-12.803711755371795,-8.258567536182621,-12.229930827625658,-11.941967126158598,-9.21007841384976,-8.602068686050275,-11.80906967249148,-15.258885725244973,-15.518566815351264,-1.348359575802149,-16.585977726009716,-14.266694181179616,-18.7760426701196,-16.80515620310675
99950,,-15.168378611708093,-7.892570718541442,-13.37081519330705,-13.692459363191317,-9.487602029828787,-5.937161615071286,-13.888168259890058,-13.57910928956982,-14.897768574624957,-2.694999963974606,-15.746921839763775,-14.282451570784824,-15.437248831364778,-15.126975295138829
100200,,-12.027998551428135,-7.66829856643397,-15.42063517554569,-9.904802663338032,-12.281559260981556,-7.199615616305499,-10.806625942962263,-11.24838380512504,-13.132046157818792,-3.4925718790649003,-14.309687509789104,-10.647473405573226,-15.08794184695313,-12.09762874852139
100450,,-15.21696570066594,-8.37394895104976,-16.254538598178087,-10.469035986135788,-13.936435448969888,-9.239334258055818,-9.312212079473031,-12.8705166377784,-14.253672870283234,-5.710517366820657,-13.076643804468508,-11.829618686242336,-19.226243447483537,-13.617003729641922
100700,,-17.006654387602588,-7.29709153166088,-17.907862112554074,-13.123077796327989,-10.19646738246487,-6.675450634483151,-12.560977982282962,-14.589886266248058,-12.182775156538066,-5.046979534741257,-15.667220131794238,-12.024813816001789,-18.164973630610856,-16.2001185815278
100950,,-13.137851491098836,-8.215978952224011,-15.26679592459981,-12.699682577623577,-13.057813232059887,-8.085325578808938,-13.773484254251594,-14.204970266188292,-13.052851738295914,-6.878326949007731,-17.12451928315227,-12.431029542606083,-16.919978739829936,-13.926203968620772
101200,,-13.912149171258829,-10.541781220077356,-12.807007116574368,-11.6259737149383,-13.23814357098761,-10.159273456175246,-15.387509006823349,-14.82866819991592,-14.949759220054371,-8.85142512566665,-15.463979514036598,-13.552106354018424,-18.1931390457467,-14.810536522632528
101450,,-14.847725285557411,-11.242470083495974,-9.992247829190704,-13.533285178000856,-11.038233038917504,-8.83542033195014,-13.354420873911444,-15.37500533281717,-13.247177776758054,-5.108389317094504,-13.651090783627946,-14.141964828794825,-17.808277866497278,-16.213278548528628
101699,,-14.94843192289972,-10.150813423748122,-9.897518258318335,-11.794723631242013,-7.679950040868031,-5.836600417284633,-11.715735094868672,-13.6615467376847,-13.592906831904529,-0.6335207268252253,-14.571103766785146,-12.83236592857509,-13.760864087976143,-12.58120688148376
101949,,-12.94945771583249,-8.405231285877342,-13.145105320878235,-12.887480662062394,-11.127971669870554,-6.499283319391673,-9.98817717319952,-14.55579635366579,-14.898659129446584,-2.375720456736825,-11.119516030101558,-13.115470486936546,-12.362591211347178,-12.491447602454825
102199,,-13.247897385926777,-6.6141943514516335,-14.15708961796485,-10.864277842201297,-13.159498310423174,-7.761274376646755,-10.894188270254269,-16.172454967847433,-15.064847577841691,-5.090343942903237,-9.324141988808606,-11.389355150372236,-15.810221476294773,-14.79204779093785
102449,,-15.487798439224784,-8.025752618550957,-14.321474950432831,-11.214757098833209,-10.45889670923759,-9.765770663588125,-10.557301425938634,-18.11221041177608,-13.142295370047895,-5.6668141285954565,-11.94376008632977,-11.305424652873274,-17.558524361579217,-16.687987918851412
102699,,-13.055421251785086,-7.481805293159115,-16.532985452929854,-12.737527830709228,-11.173370237886315,-7.801063451805361,-13.1686623749703,-15.142644516543754,-11.972509159444858,-3.5821959991288,-15.254642538485117,-11.763229462617808,-16.992376445053747,-16.962066088776876
102949,,-13.654021409889207,-5.177284664688056,-16.85879136449327,-11.499346366314128,-13.61305075523738,-11.475636499135325,-14.632674427696756,-15.912751060757753,-14.539085647769252,-5.4033699528770365,-13.617612032993309,-11.120988770488411,-13.198653101832754,-15.597080835975088
103199,,-15.158308159319652,-5.089046133895612,-14.742611660552674,-10.536265355224817,-11.204140990687488,-14.317503493695485,-15.746884879257877,-15.99378834839836,-12.7303753946614,-5.491542204139988,-15.172518051588533,-14.673100512848016,-11.589103485395007,-14.84977468533403
103449,,-14.602331479147182,-7.383435128832007,-13.622135145145798,-13.57639706934481,-8.902274947717313,-13.00320411411002,-14.413427010929404,-15.779761348949531,-13.676657720501506,-1.866538147210662,-13.417649336536766,-14.607580951226476,-12.497800827826822,-15.502868921908108
103698,,-13.894930764872273,-7.051031275115959,-15.1904470304543,-9.06219388679819,-9.367543702715658,-10.083754576449316,-14.273868025369062,-16.057026028672976,-15.02784205842516,0.2156549947454655,-13.501519498618132,-15.592536630880572,-15.831497149982871,-17.030663639335
103948,,-13.235114330954428,-4.697741420153678,-13.52547478402784,-7.95895101106118,-10.503689679877668,-7.327180087279946,-16.485771501853183,-15.825142025786432,-15.674470463595648,-0.1802353262891597,-14.775364416877007,-12.91060558512786,-13.877453433533738,-18.14050284204176
104198,,-14.40801064022229,-7.037598702270422,-14.980838840180583,-10.574323773349366,-11.686911984062826,-7.495380680980079,-15.77611114121703,-14.03604649788428,-16.06137411762805,-3.6848049698435705,-16.535984102897885,-11.094988377823562,-12.868428283067145,-17.676599034007744
104448,,-15.502698503299822,-8.511512867809072,-16.249895504629592,-9.572048673846592,-11.542933861732244,-9.634403034660735,-13.907568043364355,-13.874216145556682,-15.742522760976716,-3.2154595188009423,-16.389037732306427,-13.56350294155755,-15.0230146925926,-15.522886653443368
104698,,-14.53528426770002,-7.3738052012430195,-14.204616601011775,-12.136051527049371,-14.405186795908351,-12.164874994648036,-10.196335883876614,-11.655803720666754,-11.516185393953933,-2.303514403885675,-14.045470074014943,-14.865753029327548,-12.654358417672585,-16.034785328118737
104948,,-15.783347140316703,-6.69326713298693,-14.427794234181048,-9.35994721394341,-13.518941391002135,-11.467362131796342,-10.710499167509957,-13.748313132381076,-11.597039121784842,-2.4477395044605266,-13.563820286337362,-13.124086028070996,-13.655917149580512,-12.54381637327054
105198,,-13.100834706181056,-9.21601606773284,-16.694504341766763,-7.064861347314482,-12.012753055880864,-9.793615388038212,-13.160155911420388,-15.038291002054615,-13.12451585435264,-0.2662169416612165,-11.667870579622369,-14.370590012221388,-14.9141222395881,-12.303510578689473
105448,,-12.327555259375467,-5.109709013680684,-16.697107405625264,-10.586074199929485,-11.90556178917369,-10.372284105507234,-16.365884919948396,-14.682858762505608,-11.84725363380206,-2.950030183189713,-11.801339786294792,-15.692187832231854,-14.561463764164673,-12.823885201536864
105697,,-12.494605747061096,-5.669389843062166,-15.449298731658551,-11.256468899916046,-11.614145924707024,-11.365121180958653,-16.661083590430014,-16.407263962334053,-13.320917323946698,-7.478203659001128,-15.976861719295346,-16.10421554280762,-16.92367914221481,-16.602068717705606
105947,,-11.665860257221915,-7.111409791544996,-14.324508673526095,-12.43866835289781,-10.073677854131995,-10.69262369820181,-10.536767236695669,-16.370321186240066,-14.081816549455548,-3.300659746091009,-20.779450257885262,-16.472539446078894,-17.372787067222436,-13.320582037159474
106197,,-15.68739711406362,-7.086225392502582,-13.485344817607714,-12.669210184972007,-15.315944096157866,-11.54518415154784,-9.251604144938431,-14.610603721086582,-13.402092667176856,-3.667874797581508,-18.040336990673666,-14.81315986154619,-11.148972660481514,-10.479608154919156
106447,,-15.077047279737732,-7.128049209809015,-15.588769507022196,-12.747807887062176,-15.395882758732904,-10.92710994168466,-11.176863089516102,-13.797555745378736,-12.531883014686224,-2.882867495750889,-16.603986437824517,-14.542312561239743,-9.82174100712156,-10.837790335097488
