timecode,event,eeg.af3,eeg.f7,eeg.f3,eeg.fc5,eeg.t7,eeg.p7,eeg.o1,eeg.o2,eeg.p8,eeg.t8,eeg.fc6,eeg.f4,eeg.f8,eeg.af4
0,,-4.697109191526247,1.5680123711607408,-11.077797138380792,-8.147441315096708,-1.9330388160820051,1.797025031431887,1.0210760606394045,-7.779981855587996,-3.136359018507045,9.26243613835745,-2.4985342935684454,-3.342514730947632,-2.507769020830926,-10.545973560856376
250,,-4.479027295882538,0.0506855887720367,-9.040835487617665,-2.941810831969173,-3.793853535445784,-1.702505139205419,-2.2543843701179824,-3.9208670683895255,-2.5075266867722585,10.914162845509722,-4.698941755986303,-4.314468502023812,-1.4954602326768571,-6.638708491374128
500,,-5.10018223936835,-1.917371390416061,-7.101306028356815,0.0570761557450815,-5.523355773278125,3.31887050065647,-0.2059122757561482,-3.11682708784397,-4.5728909152684905,8.972048974916158,-2.295305792189573,-2.8868846385749314,0.2056118676042831,-7.629844936448327
750,,-12.305338780525812,1.5572729664690386,-4.915680819081624,-0.616224740428085,-5.5325472967340605,3.380399019902364,0.6614748634525586,-3.380523372274028,-3.0607951979134853,4.831248387811461,-3.638776528438447,-2.9678106017653456,-4.986762399053744,-8.835617505444489
1000,,-7.676036624876662,-0.5102667051045422,-3.559772603104962,-3.9775348991665407,-5.268753237679411,-0.6502901142383783,-0.3270588393584587,-2.620148176329419,-4.697758262084023,4.799666590329367,-6.166674154597992,-1.6386836160624862,-4.301431598593586,-8.077148556408595
1249,,-7.7607531840179,-2.962109353838505,-6.291713185945529,-4.061646494774517,-11.182133280326152,0.0680918519850785,-0.6469394250618248,-4.056096258288046,-4.829176178799126,4.849280577510334,-3.0963010045166195,-2.763967067504693,-3.302002376238464,-6.353023628775791
1499,,-1.788084443879166,-0.4621979338416479,-7.615605901833668,0.3933963747274259,-3.6429307725153945,-0.2181962878314173,-1.673794145455179,-4.5113888312349575,-6.169392294987617,4.758114762473327,-5.454742010901173,-1.420714841156598,-1.1115070719518962,-4.678914456739491
1749,,-1.9369257878591188,-0.1974857564293028,-5.4153731384995885,-2.76471926065327,-2.056688426431255,2.6265348441314043,2.990699876696707,-4.148552530176443,-5.208507500530023,3.6674865476252574,-4.600730316770677,0.421187403651547,-3.1151828490186952,-2.4781908165180506
1999,,-8.268196256658154,-0.3808180163426676,-4.262106292406928,-5.35142494723252,-3.8710415786621306,-0.0185065819068386,-0.4752266835627144,-5.58135936620031,-1.2538803032915582,8.417319882693535,-3.287483762655815,-1.7602858936364472,-3.097257812550951,-7.008623680947283
2249,,-9.156731268873248,-0.5042579950539882,-9.816231405135316,-3.3839407065482767,-3.591761536400578,0.9960206241740648,-4.719818760759819,-3.286924766562398,1.7856778749947582,9.417990147243998,-2.245986499538864,-2.2118072070536026,-2.1325790544353183,-11.608180996079442
2499,,-12.085439291688113,-0.2067998931292162,-11.051358449681809,-5.871492161308716,-0.2131600472171753,2.72669857527242,-4.267845818328025,-3.502669364650186,-0.6200343914141812,7.859579033070857,-1.9369931755933536,-4.627510592245565,-2.80117445088033,-8.979272393063267
2749,,-3.79944268467908,-2.4052946858209845,-11.691113751376935,-8.489125138240425,-3.578028921324589,1.945012914894397,-2.446352628532428,-6.023354963481201,-6.886406987662559,3.6921154402584233,-0.711408483963792,-4.204292865274447,-4.566149791501354,-8.112586362293584
2999,,-0.7755854418244956,-0.4787956220478835,-10.41549978916768,-8.045478944718257,-3.383155502697881,0.4493066222329672,2.41341080475,-5.542612866144728,-4.911406873859795,6.801749644006359,-2.595459845680227,-1.9791556692019057,-6.422363104705281,-13.734577581286375
3248,,-5.030695087429998,-0.491733366249712,-10.80978490569594,-6.509256316509951,-6.10967466369778,2.0942354223873965,3.2294817368894844,-4.637315402754604,-5.138243971158916,6.099040132191562,-5.552392162686239,-4.2628713119250685,-5.7362162156450704,-13.808716939954948
3498,,-6.568891995203381,-1.8830172790563595,-8.67052927050264,-3.0502877532440413,-4.462677049156191,3.594252340254656,1.528245479206725,-2.517772784112956,-2.70108564565359,5.108066486704546,-7.150840202762208,-5.621081629003619,-4.041082276536266,-12.714890842016434
3748,,-3.3782336559155364,0.4556629284746824,-5.486647376933815,-1.3068735636252635,1.6015462369549571,4.934420896421229,-0.5547790574356813,-3.2326240672301845,-2.905135490455165,4.122910742267626,-4.4726624591862665,-6.506463506987173,-1.6119638296411167,-11.8082986540293
3998,,-1.5949259311244133,-0.2548765862977404,-2.5969923570721694,-0.1251540924362372,-0.5791931372749493,1.0803493718263664,1.904220501672265,-1.9363840561655925,-2.811231941707757,6.301147919903772,-1.1267199657373013,-5.991235634488209,-0.9734997688894216,-8.180870314304101
4248,,-4.237313217498098,1.6939289894451026,-2.5226797825657976,-0.1812766630710765,2.623432324601762,1.4132314140105504,1.8564216853779203,-2.05404686294297,-2.0379207387838294,11.503559243481966,-1.9611367533830664,-3.67287551780346,-2.027423917954895,-2.802390260582774
4498,,-2.6903957266859093,3.23251475730209,-4.0557433180868045,2.2431047349411823,2.396628472917877,1.0509574752446,-3.1196318687317524,-7.89639534213542,-6.219445427016327,11.78256136193654,-4.49591811561258,-4.625790687843055,-3.426223425406664,-2.5576441377793997
4748,,-1.719105808007434,1.3357320192684228,-6.416832425799885,-1.1209248992458645,-2.7809968375570238,-1.6393824272656228,-6.175256695323897,-10.481652482161913,-5.022467220823216,1.6740314981212392,-6.88915094425912,-2.987297409441851,-2.230615989144943,-9.886749434777943
4998,,-3.235203267294158,0.2984836597317039,-7.946537261220753,-5.078614103619207,-5.204069227052073,-0.8336071560432851,-2.4599942925109146,-4.7140863416006855,-3.481502941976361,3.663444729331823,-5.1440246017687885,-4.0908315654030485,-2.73967976091154,-7.395662864714345
5247,,-4.546738555909561,-0.4790159073248977,-5.734894228741543,-3.599285940061696,-5.518814776478711,-0.8933805337397615,-3.099230479861213,-4.165010746228916,-6.5261805624777205,8.915457765416292,-6.035940916349007,-6.0783219042180106,-3.726389038532656,-5.238049880871689
5497,,-7.638364710135182,2.388759171207091,-3.759118437749545,-1.6371644853657514,-6.473438466328249,0.7534080299885653,-4.047441623527342,-4.177250639900933,-1.9272290791998612,9.247734234493034,-1.1947571747019643,-5.979226990614276,-1.5221099580256867,-8.723586886457449
5747,,-2.6093478265808203,0.0478359287550203,-5.511578073058148,-6.185149334057743,-1.801555095978832,-3.8503916975631065,-2.205326833571008,-5.935088806712416,-3.014394318166924,6.821288097694975,-0.013899853092565,-5.164638910326195,-3.295494582118299,-2.8435530922713297
5997,,-2.3601352193291474,-3.628354688869471,-2.717363743910864,-8.364462842778169,-2.167581738256096,-0.7727094356717608,-4.643735075999952,-3.6157040064854185,-0.6401031797568526,2.845500233352128,-5.426980065024589,-4.40074851896206,-5.622538826788422,2.143259056253697
6247,,-6.76873544028306,-0.0800288666840374,-4.649782547655361,-4.966260947986996,-5.834975522247924,0.6826105499810768,-5.032146088859538,-1.9872041163497232,1.1261787164282049,8.313555610301943,-8.058275592147318,-5.446809711204983,-9.140000946219333,-3.2691643934485604
6497,,-10.34830725626695,0.7405482699244064,-7.629387990368817,-6.306790871110053,-1.8273098819912,-3.708935969554278,-3.891905285780041,-1.5100841680156756,0.5058436843218773,7.717079295329665,-6.638095221328372,-5.828314328110093,-4.572883461591504,-7.973858737998979
6747,,-5.096940056697441,0.8396350828091048,-11.28173670641436,-5.11174808942453,-0.3628568652721844,-6.063162619839049,-2.230900234357969,0.4172724585230629,2.3741202759026034,5.404000937863591,-6.94595421009007,-5.110702184277612,-3.906039794759054,-5.716415591155314
6997,,-1.92027582192307,0.0244119211829294,-11.927692973040449,-5.19664571945362,-3.501359028561443,-3.5320378910339723,-2.184636388441458,-3.89562998853024,-1.3395609048388346,5.91761238857978,-4.695529953489265,-4.464900835559106,-4.410237483761707,-8.24344586470822
7246,,-6.5696561559331,-2.362115476585613,-10.782039365856305,-4.409677252096263,-0.7728790316543556,-1.7311625902981278,-4.25054469486036,-4.339554717982423,-2.6454343653963317,8.36778935798585,-5.628291173166239,-3.830579281831696,-1.0561647351215144,-5.710340328664194
7496,,-2.186981434192369,-2.474980122608589,-9.347488546521818,-2.548946211070309,-1.2344367211709903,-1.907199752184168,-4.659830702827425,-5.12979402652144,-3.0546009102218417,9.991110552737087,-4.769397969627924,-6.123782692937474,-3.1661212442800664,-3.5798865786653007
7746,,-3.168555520792581,-3.0324959848749424,-6.744125526161908,-1.996255722434865,-1.9619292138201436,0.4322753534689206,-4.677180410011415,-3.31090693661468,-1.0994978539590186,8.259472405909275,-3.5227996180508154,-5.727266852359554,-2.742793080366736,-7.17048916360786
7996,,-9.443300771272416,-2.8171975520897607,-12.152230781764931,-2.515798427173746,-0.3454629888620869,-1.022077881624923,-4.2803494262589865,-1.5491186551421632,1.261407027614344,4.64813307657884,-5.993289761818738,-4.706866338035868,-0.6473413818980647,-9.9681077161216
8246,,-7.016196360952577,-1.2842880571578366,-10.375077302468668,-3.06489879368953,-0.8497479766348536,-3.555880953994465,-2.289323238848999,-3.3418183970394235,-0.0329953848325879,5.562157148919882,-7.231367919816149,-8.462920017616986,-3.042458409606164,-8.548667168935333
8496,,-1.0246378920511785,-0.4673336206189845,-2.1215918180933824,-1.0588777049898976,-5.801383973564899,0.7030034768974723,-3.040629994126837,-3.3358681621715607,0.8694016469793865,5.199460006201805,-5.880440300340527,-7.355607248441551,-1.7839232978877146,-3.7284237329393344
8746,,6.204949104080746,4.241784571281415,3.502697797623511,1.9458226913483236,-3.9124820248624874,1.1016885258879907,-7.001886739070638,-3.548511280436169,-0.200357133259976,9.113186601157777,-2.495813491258438,-4.837078979811857,-0.1516516245809717,1.971231310015844
8996,,2.8652591830294187,0.3279932987845276,-0.020786865262328,-0.9468908527476536,-0.3672794626218738,0.501350859988394,-4.971264618669721,-3.4320268788632147,-1.3757951869052911,11.055919772364955,-3.487537425347881,-3.146778215044701,-5.232696910646778,-0.6654496652791007
9245,,-3.731684717911752,0.3430469719681098,-3.983410037275216,-1.8616501647822747,-0.7866815453869411,-1.004495338120213,-2.9833921552351352,-3.1593146482988126,-2.4685478289729064,9.612685987697668,-6.374909798679057,-4.524130994674128,-4.697357616875989,-4.210759520433643
9495,,-4.856508743764047,-0.6780550473883675,-5.071161413692593,-4.135795810676606,-2.1244223431288223,-2.5301667887971986,-6.986354307343005,-3.791560444098321,-2.208940945870132,10.02115794550076,-11.458388236627815,-3.484794929938504,-5.881174424519115,-7.683037811999267
9745,,-5.655382200139084,-3.3852178477927666,-8.744152956369875,-5.486928863325062,-2.5668127826187748,1.7715012104473882,-4.613535068659974,-3.408472559307738,-1.5199446718444356,8.48366214582899,-12.321294696809492,-2.729901064652196,-7.054038035286637,-6.349013790878036
9995,,-3.884262790242088,-0.1216630512911719,-7.980023381738098,-6.079076940774465,-2.7162463929240195,2.090773006714878,-2.235942232017468,-5.422464814969875,-0.6385593266769651,3.693204785668653,-11.299811721524357,-3.127092602100052,-8.380293663287551,-6.662449930431718
10245,,-1.8944095689641784,-1.6362302332418572,-5.666979379953404,-1.9800474398936885,-2.1986705678159795,0.6535273088891601,-1.7116308638271904,-3.136694567427069,-0.9481430513474044,0.7650832671728864,-0.7593555960067739,-4.581672739773534,-6.033510247616192,-7.235327074246549
10495,,-0.3339351088095344,-0.1871604351192289,-7.5030301621476925,0.6336775501237293,0.3028568356655391,2.218990930066465,-2.258452026604371,-0.7338013958818528,-1.4823814815298983,5.806591288099005,1.887147620052732,-1.2983543964441548,-4.572808125734788,-5.211502382223886
10745,,-3.259732415885219,-0.2824314053059378,-4.08491233360167,-0.2135910470000608,0.0559734383181984,-1.802778367534887,-1.8884236632103657,-1.6693416530979182,0.7286206541153133,7.860344663102753,-0.8908129442629577,-2.8824133912107417,-5.1571339664770655,-6.715950447545626
10995,,-2.360401074091797,-2.31490648645543,-5.043659146217068,-0.2680967916135649,1.8068114426776671,1.6223391119003672,-0.0440555860080729,-3.882887608495021,-2.4773713340467225,5.710219614846196,-1.855920531816924,-0.931735041839657,-3.701894089437338,-8.405766439525252
11244,,-4.7988193869819735,-1.2300635153605042,-7.170326001328662,-3.77823113335422,-1.9187636135295656,1.5165492252183854,1.195199495697896,-6.105416857285042,-6.248768392638928,4.2911975265532405,-1.4813245718448735,1.8023578155358777,-4.704414035614874,-6.938907372753022
11494,,-5.02555917809866,-1.4087333685973218,-7.099027898936394,-2.376387388915576,-7.755699185394594,-0.0114503772214097,-2.013894707808783,-2.4561707993347803,-0.9272862215304464,5.713977101618002,-2.237134360936857,-4.687864163572078,-7.013754752318966,-7.266318973054195
11744,,-0.96459567227488,-0.2900757438846383,-4.183276156561014,-2.1599066030211693,-2.0023484339277813,-1.7807265006722846,-1.6225288295322655,-3.493505274069124,-0.96341325026702,5.5752062337194666,-2.931311854096084,-6.093850963764358,-3.8509527050476233,-5.349078016267162
11994,,-2.02054658479857,4.296669754189801,-6.108994941893293,-2.342672324686128,-3.0422882588747404,-3.114279918696395,-0.6437722839573026,0.4219278284244835,0.7460167673629421,7.91898706901173,-2.2529837714440646,-2.373268964688647,-0.6744819465457312,-4.765938425184866
12244,,-2.303151783665051,3.975832550069232,-4.3755455115304045,2.4939568478306238,-0.6911712917954096,2.8456979968700544,-1.3577201385446718,3.11541658470457,3.150311189131512,8.961038331403437,-2.380198271389019,-0.0580830751822478,-3.436082190144272,-5.180989676098372
12494,,-3.0862795701975667,-2.091217069109204,-1.1169958757885694,2.466815498939084,-1.643432862384429,3.350672141650578,-0.7374471006651427,-1.3878665978854094,0.7849147219999347,10.708492231069746,-1.90458658146312,-3.3304266281375328,-2.647225052231117,-2.956787886993367
12744,,-5.416316512932707,-1.2830320188135638,-1.8570217160329787,0.723269031552979,-3.292380305740509,0.419980256464228,-2.16083179575575,-4.278027463005181,1.5948177987890957,11.565853284544245,-2.339978460664794,-6.162218498367908,-2.925011740419607,-3.695536983144813
12994,,-3.544005908541654,2.967244321217469,-5.6966508957152335,2.033241471848781,-1.763118447936331,2.49371879384427,-0.2615044640612305,-7.331318624339801,-0.7299683381406107,11.864786999552551,-1.189896674572626,-1.2436474467777838,-4.689838567541983,-8.783425971158623
13243,,-0.0125747313696732,3.0503146919270496,-4.657325967971162,0.7743690743441,0.8320256936304773,3.05479152958482,0.2915906912443818,0.3851057069645219,3.273550681484569,11.218139538464744,-1.4596254529618535,0.5703009201403134,-3.958594825641137,-6.202163387158928
13493,,-2.2407910133286757,-0.401367906456582,-6.818120025973564,-2.9851392443444587,1.9736865144247695,2.128899331718894,-1.467426194771852,1.767770017639574,2.478355935743409,7.975906687928988,-2.406096158926053,-1.4508879893947912,-5.190592694576505,-6.940506463560282
13743,,-1.065211381218489,2.7015714008769325,-8.224593114306309,-2.9812275148703566,-0.0807724291577515,-0.2987137063979069,-3.503020649585023,-1.4424577288004172,0.8680975947432489,9.446040582717526,-1.089058918554431,-3.21887922656769,-7.398181193119877,-8.64907764386072
13993,,-0.0007113188766647,4.270022498568995,-2.99812639625511,-0.7481222363245374,0.3488557611718534,2.7730466791074635,-2.6120847139938435,-4.834574786055183,-1.0303250993362827,10.821002418211735,-3.4746734620741595,0.9956725755815778,-7.160088189603416,-2.938280466243741
14243,,-1.4420390779271783,5.692926207994495,-0.3528254534035948,-0.2483554093940741,0.1052828930617259,0.8252857712441173,1.7984421073268109,-0.4395630959614032,-1.4149596185151267,6.498051285307658,-1.106614099055942,0.7971977203143914,-4.567443039391705,-1.933207100116923
14493,,-4.341325285927884,4.999181212243029,-1.5373972673475058,-0.0581807322006173,-0.3451133058016351,-3.1252597881532256,3.173140177443312,1.5800289632173017,-0.6988052234455189,4.559348186238098,-0.2445656824497112,-1.8015909073482028,-4.983564312368013,-1.5698366664421155
14743,,-5.08739609808843,3.315337313016584,-7.268315006515884,-2.877447030962017,-1.2170811918202125,0.6200065437190377,0.592752092055462,-2.115479532841426,-0.0330026677399314,3.7844657487622473,-3.728528251028469,0.0423719825135093,-3.2448140143391804,-4.246529812012145
14993,,-5.1643526745726405,4.345098269701609,-9.011184869092103,-1.5999490261935616,0.1420627525501632,-1.357334632203232,0.0147261479753085,-5.220589705098607,-3.9626763151080895,6.567523372388705,-5.448852726176142,-0.5917438296169566,-2.9613247073595166,-6.284747729289166
15242,,-2.0500983102204358,2.5546395670093403,-9.101208934423845,-1.42292283239404,-2.346610582742394,-0.3132671718866624,-3.363728261680793,-5.670207837649719,-6.398282669866511,4.77398197386631,-10.466026924208256,-4.761272830946134,-6.383071585065528,-12.365563478017874
15492,,-2.4506889847310065,-2.313608603255239,-7.520127023596501,-0.6783616140722043,-8.416871530912688,2.498655659264552,-1.9089845423144167,-5.266935914063106,-2.4994767556829327,8.816107016810694,-6.218600255737549,-9.899094328883807,-7.590756987103876,-10.704198642019236
15742,,-6.365428988871638,-2.8481553364484884,-12.228085860470843,-2.4298376262676995,-6.351190977278273,-0.2041896104115564,-2.2841434163307217,-0.3983651091351653,-0.003205543655101,7.762303583737068,-3.403339698303678,-8.859380560424713,-4.2019082727822425,-8.012434304140324
15992,,-4.562417430836781,0.2176628322816017,-10.399361729194103,-4.028047278978734,-0.2378086098982238,-1.021412716004935,-3.755139919104829,0.1912015943429943,3.186770281912251,5.920739050027772,-1.302071276574772,-5.755123712911069,-2.835935515584604,-8.876372356384298
16242,,-3.319767647326106,-1.069859054719376,-10.112360471864823,2.3807407577605355,0.5027940511083483,-4.743080501305041,0.7927339777316735,-1.390116362630482,2.411826740282829,7.321805107691741,1.6028939503153636,-2.7012739879386043,-5.943743282782811,-6.285319915977761
16492,,-4.645854442867496,-4.5623402394009736,-8.758703094360708,2.4755176095709057,-2.3312011653831286,-3.29799502916856,0.9627345423331368,-5.330197257592277,1.99479608356852,7.220309013830911,-0.2791967879645031,-5.002330590488207,-8.580585931194166,-6.912026732875867
16742,,-2.749275015190362,-1.958461078154773,-4.729416709725161,-1.946418772566396,-6.271469518156707,1.3806950675037035,-2.939880485512626,-6.279869821815145,-4.031711054494426,8.295311470265998,-0.9238338264966588,-2.5627806229325607,-6.592465315221977,-8.259905835331052
16992,,-0.1477449941466707,-0.3598440341217561,-6.0809612565648745,-6.437911207573222,-7.707429771941676,0.6480627276551516,-0.978151973073403,-2.1629702169788847,-3.786676140981236,11.569925902713678,0.0230597516339672,-1.133627638967006,-1.1683244901973122,-5.439213076043029
17241,,-1.4611502964162673,-2.1109904422125143,-6.5439513753284215,-4.539490466191154,-5.755438732881633,-1.2977955945943656,-0.1457039080715908,-1.6799608005216706,-3.109602473415165,11.4654649330946,1.074294892610559,-0.4110167665327104,1.549643030641141,-5.095795069456552
17491,,-3.0296226095713523,-1.5757060555064106,-5.684970197428414,-5.9278162263513146,-3.339823224459382,-4.802194412252364,0.0418883149298632,-3.227209540882991,-2.794922837998814,5.693935565578492,-3.3601188223132024,-1.9856202747571945,-3.7245466536908896,-5.211123375266059
17741,,-4.795421914976626,-0.836921362482449,-2.996374738771517,-7.364501845340606,-5.385464328532806,-3.303639646157344,-1.2334377127477851,-1.9898860989381568,-0.1387246993337602,4.994909631971119,-6.531161458665994,-1.6506860182653094,-5.109147553607895,-2.67895214202181
17991,,-5.698836704491871,0.6850040992215376,-3.4241768176413645,-5.089941189344437,-1.5631147052436298,1.5649182056933273,-4.907801176263168,-2.682921351320421,-1.0573177198394852,8.751024187986806,-7.417298622495179,-2.6790108222279074,-8.737399978433771,-5.83836609000395
18241,,-7.459099641237028,1.887430107749553,-4.170756966279628,-1.6434789524138729,-1.7917753479192056,1.4538107194814698,-1.2680635535637317,-1.573332545480736,2.218182564243622,10.772682985183923,-4.76594179414314,-1.9839750418869817,-5.897828565373903,-7.485306756488783
18491,,-4.502867354823807,4.77633414696297,-6.877992827286628,1.2990284341666845,-3.5922712490244653,-2.567363036790326,-0.3309466674747675,-3.792199258276896,2.4019418161516155,7.836344327098185,-1.2729975234858024,-0.9846762808342086,-5.414122755132266,-6.263018794454768
18741,,0.0749114017696574,6.505395955698471,-2.407738001378486,1.5422537319245886,-4.3970022697139255,2.6681158634890405,0.8634627109911222,-2.9107640897402294,-0.9224451382412882,5.4907708083155775,-0.5328328821262494,2.1875564819908986,-7.971541538420812,-8.02545395576793
18991,,-0.9348173720601244,2.3226904502844468,-1.066013739967401,7.386772900575284,-5.160161466082689,5.287909648513258,-1.0936902793499028,0.9752126733411994,-0.3506009562172715,8.23382420998583,-5.650197441852136,1.6454452064694924,-7.2757911863766385,-8.779557304287124
19240,,1.7682909929218338,2.465206105170978,-3.8107559011971857,6.389660401464484,-4.698214458428751,2.4942072140250717,-2.440625130397644,-0.5310316014779436,-0.3710817438738885,6.796980772710088,-5.586222756026712,-2.3401179625582,-6.652825394457946,-4.470147492607386
19490,,-0.1540898424738859,3.5624788040043462,-3.584311413660226,1.7294862121282817,0.6954710647307814,-0.7141863441047841,-2.9037572707737174,-1.6013186071464716,-1.7199829360368275,7.155914262021125,-4.734746986721271,-5.660630840632046,-7.369789310436411,-4.513712651092419
19740,,-6.631193673170578,4.737410150309725,-3.079882123119492,1.253539514638905,-0.2861335110793727,1.5207968661657705,-3.361523847617931,-3.8155324961935855,-6.029097675493411,7.90355523794126,-3.8913848218927183,-2.7403536311490644,-5.407833449106017,-5.550705914437999
19990,,-8.370378946086568,-1.6451447950954798,-5.635829944943724,-2.5458106512503864,-3.3092900871695967,-0.5121571312889762,-5.222599539546735,-7.863710734218871,-1.7063317467287322,6.246387860309385,-5.207021125322449,-2.6678471326071875,-3.974771944603999,-7.735931171387188
20240,,-5.378481285417704,1.8717580565492848,-1.1621575276594205,-1.2668316351104656,-3.487758311982762,0.2674194128673455,-4.39986330031609,-4.223475207640957,-0.8997026035677819,6.228120156480889,-1.6985485487277738,-3.854396139517544,-2.1300474465161345,-8.013425749046226
20490,,-4.484810372776228,6.021494007372448,-1.6640121678733075,0.4949482157380017,-3.451589108224502,-2.021127638420211,-1.9159951783795337,-1.684832877291015,-2.176746781528646,8.486067100353846,-4.344402104187078,-0.7193743238026296,-3.753366747739947,-5.172206894101839
20740,,-3.856595975797146,4.6812561510030015,-8.530026775181483,3.307592942309621,-3.171032301367085,-3.234278003090381,-2.806775604669885,-3.8591993037654926,-5.28136869123291,9.832428971195624,-2.7862635073692315,-1.4421509063265427,-3.50224543932777,-4.906339617991338
20990,,-4.324357362031748,3.4473889064167764,-10.017134567184664,1.516925278549754,-0.2244234191871773,-7.302917464765631,-0.0276945672712889,-2.572695542774366,-0.4125045078189251,9.720240621700388,-2.4332994028366937,-3.1879618249338293,-7.239408325048319,-5.132982542380602
21239,,-5.050702191691949,0.9655818659568836,-9.293502056824869,-4.144597754284292,0.3561358272680059,-4.3199477751757085,0.2619802656444616,-4.156078133219262,-0.2649054231334784,5.717769489640316,-6.203431996491533,-3.66794668095815,-8.52225297561025,-9.358460556853707
21489,,-7.481278508585548,3.6259478177670617,-4.072709169985272,-3.952276645016235,1.848550778258012,-5.066759721266338,-5.206629172976297,-5.617133881755335,-1.6521163442623352,3.9975911187967386,-5.173758936739544,-4.243749426173437,-9.336479991627588,-9.510942533851786
21739,,-3.168843847517671,3.056244568104674,-3.965907067998958,1.5481930239735255,1.3208136610514942,-2.971832267208009,-2.2479692391220056,-4.325184873580247,-0.7064112020390602,7.757161312762163,-4.500606281360463,-2.3297573143872023,-6.013282890985209,-6.893866842617045
21989,,1.5279237441012172,-1.661144210982708,-3.2948351547668,2.8274380848606437,-0.8696688382937069,-0.1350528190354124,-2.4469677948749395,-3.7020196189146426,-3.6083047726345736,11.76815973659085,-7.924147018838617,-6.007395966205724,-3.611616596876303,-4.317761330677634
22239,,-1.0115151108963316,1.1656375897460938,-3.8005727976460433,0.5288047824335409,0.9502653506021423,-2.269099419744036,-1.6251902635830704,-1.9608967360893257,-7.188377823888711,6.143170839388148,-4.323111718061142,-9.034225180156552,-3.016767060902221,-4.700746708981388
22489,,-4.57114293387928,4.596392049341597,-12.24171208404684,1.880233774587552,-2.613817575138929,-4.492137254076791,-0.4446875963620899,-2.320510576830163,-1.4527591464823562,2.7484084275987946,-0.0892102117349533,-1.870396117651114,-2.140263500218828,-6.976239591958308
22739,,-6.09718436615495,7.997165066088012,-12.08023811950268,2.0861737291330478,-7.424243056070662,-0.484509331411144,0.9929363601701908,-2.879428826945732,1.1717214334374948,4.195426052115769,-2.666522932920956,-1.9902500889338604,-5.089880513307269,-9.582098359313054
22989,,-3.912776025547161,7.358292174852452,-8.744715012271808,1.0528683615250083,-4.720876736310466,-0.4917240629935842,0.7596424475789285,-3.32034342643874,-0.9675920129663632,7.201410680655559,-2.88116723990422,-5.730004333240638,-6.0395852282610365,-4.926095647574791
23238,,-1.896202819252233,4.399046786419614,-4.427908871503293,-1.267777094770842,-4.582562938052846,-1.054720654817806,1.43842855323871,-5.501467774967854,-2.624632065198254,8.430408085396651,-1.857678899747604,-2.0572101293596234,-6.44636863340787,-4.469759347451908
23488,,-0.358258953922324,5.470079421627671,-2.729271043430197,-0.8849503525531728,-3.2678209668865894,-0.706424318582169,0.6182776912665499,-3.530425862493635,-2.8107905699433418,7.897699258356118,-0.8667008429240075,-0.8206096205683004,-4.14065197908913,-1.2562496058173376
23738,,-4.33982189939452,4.936118444813125,-6.9756023051756095,-4.912273071944081,-1.3917634855235117,-2.091163677441423,-1.9625492372179492,-6.761475624755631,-3.00550604926347,7.394084884282101,-5.54043575271971,-5.560890725934638,-1.610273373590895,-2.23142751223367
23988,,-5.876823442727886,-0.2603207768909387,-10.01490440472284,-1.3430895856397276,-2.846471906330867,-4.795813959987381,-2.550664977962941,-3.853218314217042,-0.9614308634547076,5.12461744346888,-9.212481205242732,-8.380742845968225,-0.4692947835165213,-5.442649554799345
24238,,-4.6789679379712,-4.755960703278095,-8.593822212725398,-0.6084430456647282,-6.492667353828232,1.216577088233027,-2.366039031108658,-2.4923520412198026,0.4678619689887977,5.787637534190395,-5.579363197116921,-3.5971717243550607,-6.696032870875949,-5.698533128813201
24488,,-2.321277407530526,-2.831386298110856,-8.525752072099987,-1.6449365912437532,-4.008690671131832,2.00827771485676,-0.7476214941428807,-1.822293243775791,-0.3229127227175124,3.856412823219067,-5.078386993671326,-1.9925481271845007,-9.335684182129167,-7.267563982814705
24738,,-0.9473444320917148,-5.6669538753129824,-8.128727149843357,-1.511115850759999,0.3970483087738287,-1.084388622490398,-2.332058815939143,-0.1332515679740401,-0.630258275581387,5.401245108654694,-2.463101682436334,-2.769515276505723,-4.94221671161762,-13.0358929351875
24988,,-1.837561501215436,-2.6136794909426806,-4.7976123593458615,-4.42377547779524,0.7174231729524655,1.291407785329386,-1.893101343450313,0.6362536538369161,1.1665511735081096,7.604319021779738,-4.086785082268144,-1.5906926915082262,-3.996323946948612,-7.134993945727631
25237,,-4.923364555732503,1.50545448691426,-6.566004423267304,-2.340782286792428,-1.2100271185190723,0.603692576068696,-2.4220921604464887,1.3964800987155117,-1.624495281576267,9.39971535695077,-2.285104040524779,-6.39106176619631,-4.209279387853844,-6.390733646946069
25487,,-1.384631882889792,4.368951593501419,-7.599832510344715,-3.155579478782717,-0.6359994348922672,0.8528442556433108,-1.0919346226211757,0.8091636945894791,-0.5481833077897763,7.306871777159155,-4.702587124875106,-5.050340186534999,-3.649276857760576,-7.347952370178947
25737,,-1.7171138934972252,5.73535174259413,-5.044609283521414,-1.5742455321614504,0.2301650007003847,0.2651559605222219,-0.9664704519972492,0.2698448217909028,3.3575824267558807,2.3694781495074766,-2.7508116052083462,-1.1208620386450383,-5.734410698858863,-5.327714608697709
25987,,-6.107701438447032,6.195152396766588,-4.017650727626391,2.234795849487764,1.597987499579656,3.391144675801148,-1.9198507539067664,0.7079471692658869,1.0705822727455456,2.846020561859909,0.978013315210746,-3.583758019117238,-6.731419273566134,-5.63128418154508
26237,,-6.296094787038814,2.213656884639524,-4.990695547758005,2.4023270594866823,3.827922094862562,2.599827291750549,1.7473771547953965,-1.7920996336637909,-2.0558768831794274,6.378962487907266,-0.6874880248084996,-3.4694600623843592,-3.934972659692998,-4.189560327082558
26487,,-9.813876361554383,1.0211622557326252,-7.561678637669516,0.4853038785509921,3.381719474676727,0.6212015833984273,2.325650993998295,4.802226240128402,4.904158222397278,4.477184747005918,-3.764932900751112,-1.9867931651732973,-2.6447449537348056,-5.278538085726792
26737,,-3.1392061606734933,-5.104566066683884,-7.841493431235325,-3.8420824611203135,0.7421594213637189,2.1510436139562006,0.8263279711189143,3.711171041745171,3.2008293733841544,5.159803176152438,-9.001099114643061,-2.189135893449912,-5.353056812640478,-6.589851110606783
26987,,-0.9407996856982797,0.4921829227036131,-8.620039812381595,-5.467688018442116,-0.0627415629666932,1.9206168533485743,-4.164088233374937,-4.598025043698716,-4.996351631364824,6.90286413220563,-13.348578441528922,-3.8258367832854354,-7.317886318133198,-8.792962349766693
27236,,-2.2594977028040257,2.659773658571618,-5.255948777633516,-3.319424908483966,3.1426236279808224,1.5899435142822025,-5.577023845175236,-4.68670742897097,-6.0310411740017305,4.728704332765754,-11.301600663231476,-5.522479735137457,-6.105802148035409,-6.135519908999815
27486,,-3.5549126558968243,3.252637078234471,-4.091840725326146,-4.777708163390711,3.31895024376951,2.638940280526039,-2.876842388649184,-7.031462329438961,-3.8814482676010265,4.838206733212567,-4.709068849185903,-6.096246538189627,-4.096052595540657,-5.801926823944479
27736,,-3.680620532497322,3.4041523451513687,-6.962392902361398,-4.632892230548338,2.368225597974022,3.992612934256568,-0.7653681204300027,-7.808960359282611,-1.893599463039899,6.536945483161343,-2.123188566121107,-4.086984769890077,-2.122440773018189,-7.645938555571941
27986,,-2.620071265976107,3.9986927287980913,-8.408285840088793,-2.381045751577833,1.7372888716320156,0.0718305063132187,-2.259404333740564,-5.195165593276895,-4.270302161994914,7.559572658908037,-3.812464529286876,-4.281782903983418,-2.054800755375714,-9.020568528714495
28236,,-2.5490989681948144,2.2415783392219537,-6.399214659379232,-0.4993137213080124,-0.9940034679808072,-1.6964384500700158,-4.962761895448896,-6.171315200585514,-7.060049137815988,5.145149055735589,-5.401037468042454,-6.155413869614784,-5.755841770480218,-12.245583254165927
28486,,-2.114338299067697,-0.6904506530070944,-6.659639497316982,-0.8965307274285862,-4.617178160976018,-2.000461496448412,-3.87131955661515,-7.988332394277085,-12.979090679612588,4.262349403803064,-5.380120406834637,-4.763620997302658,-5.484202230747806,-8.581265512650258
28736,,-0.6277597758324528,2.7210710945708687,-7.713298847616307,-3.8024661956448016,-1.7116885516372804,-0.1175287221401673,-5.120403228141245,-9.142377325538456,-12.23543052099572,4.533635723700097,-6.229249511661683,-2.674690382147173,-2.176749912332296,-7.297248612077719
28986,,-0.2441945392197645,3.9161409735980657,-10.141835269873162,-2.670131148524601,-1.209033752334283,1.5417201932376248,-3.912841510928872,-6.840529640637012,-10.67823800760137,6.117343864404243,-5.969522040718703,-5.650544535646286,-6.20558756209836,-7.791470930000834
29235,,-2.265249300607385,3.3895372443417577,-10.096548082752603,-0.4821168240123792,0.5030521307635045,0.4412850016344471,-1.8372163557313537,-4.804023227179784,-5.791900818792215,4.57113079004192,-1.9460569175377889,-3.710988050053593,-6.0908045804475375,-7.199256094693533
29485,,-2.9507401700878004,3.6029276073665457,-8.149192672401306,-1.7663343149023247,-2.209360664179338,1.682573743857772,-1.622538134316283,-6.905389226410269,-7.115624083998943,0.7939788479473264,-1.871019954929669,-4.8500971291002495,-4.775927094232147,-9.06522611006707
29735,,-4.079728539731386,3.513161403623476,-6.458749361856811,0.6888015299232019,-7.070983835376474,1.959789064472388,-1.664159096637388,-10.036567028760178,-6.867305147961668,-1.8509776881214508,-2.8374212216906463,-3.688451227878861,-4.70116442870838,-9.297253038666833
29985,,-6.684824558262289,2.945203030943333,-8.98465626715033,1.1863524501533682,-5.262525323099503,1.0489815979533552,-5.164294884030946,-7.041428308437297,-2.6381075504567155,-0.9335322817211268,-3.311604335527674,-6.385223526481621,-5.080652796340979,-9.646618588313968
30235,,-4.715597318734799,6.232460616297661,-8.655069885176996,0.8395264224288378,-3.1105634190931157,0.3525844965339648,0.3094332721122189,-1.270869742997087,0.5724544707570911,4.315729371884429,-5.379133019911193,-0.7412517026788594,-4.476445268807485,-5.5802485906850565
30485,,-3.401803066574694,7.74372017849033,-6.580728835271202,-1.27668326580989,-6.725785523258087,0.5564417183052808,1.6743329248501768,-2.6811834889082125,-0.5044984398187412,7.012369183581918,-8.235897983464364,1.1396992700207285,-8.016220344922067,-3.637994558486834
30735,,-6.359059063032097,5.598557134041621,-8.885290887376856,-2.425946422232282,-5.43501227367207,2.095888738896305,-1.602685295981108,-3.6411550604791856,-4.876885930524565,8.913211292133695,-11.345869381206493,-3.596459951466632,-9.36867369519961,-9.027457938428308
30985,,-4.235901631847523,3.738127196942406,-7.304359985216479,-0.3936460449200394,1.3806354470681996,1.10015635545365,-2.2831306183629247,-3.310957648459642,-2.585101030815573,6.428738759676832,-5.236407983426763,-2.031227034925938,-6.152262958315864,-14.858875714215037
31234,,-1.92335931792558,-0.1789491191986375,-4.9382456416126566,-2.0835383254220847,-0.7842342357080829,-0.9844930013002302,-0.9146751143075398,-1.3309259877310615,-1.2760189084709093,1.875782835268167,-3.3146043652212063,0.3276684576890429,-5.821634532118076,-12.516430240862604
31484,,-4.999592070540075,0.3427717192615336,-6.032096072616648,-5.188622919466038,-2.851337354164962,0.530670347863987,-0.5886617698096275,0.4288952856419306,-1.7721560544555466,5.389148544477688,-4.541191093721321,-3.2155376037679884,-3.686515600599104,-8.489613581843269
31734,,-4.81307887604024,4.609640749201796,-7.69701092819727,-4.180624707757209,-3.555579212303682,-3.6448307209420103,-1.3773754386204742,-2.0346049321507875,-2.1521632155482537,6.153002914193138,-3.096777519425842,-3.429166945470008,-4.637407730490418,-4.878702428089152
31984,,-6.573312430497053,5.310757978694452,-7.210172180861344,1.4286030406805783,-8.661121618710236,-8.13044173069786,-0.6098491330427841,-4.384906019456718,0.3163273376081104,5.556706780005057,-2.765850279742473,-3.2066947040769977,-5.689874797339153,-2.511144161952103
32234,,-4.703150891461401,1.957084820562323,-7.760971400533359,5.221130333402262,-4.052670789693868,-1.4675941597042814,0.2824679265440707,-7.006152693307445,-2.2400119769860165,3.959655833583672,-5.509337131850608,-4.876323637386678,-3.914922070027282,-3.885603445184665
32484,,-1.1900020424252358,6.107567426583509,-6.466506722849777,1.4324289741220235,-0.3278745045006449,0.6794825408214901,1.688745706987441,-4.374596178247091,-1.9061763343787312,5.825534439251871,-12.110211979431966,-5.256571143932579,-4.794321676289959,-5.177074951306082
32734,,-1.5939937123647208,3.740269154402897,-5.509783038352309,-4.433260634484385,-1.5312538403862508,1.9778390058158068,-0.8630121163926036,-4.659962133540904,-3.713264273779008,5.929560624934803,-6.38713419272359,-4.305001661392881,-4.877215448174511,-4.139375454425708
32984,,-6.799822755785819,2.6571145193168584,-8.547748240972583,0.0697504816526547,-0.9396132784621544,-1.0941388962005787,-6.261715089699235,-6.479752282705728,-10.714828127173895,5.150341237832299,-4.89393785527664,-3.00029496375642,-5.147747879872471,-6.081997227213974
33233,,-7.731683762786351,2.892022592248757,-13.05865013959586,1.999678850751183,-0.3749263152131709,-1.9062878796904648,-1.678027594273869,-3.287241907840289,-3.478084262359746,1.9354937956452487,-2.872177341430247,-3.73661726822038,-1.0079031037889512,-6.186443673275147
33483,,-3.7083537303112646,3.885123367359436,-7.851419209721171,0.6794098305980762,-2.8895287778353973,-4.103290028240829,-1.6944293282289171,-0.9703473072871192,-1.4821627429713051,2.4840160327637544,-4.738537361817511,-7.78892491363429,-2.2931935713473357,-3.716715499995148
33733,,-2.760012020156813,1.1400644612389836,-7.543523844259492,-1.8182302188971244,-6.748436065987652,-7.147075370401713,-1.7530178642209002,-1.280441214588519,-2.5373067431309675,-0.8998062011599595,-7.606814912995345,-8.866859288771446,-9.561964048700888,-4.337241509269541
33983,,-6.417836932822776,1.763174712605882,-8.533524185095994,-5.265617617081142,-5.423814255202881,-0.3637212625300393,2.791162661627076,-3.6973804867484015,-7.691747083186863,0.8179565012697042,-8.630895854894806,-4.866941129258394,-10.699230716601525,-11.81054289067157
34233,,-5.237719204259771,0.31804036072213,-4.025015019877225,-1.351766336476527,-2.4984947647789437,-0.3605519648364103,0.945674527037046,-7.950129510163069,-8.496242538297027,6.719395614630612,-7.253344922263068,-2.002452700628365,-10.170567544617912,-5.43269161397374
34483,,-3.2660676979792,1.1618535673460224,-4.200084185988332,-1.9549173759758327,-0.0337483986204832,-5.5742128731392295,-2.311017026647934,-8.418033724146646,-7.680649311193143,5.297215690469107,-5.677486658527395,-0.5103942032465034,-3.375476641683401,-3.4326382432290163
34733,,0.4475634388005888,2.778300235613057,-5.5276759113527145,0.760413204695954,-0.6050346547660919,-6.194348653990108,-0.1341656934137106,-6.680804108280048,-3.4427409488812737,4.250724131466769,-4.332951688716832,0.4950179280490854,-1.390544531261819,-4.448643765437916
34983,,1.147776673265466,5.566930048922981,-5.879167960750005,5.713438698941024,0.0493741715966612,-2.87381221282618,-1.2944134572155042,-8.292550259765061,-3.2405501408706368,6.089335628583619,-4.3797701208992414,-1.3003781606641982,0.1728218220693352,-4.013235499546689
35232,,-4.602396925118138,4.884085898753419,-5.816937451505682,1.5953990607348931,3.439336494668874,-0.4244739491874553,0.2346056983748147,-9.496948638294144,-7.174388230193221,1.169554327670243,-4.5949258391172005,-1.6341871080973729,-5.0383438337936575,-5.604729289237946
35482,,-0.3041143656342505,0.7637528244439545,-4.323453123431406,-2.650154610415127,1.4977630069144412,-2.417263419831829,-1.130589548593072,-10.021469675297643,-3.682626996520359,2.1259162719190297,-4.636643321542447,-4.277620720772771,-4.36820995551318,-3.734708979413369
35732,,-4.233234286978789,1.13804854224019,-6.63596931212777,-1.1713035286074889,-0.9366676147377953,-6.687624719375136,-0.9233835012907776,-6.164415101274118,-5.83271094089301,2.368440139648812,-3.887950122093465,-5.989254567794557,-3.4347551742690903,-6.497342152992883
35982,,-11.02525449165833,2.2998652710711576,-10.083944343375142,-0.4933315296269621,-2.1248246960757458,-7.882611438195549,-1.4476524238738098,-6.231080230749417,-6.386071167906566,4.581961919827346,-4.029017609187656,-5.444964705197188,-8.079268486576032,-6.248208868658366
36232,,-4.8697711608033085,2.921365716566924,-10.88898923465511,-0.8183240398806829,-3.012609084871161,-1.328068945285212,-2.816944447778301,-6.724301468350272,-3.9859413264709262,3.0489299417955835,-8.9169808826129,-5.706659380382102,-8.595489926368792,-7.168685548643405
36482,,-4.414169740270278,2.193543682143841,-8.81553739896464,-0.8724802245625484,-1.1453047533937888,-1.2990384736958125,-1.403943646364187,-6.839333343948045,-2.8333844758574696,1.8813600923371172,-4.505639946016478,-3.8860900094354136,-6.695757596990544,-4.962392199148278
36732,,-1.0341666926191526,3.822892594342548,-9.209675697425094,0.5989175145431929,-1.271371437255501,-3.0491892341434514,-4.412610636640944,-7.975462475900263,-4.558968090229973,1.470184511142919,-1.5558132822749462,-6.99433584760373,-4.048769641060735,-5.899614719541909
36982,,-4.724694232543531,1.06321504419867,-8.303961264569914,-3.0629232251250995,-0.9173370715848456,1.9997878213951756,-11.231560479843576,-7.163604079689975,-5.288532737621066,-1.235934317995253,-6.422903154542029,-5.69210465546384,-3.1610051584952115,-7.052610975251158
37231,,-4.2601544473572295,4.634040333639362,-12.989029961190596,-5.296096946749996,-0.586867743293927,4.201997090710324,-4.726372755387239,-3.821316809307487,-6.436859854695531,3.903476719934902,-8.33500295356291,-3.2983455053868758,-0.9883356905514996,-9.748401846316284
37481,,-4.602162241653285,4.486218069473789,-12.979172765913257,-5.386087072167259,-2.3221217424918668,0.9933021137280807,-1.874152043108104,-3.257440589645064,-6.1247937722083465,6.957196213400929,-5.319237263882234,-6.522164955966108,0.8773335691607076,-8.262487995394721
37731,R,-2.667254853198081,2.460445403892161,-13.964082426295564,-0.1121848422997763,-4.352017808847243,-1.2679909668462062,-4.077657992699084,-6.030208831110292,-6.739411863982314,7.219181707663667,-7.240401365510463,-8.126898134581994,0.2989683714273864,-9.4450279887962
37981,,-2.878738950936744,2.2225152274247764,-11.59516905333567,1.9153962307317,-1.3518383618153311,-0.3265682934104102,-5.7039831850985205,-7.838172590000547,-2.9581451428334,3.716426251733624,-9.003855108732834,-4.190214284741493,-6.886320867864465,-5.976292847479345
38231,,-0.95822819903618,0.7703595372404257,-10.019519162805455,1.4622680168521496,-2.896306604026937,3.4553724259515946,-3.3677619875277083,-1.912840631897248,-0.2161170553845877,4.369412565817284,-10.48921556269671,-3.044878085642372,-4.590598004825105,-5.40758373543899
38481,,1.052476782829489,4.773740995045584,-10.348492874793696,1.3887772527425808,-4.426313890028358,5.569797300568499,1.2842346811291574,2.1391357061516816,5.420426725961802,8.320193307333971,-6.937570527385932,2.8791684709626213,-4.347514459412617,-7.644518372615602
38731,,-0.1777477174789956,4.75350422374897,-11.573073086351478,-0.574444333088485,0.4168327728177609,0.9479397492087532,-2.0951685786684178,-2.099233664929909,4.6940978442333785,6.440578658670905,-4.305200209297374,1.7381148774491548,-14.542339391546928,-11.241658152633605
38981,,-3.026417517878015,4.799985782936535,-11.036214059629597,0.7756004693828994,4.472743036976392,1.078325478835907,-6.648575372478867,-1.701810962519534,0.3132971604085178,0.6014423996066578,-4.796081907016701,-2.7096635086085468,-9.644381788567728,-3.7346261852965874
39231,,-6.896669908220164,2.3222486123541337,-8.572500967105567,-0.6955612565447791,1.6820118275305804,1.411695133095436,-4.742515009525558,-2.160892137125587,-0.8217216275156279,2.505055667059413,-3.7973029624716794,-4.553275472348449,-6.296303966207969,-5.65698980597667
39480,,-8.585374695541741,-2.497435188307113,-5.012327354936841,-3.530334224405728,-3.1707010181234048,-1.331531720096052,-1.813862029093759,-7.23011327586833,-3.837466960689341,6.307029208383716,-3.921134722815979,-2.9338764729314,-1.8115833034620177,-8.131077229491892
39730,,-3.665247439322554,0.0003396319648546,-6.445871614287998,-1.4434985345744713,-7.044738664482868,-4.148046389888912,-1.6060232289643694,-8.685641200198216,-3.569287413448169,8.654279201370894,-2.464570321409289,-3.087243234169858,-2.1412374933290894,-6.222996314365029
39980,,3.8840480255178695,5.207078739202059,-6.26473427609713,-0.3480325251535107,-2.330161618793216,-6.354914662044951,-1.481816890357604,0.4537707083040838,2.1087400574973456,10.519663649179156,1.29274245528631,-3.750571720494526,-1.7200076595824798,1.8155669955229852
40230,,1.860072424643865,6.845756543658437,-5.551811964616217,-2.6101412896110188,-0.4665985969563591,-5.605582720389693,-1.5691051416495407,1.9181526574223184,1.9087944050393093,8.410049510046546,-1.011202044948991,-6.52337966675961,-5.8652261584152345,1.377043067067811
40480,,-4.644115178549077,3.8281171598597608,-9.76652949374805,2.2770889080338894,0.0661894889174231,-1.9445293825772525,-8.776855938355519,-1.5907809520737446,-2.5926651894721258,4.783944778632999,-4.958416736278252,-2.235509428045124,-3.7293011436695935,-5.977709063634716
40730,,-5.2156248571575725,3.604752504053778,-11.700186208470916,4.379303495035936,1.0722701902591174,-4.29001567524502,-6.89252427737182,-6.446902813862746,-4.776765379792926,3.4483495595409197,-5.176024411723764,-1.5036970536256415,-2.979746514405473,-7.915728821312344
40980,,-6.89570225928577,4.499690614478506,-9.780575335513356,1.8625808943185749,-0.8781086196663386,-5.91900705515834,-0.9117642855186316,-3.5034527072526167,-2.1317643595866524,3.5531085529003086,0.7779524756598094,-2.313951750951155,0.5876511482257273,-7.6350104642777
41230,,-3.957166453210748,2.388337057070689,-8.10574223323136,0.1701280210264538,-4.828293726727869,-4.108083712971979,-0.4339900521473648,-5.396830709875358,-2.43816754632053,5.908929666951012,-0.070841700180937,-4.024541267776139,-2.197084801616356,-5.359142457208076
41479,,-2.8725368028111946,5.591904625313863,-8.013811269179055,4.214385780812689,-2.368359043159984,1.8128676522450775,1.1765453246116098,-3.2695730682908115,-1.8222677529646047,6.027888881207575,-3.410880607749073,-4.342702255676586,-2.44751397085222,-4.868955514697159
41729,,-2.478604234337717,6.201144802346279,-10.10472070247187,3.244386818424612,1.7315676157307156,2.440870171907391,1.609153847009983,-1.8277269919673969,-1.4316766328672603,7.692545616257115,-3.5533971759717624,-3.080097353420994,-4.725031740535229,-7.175190638139232
41979,,-3.710531184225609,5.8086791536098925,-5.8507141905251805,1.7111476566117292,1.913300016099747,3.196925557641719,-1.4887333528257252,-5.78276278113483,-4.018390464257204,8.779287934684666,-2.41886327761828,-1.7638844818846835,-2.80915704059792,-11.125556290304427
42229,,-6.302656139928412,4.787847070765111,-5.666480827415237,6.844789284588035,1.748331615579633,4.993541927734468,1.849231313993525,-4.175394663606286,-4.111129333223142,5.519511262074399,-3.49501504872445,-0.0654526287332748,-0.9132208878822752,-9.92419403431972
42479,,-5.697630224586256,3.96653567392295,-9.005419282910728,6.885869564395978,-0.6221532848420618,2.535676593683127,2.214320096619967,-0.1631110251150184,0.3527470482760567,4.138002367356105,-0.9916033448830752,-0.169164626739207,-3.502222042419681,-7.968145101533343
42729,,-4.470867414956493,3.704239098115545,-8.149031033477332,2.933419339856011,-1.327946838605509,1.3619699200576116,-3.9463183381038727,-3.642562190983072,-0.1013249165560065,7.702678782374978,3.247291626534934,-4.054992616469103,-3.840120389773301,-7.475656898858498
42979,,-2.523869033323185,2.135764439276698,-3.5237752792202786,-0.1256149568721019,-0.5129344353374562,-0.3621356081560814,2.3157939717144984,-1.8169304469106309,0.5966472049598233,6.498434409628996,4.67112009088818,-3.124834661722568,-6.535153806052111,-1.7667754339214192
43229,,0.5241270048928606,6.49078016454273,-3.2489954435465123,-2.502712563385473,-1.7210386327841136,0.3243676841836163,1.8442167419076896,1.095341841796092,0.2730716244516521,6.095151315839705,1.3892564696091372,-5.672236393782221,-7.767342897940132,-0.5133520504324627
43478,,-1.5102545352488794,9.340944985018789,-5.747312793486881,0.4308599867233257,-0.6854542937813325,3.7313372074871873,-0.916914104753703,-2.5375277434126065,-6.946457270247751,3.525979368141247,0.2001664779911096,-5.072212969236949,-4.3609417953364575,-5.635196303479742
43728,,-2.410242576531721,6.299035586188515,-5.992446725306435,0.953507467969527,1.3122729250938547,3.5140949039130964,-5.355400767321169,-4.3059086216182685,-3.2795607872501757,5.39495057820232,-4.856028631614953,-1.7580169084418316,-0.5223547516960868,-6.636909605092189
43978,,-1.922026700066784,0.1956932365669421,-9.187122332542302,1.1688482041363888,1.6954865019235013,0.7150396204741376,-6.331363914971348,-3.968073039477704,-2.1115133188105637,5.599542911084009,-8.266585084770968,-2.571923180321747,0.2125896666722438,-4.815525208327981
44228,,-1.8632884375887504,1.174855939259213,-4.675705912353376,0.5774333003074166,0.0209928730899548,-0.4897247828743243,-5.227768967181553,-5.451339838432434,-3.468897741396129,4.993108926926592,-6.423847573757781,-1.5981019318245502,-2.9705603475813493,-3.994226355285559
44478,,-1.989935319772234,0.9724238185973486,-3.494050203034322,3.997016937700297,1.075824151724023,-1.2607134427555302,-4.087110316618682,-7.666072765927421,-2.6084871757230923,5.048104843184981,0.5069582212088096,-3.4937062822585525,-4.9827748231650295,-7.977074332544104
44728,,-1.6356591609997782,1.196335939502482,-2.2338800823078584,-0.5141952891000724,3.784068394854772,-4.1863758128505095,-0.5504701867531813,-5.405067142386905,-2.1099106184711958,6.884221827972729,4.966777016115716,-1.3943584449287552,-1.15474543193198,-6.893855198441056
44978,,-1.292231378144665,0.0544287343956734,-3.870875801966261,-4.990494397387196,1.8445402392888843,-1.4924472186888935,1.193748095495878,-1.5313500963225868,0.4882766411642797,7.16567464774553,2.5117547934082527,-2.470841452322135,-2.297246852985126,-5.323781551014215
45228,,1.42803696450608,1.3417823064524426,-8.985881781354916,-5.012710832818959,-2.8180839413203627,0.6953993583379693,1.0028413157172476,-4.596230276246218,-1.685500783502841,4.307775700468607,-3.216709428441124,-5.513637287540143,-3.0404424118124,-5.2304818104483
45477,,-1.628662276445123,0.229657803790996,-6.540686396906116,0.8438755713121631,-0.7690280286579797,3.0903698226108887,0.7741965466076186,-3.224732866979625,-6.567478015576329,2.6410068831431683,-8.075932094858262,-4.458131839042777,-5.9812193626728885,-6.273925656113177
45727,,-5.2533358811698,5.840318911390604,-4.553823054603427,1.9193352989253023,-1.0544182163963325,1.400971356282534,-2.818130857427812,-6.092167200347706,-4.661107762929161,8.053776674862492,-6.8716189760005575,-5.575143222870497,-4.78946549641122,-6.826550234665056
45977,,-3.985189462708496,8.679868582975201,-5.957671406639262,-0.7267546468273033,-0.5889325193239344,-0.001196132693539,-5.596928738800076,-9.60502416882586,-3.7243323973250417,8.55947444988123,-2.8573055897740463,-5.65981055740523,-3.854620166384097,-7.033889197956109
46227,,-0.3954375003226907,5.330564605222644,-9.71418218803246,-1.7508351081166156,-1.949814918901872,2.0081855700890614,-1.7498971608972138,-3.808740261271468,-3.9459126012327856,3.938490821964254,-1.3847558168602323,-5.534822139033816,-1.6848189206879638,-3.974826144106853
46477,,-2.543812909590243,6.612923918989987,-11.025740491267392,-3.049242697634943,0.6654833770543579,2.5737461874861287,0.0021695543621388,-1.568214320535288,-3.437073725939201,2.2903229196518526,-1.4725236702554416,-2.622253762216396,-0.8089393673088728,-5.851997460101078
46727,,-5.459193236411793,3.918873672331103,-7.2788613277339795,-3.686726268460495,0.2173805479961519,-2.6359390603843877,0.2358776770330203,-3.1299217484980946,-0.1275167563308278,4.31483382992951,-3.923950632923511,-4.139619776502607,-4.435482019708414,-6.730056532669653
46977,,-0.5545803512288645,2.778245019533408,-8.312488425852507,-1.0628169202592963,-0.7995026613602476,-3.988960528261385,-1.0522460346302722,-3.656685730275081,-2.8592533356895045,7.274600441107069,-7.701208565714808,-3.0726933890193115,0.2787746728613209,-6.153052443677595
47227,,-1.068771461576557,-2.12705419094089,-6.769714110502154,-2.6619490412179223,-0.9503348139464618,-0.0853199834387283,-4.550187446540137,-0.3372929370870275,-3.2218294318963148,3.386939243371086,-6.783805644650084,-2.034739085224777,4.39801723214635,-5.43213937951804
47476,,0.0611974212680546,2.742123938721108,-4.5603369871286015,1.6949675775763002,4.3850695589135045,3.685370091220909,-6.077551006247518,-0.6185153665077843,-0.5125351211409495,7.414444535336827,-2.2417344897056077,-2.4485039878755392,2.1966540880467917,-4.571778601946336
47726,,1.8774082349219323,4.873402999475317,-3.848010754610249,2.2320453868911545,2.3340165209534227,3.560731729433223,-4.472161685730933,-4.356587422480253,-0.7917857984429445,6.799279452561611,-1.4151133885265976,-0.5371590332536786,-1.2207064055927903,-3.481167935754552
47976,,-0.6880400692433324,2.413041330663122,-6.007957297444166,-0.1969207773865253,-2.668846752097198,1.4467614632440986,-5.037945726509607,-4.4357758163696905,-0.91403986017627,2.406463777468945,-5.3981647466902585,-3.074943032808781,-1.1655973710025922,-5.906613959047908
48226,,-1.3205876305138056,-0.3412615477913277,-6.640741887795027,-3.083960512982701,-1.2741226536857022,2.2777492647229054,-2.6128815048312304,-3.144949649542996,-1.0848897086313856,2.268389647659263,-4.9004584875767705,-1.3655180590090557,0.980487463224182,-4.67604199887835
48476,,-4.703595802379023,3.4587863231226814,-4.673956253702648,1.9821505707607912,-0.4250731808281676,0.0593583786901102,-0.9450831981044334,-1.1495629420002922,0.2457440340441993,6.81273598360165,-3.7278315445097383,-3.086235906196156,-1.1937044123316618,-7.089381083744696
48726,,-3.0071935221818604,5.654480392128543,-4.062930061719217,4.747798305838503,-2.952425995086278,-1.125204645087487,-0.4715268998284518,-1.3731399620108362,-0.2331886755091381,6.6629710003412175,-4.823055001593301,-0.5451065789774535,-2.1888116518721143,-4.423075905586265
48976,,-7.217418919972484,1.4433333701752349,-9.30658345707814,3.401032777858497,-5.391157313905949,-2.503445889440732,-1.2560719244987113,-5.954327208146029,-3.9535190251318895,2.6972164698311154,-7.756750539513054,-2.139075393890886,-2.3856661277034616,-4.424401558064593
49226,,-3.8536016413149,-1.2390073107819326,-9.526769900032724,4.011531142514797,-1.825995959448342,-0.239521093026498,-3.1548591535139896,-7.361930988349865,-1.6077712720626025,6.0650434983975385,-5.282683672296308,-4.705730270848661,-6.374237302501943,-9.153200912541855
49475,,-2.748680074515357,1.9834593677413008,-4.063579735837132,1.6558996339026728,-5.509607521821228,-0.1685511876932996,-3.1144623092732404,-9.823429407722012,-3.4919633952742,2.735567919769648,-6.1268860621597625,-8.749646008476974,-8.746926248950693,-14.36668981690728
49725,,-6.068649304467396,3.724514172613703,-5.669228538176042,-2.061055590833094,-2.5971056575174503,-0.8194522028013075,-3.14109443403012,-8.405157764560851,-8.07424819793888,2.256536741937778,-8.455201425208829,-10.70280378039209,-6.229415222763034,-12.174608994099046
49975,,-2.4125861718467614,2.0096959995361345,-10.359574695883538,-3.5142310953925406,1.5556541873732073,1.3687514812615642,-3.183943772943272,-0.9526345975360508,-2.439744319482392,5.483306860494186,-6.913170557242454,-4.1770397814871405,-5.0649396204108665,-10.871582087165727
50225,,-0.7299061536979463,-0.1482704440799615,-8.709228930949527,-3.758018452250857,0.9059090286916492,0.8671936938729099,-2.56392999962759,0.7557141323010462,-0.578392739032748,6.075130253363598,-9.887070197351198,-2.225331839016912,-8.691201288336764,-6.4719445540363365
50475,,-0.5645077341019423,-0.9503863200208458,-6.920411818917234,-5.752308284448557,-6.931600131708629,-6.104567091044918,-5.065052947501016,-2.7428624468667238,-6.548913128959217,3.634901630313129,-8.258963078914793,-6.616381545930495,-6.085107421123379,-9.827038042947898
50725,,-0.3451777530117988,-2.3647711276944223,-8.265697915575187,-4.2390315674439485,-8.961595446919379,-5.964237921766503,-7.238661592922737,-3.957862690448948,-3.070303687733282,4.347950022083496,-3.900813285112045,-7.191073277204174,-5.129835803192258,-10.214728086337086
50975,,-5.832320607446181,-3.632454232881533,-9.353895246752067,1.072085133857782,-5.308496547391655,-2.0522669816890247,-9.892596240759293,-4.30294428470203,-1.0915619128369138,3.852905142470205,-4.753516239066541,-9.497626453569625,-7.811045010108616,-7.923083924934301
51225,,-8.928827445833985,0.6425637744379566,-6.909039170149876,0.992164113695289,-2.6293783639394963,-3.163362421412317,-5.770201824058391,-7.806659771531668,-1.9761278160775708,3.98863336339502,-3.628520677706544,-8.383216609583453,-5.4399602722229705,-10.055499118961931
51474,,-8.688886877903812,2.048750530933296,-8.550905887119022,-0.6256493174423627,-0.0092918712529558,-7.30035302068595,-6.830058488669033,-9.44934660707865,-5.306119613753058,3.517190882245166,-0.3612641828026181,-4.492975175933526,-4.548051084248997,-12.100671364994886
51724,,-8.485241011952239,-0.4319516191553436,-10.624860389829484,-2.3172274198497145,-0.8676702774678149,-8.8599187231105,-8.74713868438902,-9.205601354177077,-5.163724013444436,3.03070248103079,-2.8644579418597256,-6.027774562090801,-6.795185112712723,-11.120792561930529
51974,,-5.143636252111134,-0.3750179067101225,-6.663857328015728,-2.5827553724324988,-4.027463688479513,-5.794008950716609,-6.091784524652198,-9.698499373127008,-4.487495552699283,2.4022376070458265,-6.999820420115348,-5.393611367584736,-3.776600915067744,-6.242412322410181
52224,,-4.712550632713805,-4.8818670003089055,-6.958096403078622,-2.273135595514783,-4.3164080388016455,-4.261819030275168,-3.4834620107333985,-9.008984164332125,-4.127336306141729,4.790080926262501,-7.5251228821643155,-8.261636271595481,-4.747985113093075,-8.121225148540052
52474,,-3.837158225973604,-2.26573214337898,-7.990736094280315,-3.0490426124908,-2.478546099805251,-2.6394393953061703,-1.542598472807982,-10.808895862720654,-2.767494660852696,5.566456334443962,-4.639092547262875,-2.050711073019804,-3.11162157265389,-5.961457072868103
52724,,0.1260068221581513,1.8848799275549903,-6.241102884779006,0.3979782333423182,-3.5702559198996946,-1.3197528164801875,-2.42122893231031,-8.315752497326226,-2.0517454529605823,4.433873125651486,-7.275310584109844,-0.2072209440006385,1.8580069912045127,-6.445527431399883
52974,,1.7503227711558096,4.039599548028309,-4.072345176469874,4.320642414108358,-3.912718847142439,2.2053741073829203,-1.9905274753739577,-7.39836690873358,-4.263975255642535,4.63673026599288,-4.460115356312924,-0.0018450272939785,6.068114411645473,-5.19843192381639
53224,,-0.7489242936368352,3.830724536073615,-5.27852101618953,2.277933686739795,-4.060978627972622,2.089819680400508,-3.919096518939386,-6.766559458680973,-9.289208967721333,1.4085931438059862,-1.1646927116611687,-2.776954966912491,2.0278729660057824,-4.431588967466693
53473,,-2.3292983622568326,2.879354008110594,-7.227186398879319,0.7919498309356712,-2.189271985768761,-2.128184780149199,-3.2950444659249856,-6.886125312115511,-4.284138076908094,4.559557178062265,-3.8643808853872414,-3.2059208134939525,-2.568566153874877,-4.970522458463439
53723,,-5.246404980331358,1.2544268057646768,-7.157364541019778,-2.2901683215463207,0.1177684906458641,-6.58478238293158,1.8607101674602056,-4.723437378811168,-1.1765631423362697,5.960085267675995,-4.688431061610594,-1.78290092759368,-3.3693108315883795,-4.208799614811078
53973,,-3.260808567675376,5.216632278897242,-3.4835038466381145,-1.5205187282808803,-0.3197226004319524,-9.494619629013751,1.7573939965438474,-7.748832647220329,-4.857288666873193,6.529916270801141,-6.589017454938455,-3.2722984324183995,-6.986617494830386,-8.07028355008385
54223,,-4.300045086403762,4.433966372258999,-5.588240130611053,-4.267781356405747,-2.651158833742662,-3.994397258918662,1.178003086933579,-7.700905192687728,-10.155887996016848,3.4770176213410267,-8.723774879866115,-2.5306599989174816,-6.176827069349635,-5.058058554804584
54473,,-4.75143504641757,4.663665269503065,-7.481748262307841,-5.630862403008495,-2.693082172435396,-3.525075164155795,-1.846859495278976,-6.073629996585143,-6.571408947997322,-1.3529982849878768,-8.139973445180196,-4.92845087851536,-5.587639099377034,-5.529173218854691
54723,,-2.7304531228223605,2.881227805121636,-6.501913252885508,-5.208349517757948,-1.7257150463038575,-3.641808651307612,-0.5590195876412009,-5.03715603600766,-6.064545162894687,-3.953173586796583,1.0758961493021135,-5.130355129731403,-4.774002908749954,-5.330473509294373
54973,,-0.8236072633244962,2.2208352651307828,-7.375643043904045,-4.765648589799914,-2.6381938846891977,-3.771066445380424,-2.181001985674045,-5.9046994045722245,-5.816516062388448,-6.0485834004967485,2.6369781358706006,-6.644940675205663,-3.236294196889249,-4.58455313940097
55223,,-3.3349058118190635,4.045437347235046,-10.708410472816375,-2.7706513047765595,-6.550408193294013,-1.220676462881351,-5.701257294094042,-6.648220807285588,-8.106798524988946,-0.3752594794477475,-4.175550871998869,-5.992870774119741,-5.9193492842248645,-5.391026067732403
55472,,-6.760647451591845,4.422190551803379,-11.578118255214369,-2.555745101532436,-6.0838397367034815,-2.7002250059831976,-5.8532896025036845,-6.334811783221007,-6.097230285991413,4.36624324978823,-5.2205057323664095,-8.909496329091342,-2.6994844420745907,-8.85949039882738
55722,,-7.191751435822931,3.017013913364237,-8.870950617148347,0.6513812341032248,-2.7781866708688527,-6.471703015379402,-4.738430592324311,-6.615135892410466,-7.903634528515607,3.970744223206746,-2.326502903867256,-3.245902864420408,-3.939670103132374,-10.233275145375018
55972,,-5.311521817184013,5.509527814060927,-9.075044513408724,-0.3349328693379252,-0.3269263357488292,-4.949825140935703,-3.393941940323958,-7.356555258266601,-5.523165619836271,0.6913771926356369,-2.7800646466147687,-4.242486682402983,-7.57669898063568,-6.084298953365512
56222,,-5.947155348217167,4.824132763633574,-6.34923990743685,-4.777490486673072,-0.3087216617687887,-5.31377455476971,-2.1962429729161936,-5.03960172187594,-2.910588255501789,-4.69339383106964,-3.4507450625405225,-8.573110703653082,-7.242036558990313,-4.539481103808573
56472,,-6.336193659984016,3.392816126897216,-6.246118955764618,-0.9192128204937132,-2.1522284478520275,-3.1273896256148923,1.4425168524414649,-3.5056563977349318,-5.326975042112849,-2.2756490156512656,-3.89306771829196,-8.24206423779472,-2.566996258927705,-6.137955818162864
56722,,-4.0166718068196126,4.988021192701854,-9.492795965013986,2.3358144305884707,-5.767811240332287,-2.9350045029084955,0.2982684914477933,-4.281877459601708,-7.4066540233541565,-1.6768732112403792,-4.487372702712849,-1.1982018901020457,-2.417259930049904,-11.4371396074182
56972,,-4.828509999267581,3.820641813592238,-5.071970303277008,0.9744574498319,-2.7815567934088152,-0.59134214863382,-1.8422182034078665,-8.661728360195909,-5.684021258875951,1.6130201200586414,-1.9447270094354607,-1.7777348429086193,-1.6275547461398412,-8.554676788258359
57222,,-1.2641967493296402,0.9069909141470986,-3.180082736756211,-3.407122274041255,-1.6423486231484032,1.5724038762818735,-2.158259519490523,-11.792630289714731,-8.718650987178226,5.768594220528235,1.0740685468161957,-3.696456034823352,-0.1698137675034314,-4.621201701422898
57471,,1.088700176871941,0.8621480514371,-5.1351083311461645,-5.420885890726581,-4.048532187554741,-1.343709310866532,-2.4470538533656367,-4.761152467955858,-7.4889017386966845,6.401977522787901,-2.8887925473334004,-4.653742047097408,-0.9546701168645586,-1.7007522205765568
57721,,-3.15842167074258,-3.247227270069226,-6.49705003389216,-6.094668534105856,-2.651870803471568,-2.581578340424518,-0.5347677204305591,-1.6020977456992953,-3.90645983226362,1.5356097250799408,-5.638590774266156,-6.5875668270209,-3.896441760085804,-2.2712245722711706
57971,,-3.5682961048160227,-3.3419882672490497,-8.726821481434692,-4.30465014190861,-3.6578269778009167,-4.195679024111594,-4.713528500922203,-5.467005623020457,-2.114368067272351,4.5308405431459695,-6.31167377865633,-8.143600147897578,-6.244801012899179,-5.56636874736284
58221,,-4.250622007269852,-3.0032104282501044,-12.431775158706175,-4.4451802846915935,-4.577896329366308,-5.730972749893653,-6.552797039788589,-6.856191806085209,-2.7971251201210583,4.948145465463206,-3.426174666172095,-8.626529307662125,-5.656743235539139,-9.6306509022723
58471,,-6.944134422087353,1.187096224295256,-7.404255568587351,-3.082257071586745,-3.9087084268948815,-4.611333951319834,-3.1925162829692906,-4.691382318893727,-7.061020361875498,2.932368559018406,-4.876459774096061,-6.346288778411692,-8.737144837977617,-11.603682073719003
58721,,-4.123667319735797,3.1860120277456767,-8.189038592935606,-3.432541788992747,-2.1799261862427257,-3.4554179826023046,-1.714736064441836,-2.57289920187623,-5.862283066308974,2.770217220860945,-0.844565805354034,-1.9857699700441185,-5.924402165486969,-10.245679132059246
58971,,-1.1755403229565071,2.402541793178138,-9.647496478930172,-0.414237736223964,0.0801140811019942,-2.2935360846120103,-1.5293276337878514,-5.517393555337447,-4.199805822910677,6.833208967457609,2.143192759018216,-6.239143787293023,-2.2825032225084843,-11.211494248274125
59221,,-3.2624540872897456,1.738978018795303,-8.071374264132846,0.8955357235573616,-3.369374812322969,-1.5669605509937836,-6.00471993243299,-5.686468915553493,-6.31081332419138,5.748032875071864,-0.8686337532438794,-8.264354586358047,-3.182853403095993,-11.787764461801656
59470,,-4.403264024283343,2.630728729399015,-7.934088927630616,-0.284808854468959,-3.18229061339342,-2.8718385412855003,-10.974601757650031,-5.926618224152529,-7.256934197494084,3.06834459290038,-7.919592166593001,-6.356205518223708,-7.048641116396105,-14.371124271257017
59720,,-8.08728098898677,-1.6005404264641685,-12.795764695981426,-2.139894802441607,-1.756959867634647,-2.338697283015189,-6.278085197306616,-9.752644274075358,-7.191516964628333,0.05678863592637,-5.933088170155351,-9.15918752426154,-5.005775758542152,-16.23445213061378
59970,,-4.298908895355896,-6.782636008858245,-13.335792577056688,-0.3586097165313801,-2.2194723727869707,-3.4610463839714423,-1.0732254129695016,-7.255446495673453,-5.013564769394129,-0.4735387403152979,-2.875789434969435,-9.28017808253134,-3.2216726408686505,-6.606878544125358
60220,,-3.406964498966049,-3.655545154921213,-8.612708959710195,-2.4682339256896286,-4.9999080087969086,-4.954065996122542,0.2338896070660573,-7.153291939464356,-6.954816304344521,4.71165362783497,-9.279889405727094,-2.715590816905876,-6.657322560715383,-3.648727865787995
60470,,-3.921022751895373,-2.69260508909479,-8.735931901813554,-0.5106791537946965,-6.350965106868332,-3.034905443471912,-0.210477199161264,-7.847972613775615,-7.032740737045973,5.579945002686775,-12.040652992394376,-0.8937148148456029,-4.089308791357055,-6.963149433129763
60720,,-3.8616879085391913,0.3161606950524782,-8.524686714270578,1.3678529909752153,-3.640441202785357,1.276557601118235,-0.8790234908957981,-7.36035510987242,-5.64903676027257,3.617428129098663,-11.135692024887604,-5.317908277007027,-1.8426026235921,-10.669069885604108
60970,,-6.713696866173572,3.3657163364869054,-7.081422466846239,-0.2731591515133206,-2.322537624488464,2.7245565826408784,-2.7682723065357773,-9.21156214733448,-3.548184856430554,1.8223546306449872,-8.380208210028083,-7.292548352436379,-3.606075928674825,-9.667939547822284
61220,,-5.521707026825719,4.062921883853461,-4.609852637979332,0.8640981273080828,-1.1273030320235136,0.497788635921102,-3.0515566642119394,-9.8142866294988,-1.9930099487556292,3.0050786019326243,-7.030911167738223,-4.052962126095166,-6.501798895711128,-8.449027836530336
61469,,-4.514499088544364,3.118389027721747,-5.229709209062015,-1.1950985314246911,-0.2567234063873608,0.3822823126985226,-2.6125561439544165,-6.441204829293348,-5.472219459013217,6.776937847230605,-5.201087362996891,-3.8029208533653542,-10.45735584924224,-9.921980021479362
61719,,-3.792355817668944,-0.8640712670887846,-7.86444599591735,-3.8979922798868634,-3.2466473130972235,-3.142204449382592,-3.2943725952973004,-4.817587055601619,-4.489113862321055,6.139621736505173,-4.647633187786083,-10.170086494248654,-12.232044932175556,-8.576407366717085
61969,,-5.401898468942006,2.194642436685794,-5.933957922087444,-3.149971615370666,-5.129029088164149,-5.501695280691621,-2.651762756603256,-8.65861362189126,-6.511032700006584,5.27827974885608,-5.96137313494777,-9.61476115273287,-10.10040150201114,-8.968522654895976
62219,,-6.737729588011604,3.205206392368046,-4.131275360123558,-2.09897323528874,-4.840625396573578,-2.0712545218387057,-4.6039674576931455,-7.966903134727562,-6.0982126022092285,2.982751555386401,-4.746034534949772,-4.484882591478323,-5.258528919641774,-6.457037220950039
62469,,-6.226642279083401,1.3394762590047091,-7.957885054697684,-0.1176178698813833,-4.189032063703362,-1.6734986019261298,-3.305816817605613,-4.458692272930285,-1.6012455318340009,2.866748378990013,-4.849159237681503,-5.320490998881486,-2.628809400112899,-7.213694914640255
62719,,-1.2959164857042276,-5.90293033109193,-6.166233953945772,1.7398294103344356,-3.018071688841066,-2.708242136377021,-1.392407588931278,-5.529800991648976,-2.7969564617277283,8.51992015429295,-1.594810000576178,-5.245928071594792,-5.049320452137813,-6.578668085476026
62969,,-1.073717876500381,-2.8915790978347014,-5.426358483553223,2.718053878934987,-5.513284871758248,-2.4121909002238264,-1.8103327650739331,-4.415640631391108,-7.117273082372226,7.184417859039286,-3.1466476731190065,-5.252365345298685,-6.755831987123584,-5.726657774973095
63219,,-1.2773476715415373,-0.269460526740586,-4.85670371516836,-1.0305270857923183,-6.466398582970696,-4.8927805428144175,-2.7876938401120466,-2.3017165931663843,-4.022584846620725,1.3987182834763612,-5.180328381958022,-6.278423014271819,-5.28705320024004,-2.434175330502653
63468,,-3.4260822808621514,-1.1265640981085991,-6.005033351569702,-1.907583370134513,-4.854211769482242,-2.9093408610795937,-0.3850562983009981,-4.991424299454743,-0.3350594325547751,2.1660945732103056,-4.036186377933669,-8.074876083398255,-5.183427815042487,-4.401282371405771
63718,,-2.0903567110224257,2.300556203519469,-8.594604409066811,0.0876884591191557,-4.306618407820744,-2.725766744915576,-0.7814445505467338,-4.463920189854583,-0.6304861579325404,3.4769278056509445,0.4319444315792221,-2.831049173642074,-5.262489572843956,-6.432213223757284
63968,,-1.9527421458473075,1.4476520404475848,-6.640947087755567,2.9887269026353347,-1.74102333102468,-0.3073370472792979,0.8586886011581087,-4.494605514700991,-4.594618780037591,6.598235391616782,7.929243187828425,-1.0887519323419388,-6.93064715153872,-8.376940601658394
64218,,-3.238036845533085,-0.2999651511009184,-6.060235243515086,4.86649828158844,2.32276148965395,-0.3937697933180167,0.2457453344601562,-4.462892911309332,-4.639431105528721,6.363031500052147,6.697383351459264,-0.8915427694293331,-5.0608796768459365,-6.466500757697111
64468,,-3.666528771308392,-0.3450744595435077,-7.450420928379987,4.718408467227576,-0.7753730206112485,-4.816817073761484,1.9463112075668736,-3.9727931569289545,-5.733293476739751,1.43294845473419,0.4815292021507913,-2.8480051090179863,-2.1014958430767767,-6.146690068463981
64718,,-5.267648709488151,-0.2328001711179446,-5.279597392227933,7.467036216196137,-4.784693206372758,-5.363703196876488,0.1251801037904908,-3.1716518453199964,-4.309646775916943,0.1501139288523927,-2.124928703074873,-5.801639186007791,-3.295799946690801,-3.319275033616033
64968,,-6.233534096265549,6.011215478418728,-4.332195470324999,7.069060427329386,0.8322563696029828,0.8319981304416493,-2.2735369493732405,-4.855812972531283,-2.6943664519189854,-2.480407409334044,-1.9668691665066975,-2.9883941918183705,-2.963383060822017,-4.830644066660926
65218,,-2.1317494768404988,7.976563047222616,-7.187217559663734,4.761641912394564,1.709340334533349,1.138185332986542,-2.3420546451745983,-4.3633663186929885,-2.9275934580628933,-0.8723835815977297,-4.69924875411082,-2.261865644857483,-2.741221469852316,-5.571544278265334
65467,,-0.4343819300308624,8.099430527911803,-2.756769653859319,2.393468112753147,-2.407620621657821,0.3733526670998041,-3.637675604899576,-4.0503916135747335,-3.349605067032477,0.7798709788387116,-4.435277610731208,-0.4739240084320331,-2.947019853969244,-2.1799351276202827
65717,,-3.1886581135376177,2.030375944324412,-3.2368360629286395,0.8830042012143513,-2.7299125021104387,-5.207555116843395,-2.655235903478126,-6.3132406118518425,-4.825215873141182,-0.5257667055296111,-5.517106469471223,-4.072156436739861,-11.701384840909231,-5.007147482877042
65967,,-2.3399964527511967,0.989440890199946,-1.1711278305801391,0.841082057668502,-2.1384854328227902,-0.9081051671258356,-3.5108889514898727,-4.328071590053889,-3.1376454517882597,-6.023263249611932,-7.41074749181652,-6.377386319897807,-8.606076085817746,-4.528632485042061
66217,,-1.0883907866859357,2.011133185749336,-3.904887083794853,1.3295049610080585,-3.0240688798368094,-0.7381719913412457,-3.2606836690640826,-2.251869656893675,-1.8766831659479988,1.4629719483288732,-5.974440590136951,-4.699382034566458,-3.727631670519159,-3.0528092474361186
66467,,-5.796666257770068,4.820462814678485,-5.676468728000968,1.7878991771513983,2.136502868796371,-3.889681812286118,-4.264262626669454,-2.326347712275477,-2.002979737864398,7.71151649786651,-1.1475245922244302,-4.984355124913733,-2.972346523963083,-4.741511173990807
66717,,-10.33254588069736,4.953952668890177,-7.71137168047618,4.30076976061339,2.411566848627382,-3.871052561178221,-0.8289334058929472,-6.664652558581532,-5.876484605047995,6.177210541136434,2.405653278277674,-2.022171557355911,-2.9714189881855484,-7.049936955207103
66967,,-6.720133766409795,1.3569600953513097,-5.156866383996519,1.4484493479995604,-3.514700716770829,-3.54508523361458,-0.7337970731783257,-7.504282666292314,-4.7865833421432855,2.387589202543245,-0.5952971792860258,-2.511738479771934,-6.177391079351383,-8.10307499991877
67217,,-6.879893337813541,0.0055967865625717,-5.462574502808385,-1.5965860601301718,-4.055628614956158,-3.600928738446293,-3.887830935728791,-10.667878340095768,-5.926219013047547,7.642957334719851,-5.860753550280792,-3.950888111607501,-9.889026663753652,-9.151539966032464
67466,,-3.9167017013003433,4.149754304390796,-7.274670310732599,1.2687125263575911,-0.227605831726822,-3.105643605429878,-1.7684404523101476,-10.93707308128032,-11.274028184758231,6.100848533284712,-5.495218430168031,-6.234518817569992,-9.661003250159434,-10.288311294862398
67716,,-5.149950216145232,4.049836645408514,-7.642628474772641,2.7940109093549688,-0.3675797248459769,-3.539043318955593,-2.194283581031365,-8.165182787262534,-6.249519562633758,-2.837711393622678,-5.487974306383224,-5.7966243574748,-7.03012942614036,-9.464409254771136
67966,,-5.490976501342626,1.233805832181137,-4.836002540497164,1.2725370602676307,-2.409213827855356,-4.115594466381724,-3.540484934605661,-1.8517958736081357,-3.774143597780193,-2.048485053045919,-7.416595921462621,-6.266124966900859,-3.528560459139725,-10.216689613958875
68216,,-3.7454299039063703,3.666231993097039,-4.473296173498032,-0.3976799368855543,0.9209175320360364,-2.979544847751636,-1.3605372208636806,-2.4871277960054994,-6.662677932988366,-1.8409241110868535,-5.207104085788989,-3.3719010077542637,-5.231802655190262,-4.142242539981504
68466,,-5.504724786169195,3.205318397078108,-6.606240338588847,-1.6985934874939463,0.2030423167558758,-3.396740251188839,-1.0356998652914469,-7.980618252483826,-6.587912712306691,0.3854382346002473,-2.386627134939415,-2.367341977210976,-7.517734703683354,-5.004412094178665
68716,,-6.618323697122397,3.184818963876177,-4.862251861425039,0.1401799199870354,-1.807449953752704,-4.8653100523808765,-3.549531152537466,-8.616659386980206,-7.381826475120707,-1.573506644818313,-7.387469888255067,-7.294504647489143,-7.164064127121918,-6.2679367934222885
68966,,-5.304894927908254,4.6756725882750425,-6.68840478262196,-0.8574858401360785,-2.334099226840877,-4.606797165898749,-6.313767691171699,-5.41635296107841,-11.393548405858464,0.803939669456472,-9.646290096553589,-11.428164906863646,-7.357356518957707,-8.014763096877939
69216,,-10.126129791097949,5.500212936410083,-12.76052302078854,-3.398038773014002,-4.49417440015777,1.510634987504377,-4.836385719839747,-5.6106582968842575,-7.749798350940096,4.063153638851524,-3.289311348330019,-7.664181383612706,-1.1643295900837174,-13.889812183059489
69465,,-9.308183354251842,4.200570908838959,-12.244626464713589,-2.0291559524381726,-2.1615895311755597,1.0738028985354562,-1.5921798811164982,-11.5304355618976,-4.040639844893427,5.856696264309597,-3.5170678546010743,-6.209469024292518,-0.7003408023021171,-8.468444954054876
69715,,-5.203693748489016,-1.5682558606692711,-9.040259788135703,-2.133336634684361,-4.228765064780676,-2.862829432276686,-1.890498990882316,-11.884800434306456,-6.983833349274752,0.0942497379408896,-3.387546745363924,-4.677664601773107,-3.345941366536867,-5.926779108520087
69965,,-2.902376350245335,0.7023907239584988,-9.23622067939448,-2.1897468179515824,-3.5439332869654896,-4.532908269466095,-8.315298137279951,-9.541894958606864,-6.93528247629154,-3.362667866143117,-6.711903938444404,-7.323025627954007,-4.09774137944999,-6.925278485989004
70215,D,-3.4784128189272505,0.0699684151372862,-7.40557152925831,-3.7688800934892654,-2.0461032953036624,-6.029258398067578,-8.355310971929786,-7.309983188932127,-4.29634923151988,-0.7347028387216158,-7.874836898761487,-6.058754252495875,-5.527596261313029,-7.287675514184554
70465,,-2.374884958608412,-3.593673972969218,-4.865630255675998,-4.196659333710153,-0.2397403062863383,-1.0443688364136303,-4.643041488394564,-7.35369690516816,-5.735615808693754,0.3406699642000792,-8.803699518830722,-4.301803491274368,-5.864485535900107,-4.752870833427409
70715,,-1.1145581122166743,-1.441177012880734,-4.252555771521134,-2.278844253470716,-0.8914972300795022,0.4446432746861575,-2.9942558120521983,-4.311259195319867,-6.421907652527369,5.158854819874517,-4.694601723905036,-1.4154636923586497,-8.510619245000255,-2.586846227822473
70965,,-1.3602301584973593,-0.2671746547633943,-6.532873285967986,-0.4765200265060595,-3.939560722223845,-2.368005123808425,-5.1178418924743685,-4.013000180122824,-3.1169167635977164,7.662816838372324,-3.8938304116782434,-1.775568504744571,-2.1331093234559164,-3.973492531981057
71215,,-4.324175286944779,5.325734351093049,-8.767174124235922,3.008659793704393,-6.475602070727052,-1.1826987381456069,-6.780012762078171,-8.757326193770318,-4.044829095010409,8.036337348804475,-3.732974605862615,-3.597793721597287,-1.2136561813684736,-7.61491744634106
71464,,-6.591259994503328,8.446142611652194,-8.258325883073645,1.9869033253364825,-7.644759462271597,-5.069409978805483,-3.8065863479563458,-3.914256167236663,-4.893249675016475,6.536759554706983,-5.243531983433968,-0.9059214629158572,-0.4680069717536595,-6.771764556273481
71714,,-5.4565573972892825,7.17437159943946,-7.297113039561125,0.7743330496769387,-6.795564885790317,-1.8929391809086464,-2.6712175385929573,-1.008034248237379,-5.809260350648638,4.999900773857123,-6.184438519448593,-3.5860821770102813,-0.1893635277652835,-7.964829794339003
71964,,-6.792316160421001,3.0782542116622142,-8.168971579954698,3.94999926688583,-6.628731864379345,1.928218036528924,-3.942991471225368,-3.302840744230865,-6.715010291139734,6.924207894468953,-8.346658079013837,-2.542777911411508,-1.2826110214352142,-10.137222076698894
72214,,-9.589091687250562,-4.753769619712973,-5.421206473156232,3.192396768401033,-4.138387470938079,-0.0176588445929083,-0.940199928445909,-8.297708726385116,-5.52993516435293,5.64025956515303,-3.3176875864161004,-3.828846225843357,-3.745661824040611,-6.99202592101992
72464,,-6.738397492049392,-0.9892282791347112,-3.9374139503089984,-0.0588353439057231,-2.5556833048708336,-2.17490228422465,-1.4145678733328806,-4.563920044281681,-3.668729223048275,3.430651750966389,-2.626794633846444,-3.5776045143577884,-7.489890205961727,-6.732738335053144
72714,,-3.2771002688507256,1.99951997603358,-5.3026729510326405,-2.4941040052497723,-3.649089246813142,-3.36592734227748,-1.7600984253306595,-4.067885839868579,-8.406787034742086,5.220100308165312,-4.3754389719142335,-5.528704256154424,-3.034775591525471,-7.361125822890989
72964,,-1.9346600465716557,0.9417843344960998,-6.724030197231396,-1.6108722062275505,0.6870838232082699,0.1628819479473783,-4.819291356181784,-5.2324956757738335,-8.881050773513207,4.790101828993243,-3.768988172832908,-5.200070822196448,-0.997896480326552,-7.063818290922694
73214,,-3.04397838210287,3.089311223673386,-8.44589047237788,-2.205153385645366,-0.3529714942432801,-0.788828344746018,-7.123807274392519,-6.188226366170504,-6.795425363684391,1.3675373784678206,-5.502010057924083,-7.124599232294279,-2.860233830141164,-9.356458549583389
73463,,-8.463256273966667,2.2762515240716947,-6.223339919075349,-0.8558459435316251,-0.8946089679680911,1.3021468008671386,-3.744116047518214,-7.268652819682934,-6.087506365280946,2.321574258221486,-4.7564567634876544,-10.465639917866024,-3.6058489938574487,1.7597472769445763
73713,,-2.866371395863893,-1.1854711775535074,-6.138180133493197,1.524148856911653,1.3166169651555015,3.254221858427437,-4.716515220229038,-6.0386167162943005,-0.4375555895460437,1.2421703251151646,-2.266333534717518,-2.47407331255319,-2.3870956528352725,2.8190946712580773
73963,,0.4008803302317288,4.1474956006160095,-4.30882142318951,0.9207670108228062,0.2222120504226296,-1.6314521188963127,-4.6055194577831005,-3.197828386694501,-3.4048767246175133,2.5028024708489625,-2.591822257898091,0.4501653197182832,-3.7116169400539873,-3.5329691323265857
74213,,-1.2176403525623918,5.037332747960796,-5.223283419870006,-0.2458652470089339,-0.8233596582999214,-4.966455792022893,-0.0566851040318442,-4.228332929513989,-3.633048310456635,1.3940412669994595,-3.947152996285945,-1.956751845031988,-2.541585914111132,-1.475317932925826
74463,,-1.5821224005529666,7.23468156801689,-7.1218503328840495,-0.3240337954845004,-3.547790951299948,-0.673172350568771,-0.4373915428391889,-8.614455754820977,-1.6416489902151907,-1.343292337023545,-1.9718625245254304,-0.9557502618776708,-0.4529544217870967,-4.462499649548686
74713,,-2.034905849302155,5.09282010080915,-8.013029285842673,-3.390726842428558,2.339827918138292,-2.783051685320643,-1.5452883593988291,-10.743486472434435,6.329775456268515,1.3276282326677742,-3.062807553489504,-2.779061004384036,-1.725541901727148,-7.445912286573618
74963,,-3.999945757376635,1.991376532064889,-9.361815733330324,-4.829429199013332,-0.8782028239992192,-3.627865632664716,-0.6673559738206257,-3.559129957365918,8.545558407486007,6.124935148338514,0.112139970569372,-2.3056455039313493,-1.7760083260263038,-5.126318901874811
75213,,-6.164421857514048,0.4883964679256694,-3.567636149417968,-3.085124203922219,-4.593602954226998,-2.368421211921805,-2.3219274436958544,-3.824875740760784,-0.4284017647048585,6.333506054555218,1.4063859697349537,-7.37764684576235,-0.4698940138531353,-4.147420316255478
75462,,-4.984709865852067,0.4077662369086862,-3.505753892273087,-3.1129137130796343,-4.601292894776259,-3.46874083199459,-6.26094345183771,-8.380413124313174,-8.57584210736735,5.115970649273618,2.044973723994892,-9.202774787379504,-4.438756682634784,-3.865442110563469
75712,,-3.776609099679805,0.983866656341038,-10.6961309744596,-7.735517373649001,-3.733595920926731,-1.8605374341038416,-3.6286501032845377,-5.6663913106108375,-2.647122348984891,2.51498408616817,-2.118578378990255,-9.424124273534243,-4.874798900064679,-7.939822626316993
75962,,-7.105467278609883,2.858022376666921,-5.137913304761722,-4.619144270846042,-4.964027486773491,-0.7424643311810109,-2.093733766283399,-4.744316072839742,-1.3917919278476585,0.7143149808835818,-5.023435919992204,-9.063314882736012,-1.1755763824624292,-11.906530566306463
76212,,-9.186626478681216,1.4324603558808504,-3.756180662429297,-1.7409149881722776,-6.399631793963544,-5.71868574123585,-4.213191577929496,-2.351794644240893,-2.287808829066095,0.7328893191552245,-3.1707327748525693,-7.094082571124204,-2.764232766299291,-9.679578337469202
76462,,-2.0725559916031053,0.8424769825593137,-7.383878786150317,-1.5461550978497838,-6.116767222864038,-7.894752330858299,-5.284320179324217,-2.1024415490570108,-3.166030744320488,-0.258440861181738,-3.351451440978648,-4.020714080121845,-1.9591632553154417,-9.869949655053691
76712,,-1.493894967704033,3.8222748589410935,-7.745867430269109,0.5192060880465555,-1.6954687693887402,-4.447109049812159,-4.58881800717845,-4.127612225110736,-0.0795691584470578,-0.162974946687819,-5.368263713879845,-7.046378232284155,-3.471047190045817,-10.14131125090388
76962,,-2.5687408478041727,2.331136281645353,-10.318623828909727,2.1648530263603014,-2.2343140821497776,-1.66656288794697,-4.111442528008704,-3.66713144391758,-2.132959331525636,-1.871360960114644,-8.10853450465686,-6.923020800958023,-4.622807115487544,-13.18837406023482
77212,,-4.877205855866778,2.32326524163657,-8.969735331026992,-0.3686133786078332,-4.006778957961615,0.155117798689943,-5.745784641130865,-7.178022222735232,-5.16967417473424,-0.9717887135926628,-4.058543522060088,-5.627178706674978,-2.366212682459012,-10.078330449108376
77461,,-6.770580560012386,3.8301206432046895,-5.480239733057264,-4.936447958825779,-4.698420199552559,-3.298509057215818,-7.491743569454439,-5.628378567156903,-3.763672411986214,4.226076982858383,-0.8860468858744869,-6.249581698437324,-5.594430064666805,-4.395778861904259
77711,,-8.60070753518267,5.349611939825371,-5.9762905981359005,-2.0461010802376296,-2.4866540598830875,-0.7772274370648625,-6.586411228539506,-7.488023686644718,-3.7071039719690417,6.556972500745319,-3.481422689783655,-4.433890981517818,-7.665010340609459,-6.876510315555207
77961,,-2.233924018534524,4.57969221927764,-7.257829226397174,2.700495899446413,-4.420989402311184,1.9425597777758263,-6.08241329066761,-9.785291721760874,-5.200167120780827,5.652981808047345,-9.821895176382052,-3.5471555811212907,-8.793555681634702,-10.312812178659849
78211,,-2.592511068982545,5.161971333165958,-8.418299184649145,0.8743531578459738,-6.790984839370821,-1.1488673664615103,-4.810659364887186,-8.845170725959349,-9.005526127355953,4.93614945466219,-4.3674768213463055,-2.984943598500915,-7.497586603834467,-8.1906016842409
78461,,-4.208610110910728,1.88742451432074,-8.793770046742164,-1.0943729191781062,-8.867375970374304,-4.863391949117933,-6.85365508044784,-10.272369888998218,-10.278010010429682,2.5473947314190557,-5.402817627950466,-4.977216477196421,-3.261868674730803,-11.857339800774769
78711,,-6.37101719446092,3.839711071255386,-8.525062670663972,-2.7354599952855088,-7.140648939928777,-1.221575620676957,-3.8553662966153257,-9.021699019332818,-6.833361248093008,5.77619343217499,-3.6055590807364784,-7.604344169743474,-0.8002113711910068,-12.863734217564271
78961,,-4.497599099982347,5.752140385787797,-6.662524202593253,0.6688426472146826,-8.608936175937878,0.1373953303792916,-3.640774049083446,-6.614040073928297,-7.70347845338557,6.050526924291313,-5.359248397172529,-7.770032469558234,-4.074797535317998,-7.411632764476153
79211,,-4.800298874959999,3.1419810821734484,-5.29495496413157,1.3265948674184185,-2.905589840457905,-3.509486565152004,-5.885728414173875,-4.786558209233213,-8.794804338856697,7.858408022350961,-5.724111875957707,-7.274760973974818,-5.999612368468758,-4.8139970988224885
79461,,-4.21837882740626,1.2330504144388428,-7.460490137013426,-3.7725010948311697,-2.503866250607507,-3.1330532270621205,-6.620183957622649,-2.337671351381675,-4.380542671479296,5.652167521393617,-0.2885575773813497,-4.622923018974914,-0.120907492585555,-6.660083385180147
79710,,0.7647552582837353,2.9584011859392643,-7.857700786626772,-4.78111931879524,-1.063132422961088,-2.075239187523565,-5.915096320924742,-3.3651365490932523,-3.831718833141444,4.104968795043341,-2.1400962186338384,-1.3891569893554856,-0.8002594179695326,-5.372174484877375
79960,,-0.1985773356071612,1.2044837730668123,-14.714935077127311,-1.0952003803613437,-5.066119954949349,-3.5233418994915136,-5.014613982712377,-6.192622556210276,-9.402678417997205,3.4443526529822948,-3.3468957795153016,-3.0129884810084686,-3.5375868067836964,-5.945012601788655
80210,,-1.0455310830271087,-2.685204328126065,-10.642649056639987,-2.8391530920843984,-6.05481925001091,-4.379159814359586,-4.925022434369989,-6.163420123396049,-6.535720924630216,0.6878632408024833,-5.117082486134532,-6.9847397326019,-4.881098528400201,-7.524244952799446
80460,,-5.373939904764081,-0.7835096185349242,-8.799209094659052,-2.745890250317564,-3.8948101130087807,-4.255479774530169,-4.573522424664905,-4.380799098583194,-3.3721488007635188,3.647501217756068,-3.7204328162757134,-9.583438315917828,-3.0636711631779407,-6.000838725626496
80710,,-5.316310083846173,0.934907964493077,-11.15379415687158,-0.3903895662338482,-3.4367494978554856,-4.220184915762037,-5.350721981143245,-6.9137370523310695,-5.785672002557334,6.449834296019803,-1.5745434086512646,-5.946821264739571,-3.6405922916587374,-6.199723434247998
80960,,-1.9165686047720487,-1.8888848424662443,-10.32495870005354,2.701633488784516,-2.4851503917409747,-5.169943802393242,-6.260007778855328,-6.001123276503769,-6.868457571033241,7.875008093112418,0.5725801350288301,-2.5840044120808465,-3.5703457616930794,-6.165817902573499
81210,,1.124192705261443,1.5383642849584125,-6.737340735271323,2.842339726523408,-2.362701580690828,-5.029294290976308,-5.781675050413549,-3.3821178963329848,-5.790380564791997,5.352265761752092,0.4129175341293833,-5.063968813678445,-5.456100606120949,-3.107532987767532
81460,,0.1667042645528553,2.1332886218745384,-3.5948399472117454,-0.1112458418440651,-1.463440448513966,-5.583868836506863,-4.591500079466302,-4.125001788514856,-3.045386649463539,6.030783881031711,-4.697182859754233,-6.138051823659126,-2.5959312140597883,-4.130434088677901
81709,,-2.37174648243659,-2.1070634588013557,-1.3470874261650971,0.4976885089692997,-3.5980289160358487,-8.707095045461932,-6.012422377911779,-4.979624435852601,-3.560077904667086,4.886451671479495,-4.836046276999891,-2.0482752656159646,-1.8701187733307048,-3.547829310045452
81959,,-3.0130442713972,-0.584967708046171,-2.644743399983291,1.2300448159322033,-6.517386810878897,-8.771285226774069,-6.211108508086617,-2.7800848592252048,-2.7001937162863543,3.598964527162598,-4.012578769002662,-4.780803713731554,-5.743116481448638,-2.0485817917036453
82209,,-2.584476799818693,1.0597890602760915,-6.529186659906843,0.1074896829499893,-7.975529379489183,-6.880034995358907,-2.0619997533287178,-6.151371128703016,-6.049556929698232,1.1261810440663296,-2.3620201848150777,-5.228563929063355,-1.9739399361184944,-6.40265918938367
82459,,-1.2846479994251083,1.319758372114051,-5.279651834864653,-2.521829465178103,-7.761908780114748,-4.735714879491086,-3.720181958979412,-7.32100370535966,-4.043794131897558,4.658572954700403,-4.410674797450097,-6.260761183545976,-1.3131305797830362,-10.332235866538904
82709,,-2.666181775962293,-1.478819624706888,-5.169475282240548,-1.7108611031703422,-5.499373239388695,-3.95020824885322,-3.4526701344256217,-4.88052202894529,-4.425321029415231,6.667749589014043,-10.22123878607834,-7.101076883413276,-4.872343887990703,-7.83813758188688
82959,,-5.651387716156342,1.923646059596107,-5.306164400789388,-2.198302914467187,-7.625205546084036,-2.1432008454662985,-1.4422248242570477,-8.238105917786884,-6.430287118379691,4.077682128141613,-8.203869447058814,-3.2580731503682374,-3.180531592442927,-7.458101507002976
83209,,-6.603363207486977,4.573491553437397,-7.913867859827166,-2.8798492532120914,-9.199937501367843,1.0207246370355731,0.4841064398605232,-5.171342213239266,-6.331401656329813,-0.6221362586468556,-4.485128318758043,-1.8761395409178023,-2.311946515559478,-9.798725291027708
83459,,-4.228190985244672,5.289303831897732,-6.346693408389264,-1.87353096329552,-5.870258858639779,-0.3417470706870944,0.0830520894115915,-2.197959002576974,0.2030876615756988,-0.2792095690554023,-3.9394796222397535,-3.38872405011382,-2.708051743826175,-10.005982577331569
83708,,-3.066548189237352,3.486391189351936,-3.739354305353314,3.5778172280216243,-3.1388616774215023,0.5093613153080243,-6.665574983065166,-2.858604076476638,2.024135271291394,4.741580651225545,-4.909636443822762,-4.06373890100736,-5.782867290742396,-7.870015666151362
83958,,-2.757219870125615,2.235442831405224,-2.023004921718739,1.150115650530426,-0.5220822050010204,-1.3404302473622387,-3.688777369954176,-2.469504754343619,0.7745637216959715,6.750705943233333,-3.678726809600178,-3.3877912945755084,-2.4112523233675094,-5.263628479355404
84208,,-3.4740367079082635,-0.3022786987234466,-5.966930875022813,-0.4859755727918597,-4.6911779298134455,-1.711150804773204,-2.7927812476947835,-4.6536745851098615,-4.43738198072492,0.6261149664432547,-4.607653368956765,-6.171563597775654,-4.252208462466808,-6.328686882424658
84458,,-5.6520485686788895,1.7459373593849126,-7.15183195178663,0.6159992299705668,-6.685595530416504,-0.9635798571742212,-1.0179794451635331,-3.99991919066136,-3.6007705751873944,0.9259800290528346,-1.73987817419208,-4.214156054517194,-3.798788420561677,-5.383006439707496
84708,,-6.595920399896261,2.2052184644012183,-6.141324038274343,0.0883215898188627,-9.039537246893714,-2.5955058574003056,-3.370076445305204,-4.004290625794894,-4.348720981191712,5.637484848109519,-0.3747715631293515,-4.48130664805891,-3.8949043358181576,-4.201919965251991
84958,,-5.446156574959067,3.01739167793948,-5.070026310305717,0.701171054853388,-11.24662838746788,-1.8264708180919265,-9.400652738676603,-5.699926319836841,-7.373281756620567,6.93856800987345,-3.83645304737112,-6.768906066203575,-6.019792995579212,-6.694705507193335
85208,,-7.521244832841777,4.681966367586372,-6.145602588466756,-0.439881281043175,-5.343213895875316,-3.210903713451461,-11.525305877030185,-5.508534213244859,-5.568217204834411,6.608181257365286,-6.456908496426966,-5.189587418965758,-4.158234193479255,-10.030804053501772
85458,,-5.326441595708543,2.814802759166123,-4.649545468338864,-1.915401031942613,-5.958129775871187,-5.542207749849636,-10.444365588332644,-7.142305259647122,-3.043521212638685,5.748429337579894,-4.796021936424749,-3.9702559616930913,-0.4439827995687666,-9.758307900480704
85707,,-7.861533722243701,1.7458707083312142,-3.1546675704032623,0.2679392833407772,-8.218696265105393,-9.864949471349938,-5.477903158261615,-6.00918624424016,-3.883397858997873,5.593178139150686,-3.8601441056194026,-4.137975804864623,-4.259900496227024,-7.790468050432442
85957,,-4.87977423647548,2.3436856356741784,-4.967180219764428,-1.2810542727990035,-7.318710128097701,-2.534593459669736,-4.499513818626121,-3.592397415985965,-6.492604386884682,1.4094218481401093,6.963657936138967,-4.518357485294303,-3.039374142812713,-6.986439844117522
86207,,-1.3992697636400615,1.2742920887948064,-8.084630388915356,-0.9361700041409478,-6.31192533132662,0.2154994150213025,-2.093699681437749,-4.192791385179987,-3.614268013520094,1.1104321372507728,8.158768094833729,-5.625207964485889,-3.287524262347406,-9.9025254233273
86457,,-3.116963815412511,5.109050918549524,-10.651828508974134,-2.152138756747453,-2.5725823738558127,-4.3127687373224335,-3.288913127608773,-3.3945154460593057,-1.6162345251328805,0.7287158947722423,-1.2348933289409671,-8.13695130529081,-5.7139601131500575,-8.667256136010785
86707,,-2.7703974638811677,8.502375161245272,-8.08976634502937,-2.565903520521991,-0.2603694039004913,-8.385066854879833,-2.1394465926385893,-4.108550815449064,-1.830616062910889,-1.3555150395868898,-3.850840218356245,-4.931626492510391,-4.641697533698884,-7.40628134922701
86957,,-3.623737191908509,6.891022894478244,-6.536416360888104,0.5178849469076133,-1.582225472774681,-8.215426433644778,-2.4770853753954403,-5.252008432365518,-1.965825538209292,3.543915164226452,-2.0618844117758406,-3.8290748447897216,-5.27076840556922,-4.644314348290291
87207,,-1.765666266248214,2.5923788802497767,-4.968101301689047,2.895991921154512,-0.5681721158273199,-9.364447157730767,-3.440241233313246,-8.180332003656142,-2.365685160534598,7.291372062289236,-1.801345801566911,-2.945118115084383,-5.612026574244624,-4.322551330046224
87457,,-1.6298449559860084,-4.1699440524680815,-7.320697088828236,1.496469512688683,-4.746691690328665,-6.447388648460018,-0.9259227247276512,-8.206175933334102,-4.6907021039866965,5.863169940707356,-6.815280856810534,-2.38351462963422,-3.662131040122536,-4.42040962548801
87706,,-5.33402814941975,-2.6582090028253704,-4.859634767937902,-3.3313871395670858,-3.236242140473096,-5.94148506693959,-3.7181922835849,-5.925522090281097,-2.85551110175257,2.225202172480775,-8.065012486293865,-3.6956006802808,-1.9534424264614687,-3.441949229462104
87956,,-6.600496018130173,1.6880936576989358,-7.470194601008292,-2.4549533253494458,-1.809507901402484,-4.020395352282563,-4.632722852209427,-6.254296074983461,-5.619064816315348,1.9146216330364076,-5.585694999376374,-3.7952043958783928,-1.8269902139735448,-7.9564745380198785
88206,,-4.205288670688655,0.5620955905906198,-8.527089237896531,-0.1466192864342438,-3.0392885555210096,-1.7636099478570415,-4.05205973435112,-6.320431558796093,-6.288351702576732,4.267537681556145,-7.790845805325554,-4.236616897494271,-3.534550558559105,-6.555891086317097
88456,,-5.531156131165876,4.009746863768938,-7.678875791793045,-2.458346370305001,-5.110094113244614,-3.728864565693746,-3.698224023655516,-3.663943799770913,-6.275508991134262,4.588478540539956,-8.95968227640993,-7.078878986316117,-3.763197518378192,-3.599727974244769
88706,,-1.9077324980514805,2.522561922790254,-7.088219026715532,-5.567044531836023,-5.116433324950008,-0.8894732895830849,-4.010334652798106,-5.176641487389069,-4.287200582563469,2.7288640673164144,-6.072280875887282,-4.790871712513752,-10.05069244323407,-6.176613680760647
88956,,-2.0261254935708357,-2.899650626093943,-10.836486650614772,-4.963442375833051,-4.02381689674343,0.2454931003246319,-2.29220106063179,-6.808041439048461,-2.5411531240784715,4.3096263652101445,-2.148763540521027,-3.355061438490676,-8.187650452353969,-6.772580636774047
89206,,-2.722572057762787,-4.389818115983718,-7.730240347145427,-0.4791662974027803,-5.029082680926527,2.8287877093804314,-3.729040100273153,-6.691721242476806,-3.754924174758608,7.042303267085051,-4.600038505128087,-2.687369568637323,-3.254359473825517,-3.3351868664794404
89456,,-3.382594023072367,-6.036292572525294,-10.052938774991668,4.533198630221956,-3.277327518477951,1.9122425058493449,-4.59199916120907,-6.011431448124537,-3.3562480676956588,8.699091828763398,-6.968822621622302,-5.873195556584552,-4.872039873851231,-5.138898853968385
89705,,-6.2650365311006695,-5.245051748552313,-16.74518922907074,4.474400955264329,-7.081441163005375,-0.7335473213739264,-1.641295783750899,-3.963303568044183,-4.560475624160276,3.3436370968998865,-5.410854403400927,-5.145924474437551,-9.57325720747956,-11.821540808946036
89955,D2,-6.615365977288668,-3.7883870291174127,-14.245283602061049,-6.414214248942569,-7.704920699237125,-1.827577663425739,1.518435858895579,-1.5607941051630327,-4.0591367941503815,2.045333773343694,-7.33157771679749,-2.6627170023333475,-4.16445733425519,-11.582732495076286
90205,,-1.5701049752346607,-2.803383718320363,-12.51754060756733,-5.0292254500249545,-6.539086029749898,-4.865692140610252,-4.298813198542258,-4.538538245741684,-7.502432814408202,7.649948443400422,-5.7307080051063854,-5.121729857979933,-6.930819839087604,-7.95842336299294
90455,,-0.2718494339410577,-2.3417846996538176,-9.66783992808235,-3.005937803670835,-5.394981297119161,-2.404528728772369,-2.050061896422479,-6.08029929605612,-9.553219296661188,11.00752868961882,-4.609527309826467,-4.064721807390454,-4.588915213238947,-7.909792180311992
90705,,-2.691157167673837,-2.180018046270648,-7.578723246540884,-5.1918549181802645,-4.926188602263614,-2.160208352697748,0.2119548228649061,-5.219405769457106,-14.469141626394714,9.751555430929365,-4.389718904776894,-3.975088628959446,-3.242565636059249,-4.556783143041017
90955,,-0.5593247046143077,-0.239372223520166,-7.355299086344965,-1.423767458989622,-0.681720531210728,0.7453524064381252,-1.1400319040686575,-4.245399380561477,-6.145449871177985,10.673730345569329,-7.111444254232328,-4.766914921178666,-5.6520372268958905,-4.101050010663528
91205,,-2.677652991768244,-0.4776360300399133,-10.094581283163755,-2.060272601180419,-2.2032156348591023,-0.1410858319661246,-1.9448082689382264,-5.311101606731491,-3.663619875266233,10.358380022471929,-5.246853265284472,-6.846163391448442,-10.804504559363616,-8.85977824097251
91455,,-9.393427635183984,1.4135199016363933,-15.61262661783789,-4.259137376921574,-8.314874272770702,-0.3537059118773794,-2.1506136049430955,-5.393117385828594,-2.7980668076864283,5.88996273440114,-4.780523400677295,-5.949091382015571,-7.078074544563524,-5.818248323652544
91704,,-3.946860225853995,-0.3440458086587899,-13.441687142602913,-1.3626027829733416,-7.953728687107383,-0.0324184110323498,1.054689057534615,-3.130644894352857,-1.8435910326790808,4.812424230676888,-5.071542724242837,-3.462723327839556,-2.146071922465903,-1.725138285262819
91954,,-1.6694725702799018,0.2068101286801506,-6.869302485144464,-7.809310691546312,-8.943813517210366,-1.01653855016924,0.5531713127931838,-1.9503909309463228,-0.58120690936207,6.495272185363453,-2.353298422436485,-2.8143293775051665,-2.022300013703416,-5.169627047852314
92204,,-3.1641326049256886,-1.718526433550143,-4.178883410167643,-2.602560284241221,-2.752830595711302,2.23270701581318,-4.862672830276688,-1.7811423966408777,-0.1216194400967217,5.18761582088818,-1.963531418458664,-5.347535744496077,-4.341001062975565,-5.920051766990273
92454,,1.1116288703178878,-0.1875937831667957,-5.414528728557863,2.7797973217152965,-0.5901369597742685,5.513152269904925,-4.311182220135946,-1.3406253246585096,1.2823230003929602,6.0938071560063625,-7.454936666082147,-0.8778397374020303,-2.789132380016512,-6.426616772897324
92704,,2.2907662388699417,4.323436549089173,-5.96323627962323,-1.4828788569390774,0.7027421185305343,7.893211373344409,-3.607911126738811,-3.8002952777061583,-1.4246987964953073,9.93429795991717,-2.5227868801070223,-0.5821519052466761,-2.5038027770373987,-10.888534300965436
92954,,-0.1041665066291716,3.007925266712927,-4.403891076328927,-4.356746388478834,1.38210041486196,8.163088854088619,-2.412539528592379,-6.894122011792271,-2.6591220703095364,13.365104454225254,-0.8607734018370286,-0.820258713476419,-2.96390951452894,-15.16415614409038
93204,,0.4557473647359319,0.3305128510342868,-5.800404887191707,-1.919915575836283,-1.797211237803292,7.392186191376265,-7.03490877864006,-5.418730251043015,-3.0307896127825544,11.768380920725932,-2.260966878137802,-2.219771268993882,1.3169377839932894,-8.767249316917635
93454,,-1.5839571793168996,3.853440876254495,-12.11546336214996,-1.91103770066535,-4.072609698260103,5.41881903543925,-1.4200120169395096,-6.837280444984662,-7.123859473071436,9.614192525661682,-3.3528385767260294,-4.337084904114716,0.7055980362418008,-5.62272694326312
93703,,-3.3424645266624635,1.6247483209232536,-10.061106305869664,-0.7272937667636115,-5.315404385989545,5.324269102295318,-2.0660458266633395,-7.955378593791575,-2.2399956612334004,9.720539631842245,-8.194960648770268,-1.734339297088986,-2.99263728824044,-8.757228571270797
93953,,-5.198761295579184,1.213357734777407,-11.725231922139807,-2.18646674563374,-2.684944009637555,5.743242949896842,-0.1844652516957395,-6.165111471488432,-1.665340335493488,10.840746534223186,-6.818547571184082,-1.605962606855387,-3.3828370591829064,-8.30301367544761
94203,,-4.549595916519965,2.0983525259952844,-6.308660748068878,-6.952810167001248,-4.058190939864483,3.184063463085811,2.3507594174805293,-4.591275231856358,-2.060060095976533,9.25019292138822,6.607682457690935,1.4664012090450864,-7.04258601871162,-7.16209294762256
94453,,-3.202769278014093,1.1583532131539096,-7.429187005799756,-4.306991425533666,-8.894426145186042,-1.047039845549739,-0.4970632968071123,-5.529533435909444,-4.175090089413444,6.425329386175372,7.119040420639359,-1.8497925808847917,-1.347968584936186,-6.4190327008201
94703,,-1.5235209411892576,0.3286225597584419,-9.784179181692586,-1.3133759082842469,-3.6329507993325576,1.097001639916762,-0.2874400767242703,-3.5787725675104824,-5.921191867227874,8.312060683829989,-1.1998560561705776,-2.7547671788934114,0.4284026834806546,-5.252499870870908
94953,,-0.2692030874255731,4.312971511531152,-5.721867844932513,2.2308845391239656,-2.622465809747184,6.845079240444792,1.2711298066874523,-2.7353532311049,-3.549209725345327,8.474783170545678,-4.364434215983428,-2.864461466372361,-1.2643630572011526,-3.677106038847983
95203,,-0.3164205807599149,6.358192927425056,-6.327824465897703,3.2753958979792417,0.1754172775045648,7.917721080927298,1.033712546847637,-1.8357370562577493,-3.951538874481049,6.666534974115523,-1.3607785409072457,-1.3186030134187885,0.3590679114934141,-4.474207140467018
95453,,-2.128023063446179,3.5031342095850744,-9.063098993922065,-1.3910622322280926,1.915457256236392,4.692464041094936,-3.323913209244111,-5.296735705833625,-4.755735442427022,4.446370356578408,-4.208123071685408,-2.212387311555753,-0.7473387048058788,-5.009339703470581
95702,,-4.931955021991859,4.707764695726949,-5.2678219575458805,-5.133226307108119,-2.6079384654496685,1.6036942128745877,-5.659595793754511,-6.680736681903142,-3.6570413638635104,9.302918812220014,-8.361020241177783,-2.948864766751749,-5.405340732157944,-4.988487677649644
95952,,-7.180389885873182,4.002010334948988,-3.9070102651128655,-4.891552573504146,1.3415304188035748,0.9671757529956452,-1.1039280576736226,-6.298654957048608,-5.97812413581962,8.41316340713921,-8.530012471591085,-5.36856485888473,-4.858273317194056,-6.374744303261519
96202,,0.2536196635450717,5.115893669737477,-4.655098757870287,3.330522620830332,3.138509880265057,-0.0983080068122431,0.0149080415736773,-5.509626760318702,-3.608007664550002,7.378817642721485,-3.2945871523896293,-6.440568009218845,0.0272305272749276,-2.295594449633851
96452,,1.4535614035533686,6.686400911730807,-10.905375231303008,5.421225039296939,3.4327319768810427,-0.5497640444589075,-0.1898969406176515,-6.386508997584137,-1.7688847050956624,8.227719521100195,1.0850897315248145,-5.833361142231804,-1.8816319911072756,-3.904714124029194
96702,,-2.406464559766801,6.448371698608106,-12.958987503533836,3.390442733621137,4.742246779819983,-2.6890772602423887,-1.4638798312063632,-7.788976179974892,-2.892137937631328,6.159085815525417,-0.5249383758258204,-2.412117339030029,-6.438028490404487,-4.965559165894934
96952,,-5.618195959967748,4.321670370512193,-7.931291213922373,3.6198158591947536,0.9421859970200996,-2.4458024313682523,-1.459851942204149,-4.807270073287684,-3.179257204247414,7.598009028289861,-7.096245656658535,-2.978641473661256,-2.161375791345286,-4.104544262897706
97202,,-4.729960636645206,0.6952148235386739,-8.419270110782502,-0.4284134662749854,0.3232867628319738,0.3426267286343292,1.0162176484134826,-3.795054039950514,-5.1184135435971525,10.068685032586934,-4.490720337167885,-2.0145899616127965,-2.421245041479317,-5.355343146366842
97452,,-5.201438336397224,-3.1232684749837523,-9.862578206308374,-5.111795410255878,-1.6711021392454006,-1.216322576779321,0.8480886683423755,-3.4585058396498463,-8.58435414109323,11.268406353321538,-4.226697229482984,-5.048596311266119,-3.506386005747957,-10.16366663409787
97701,,-2.3918053552115675,2.851599388486972,-3.773772534729911,-0.7993130804046005,-0.6472407064363623,-1.722351835879521,-6.285740259919458,-2.662374966451164,-3.3504396762646005,10.030375402032767,-3.292172867303368,-4.981612228955745,-4.60863135013544,-10.675583705839404
97951,,2.473123138353683,7.749168536629828,-3.208312447030197,0.9484951950360482,2.710333641793066,2.225328167475406,-4.223319151653903,-4.74028787729852,-3.206361258117834,4.44945816015389,-3.936873123208342,-2.994177178769471,-7.37941493149001,-7.93683741527103
98201,,1.086709423303091,5.637532304203146,-5.4908286706657865,-4.42952902968951,3.3619327361984697,0.8269678087910515,-2.4528349616977363,-3.167659641745505,-2.9103269703359724,3.018785600601798,-4.900336013823109,-3.066405710584288,-8.890268395999364,-4.761971743821473
98451,,-1.0046866058464614,3.8633338134949824,-3.5476677628820315,-4.700292631965545,1.4854732171296003,0.2884104279418373,-3.3001940539675974,-0.7947594326939491,-1.0274263123567395,7.081271327974318,0.3777721019038091,-2.615148273502376,-4.6806868291257295,-3.4012909866808085
98701,,0.0798806208119747,3.70741178835885,-3.917837206723375,-0.6776094378636202,-0.6422446883562106,4.346876377613927,-0.4574336882305995,-0.6312185199463692,-2.1019457686654066,11.81668883390359,1.4458330147643264,-2.425428565616753,-3.889052912148752,-2.167789779200724
98951,,-3.631177859148744,1.6632695431964295,-7.464815629063903,-1.6218845505647137,-2.826577092744971,2.762775144209498,2.6108870724541204,-1.8254060383842847,-0.986615437302946,7.983598908394013,-4.610812235076674,-2.593053039901612,-1.2151940227617324,-4.921752133608649
99201,,-0.7429068290887443,1.818519432742245,-10.443166531297578,0.4091531740455283,-3.140537671356551,2.0910126387266303,-0.2612523282431465,-6.379762095301242,-3.9550675719702353,2.018307386229447,-4.4990777653789245,-1.1765160341684446,-1.8871346967488771,-6.660720797692646
99451,,0.2677491003337091,2.128502005627785,-9.429616218685196,2.594919459849144,-3.4678774304482243,0.8211691513558599,-4.143984589430675,-8.18476348084197,-4.694005598237469,1.6155414003148147,-3.906020620813413,-5.228084672754385,-3.2604024325055088,-9.912204949225252
99700,,-2.658996715000313,-3.1540154493111943,-4.801611794675239,3.915336560059162,-4.595834680351254,3.2357049517391223,-2.3759908485700416,-6.393366427898797,-5.88045295867826,3.9987137759118823,-3.2700921688127096,-9.815160347656992,-3.950581512437721,-8.139688642727945
99950,,-0.8961453018072686,-3.467578631709008,-5.795550264833795,1.3443837097363671,-0.3773379928959308,3.786366242597352,-2.13951735406071,-5.481190249424214,-8.921485723117602,6.350540316198041,-1.0048956687338426,-4.249106099672935,1.111529817252535,-7.07734905998316
100200,,-0.5891386348666959,0.7846977273752987,-5.308024084373184,-3.978062760251588,-3.567891699195683,2.1494282452726137,-2.9978829990778006,-4.652001002927369,-4.669766016042844,6.027043748217393,-3.9091750414887247,-4.279722302562417,-2.188659442372616,-9.015816968338724
100450,,0.830911762765074,-0.975412525458567,-6.753229482472256,-4.422315189253241,-2.0870530612819915,-0.7170737720819954,-4.440027684188193,-4.761040354499688,-4.29654995845472,8.891653388976497,-7.1026183468578274,-6.018926256849476,-5.022762948559113,-4.794799331242102
100700,,0.2498186413153292,-1.5132235695071647,-8.662278221421856,-1.7247973077727905,-1.2140628104354487,-0.7969821772639812,-3.114151905887547,-4.4541541903323,-3.8277434332054536,10.32408689700129,-2.2711710106251557,-7.480746605185136,-3.0641731774044927,-5.9284050171005145
100950,,-4.603401676892807,1.6958503187210594,-8.926723703480555,-2.85528423578649,-3.339497306021861,-0.3865903552348494,-2.5668922217405776,-6.8910138451522185,-2.75511965091407,6.807510030983471,-2.0060309934863376,-7.695048399435312,-2.4523840735796933,-9.985736038823804
101200,,-7.852906033263065,2.1716500401717336,-7.311376427856286,-2.736986219817913,-2.4707637427829274,2.470494732359574,-7.117787795021727,-12.3010566841342,-4.44312384414865,4.953446034974283,-3.450775933503814,-4.506958335367525,-4.082863423725942,-10.99725760053081
101450,,-5.085763960343094,2.857259712027286,-5.08104225089517,-3.934195219442089,-4.242931444607776,1.6554728071269798,-5.354250618799268,-9.618952914772043,-9.632242215690209,3.818261676683692,-4.111639949050704,-4.506567251318568,-11.058646090570218,-7.36482750240734
101699,,-2.0835676359970496,5.8561795799833245,-7.340986963476075,-2.366772864207036,-5.129387028049665,0.347189235456628,-3.101032312697693,-6.514242264886825,-4.317628047995129,7.5281379756324895,-7.403821052739001,-5.525555431399281,-9.95952201263152,-5.907359428552378
101949,,-4.895168713825901,1.7991071771881273,-8.779514161748864,-0.5980228880997696,-2.620179337018117,-0.3377427668850218,-2.9424786260145948,-2.660576832576232,0.5153685240438292,8.430361726232485,-8.194089020525047,-6.907805254628499,-5.111876911629737,-6.383622930659895
102199,,-7.138262150360413,-1.5815785367414106,-12.404238166768256,-2.4027115890878377,-0.6703577291777256,-0.1772894357625633,-5.892807404083234,-3.1570416225095417,-0.9828104221437716,6.319267752986773,-4.981402025226521,-4.433592086710187,-5.007542359834789,-9.51909050139679
102449,,-5.808490813275656,2.52606970668791,-7.0402009567845365,0.8411391725025144,-1.1072161448297837,-1.5281538867038291,-2.325898221927093,-4.0734040110722445,-3.040352890222291,3.144315038064897,-3.5773566759938897,-1.234197096079205,-10.01003774285677,-4.4767951622848425
102699,,-6.67643501390523,1.804002817077369,-7.029458636803069,0.1334913857831809,-5.3254516299257695,1.2148333843749175,-2.269840287476667,-6.252411479347345,-2.5702805435551923,5.307065752944871,-2.639503542088232,-3.477356616178111,-5.291637619315026,-5.792301287361104
102949,,-4.195636302478562,1.0461265792406689,-6.075498068659976,-3.988971015479663,-2.6153817952253045,1.3398494678405648,-5.166133897935542,-5.956817735887371,-3.587007124796667,7.812800365647928,-1.4082904922353412,-7.166771497482602,-0.68300314338149,-4.794072008368632
103199,,-1.9119652292197955,5.837993129959665,-7.079688970821072,3.984090429989008,-2.464717203555635,2.7419902823510824,-6.495852817017676,-6.329690246986022,-1.9065543022493152,4.228765599133047,-0.659278015052034,-3.192116780498932,-2.1152406514917645,-3.047823017123717
103449,,-1.3493291807599628,5.297962202784992,-4.990484082022582,5.099590099989908,-2.9365666034651587,3.758381452177713,-3.866159980717717,-6.8754541394831925,-1.8339863102785283,7.620132944066475,1.9442930318345664,-0.0568421280107067,-3.2553508507475986,-4.704466158469655
103698,,0.8576268227944129,0.625449407447122,-4.185382900651785,1.5832168541572114,-3.9776763922615377,3.559884104561201,0.3075026865958557,-3.656104809895631,-2.581955164421536,10.336726684544884,-1.0604396325422414,-2.83141011472299,-1.6947591009671672,-6.262533162121592
103948,,-1.4463481229893709,-0.2011463172526353,-6.036643827181659,-0.7076507023619936,-5.741312969640826,3.1686430455096533,-1.2422313014068789,-4.728091030738273,-3.9433333814908393,10.401144371612787,-3.658064987927225,-4.5541961283438255,-3.2886490332883667,-7.696372231153559
104198,,-2.5797982324359108,-0.4691564049719305,-9.665527290381066,1.072536782499669,-5.345434189696469,-1.105194703600315,-7.026747870837793,-5.136168699499416,-6.946377333381055,8.430064169679364,-3.3790327782852465,-4.550776292033501,-3.776439075217865,-8.515479459959947
104448,,-4.2452691214372615,0.283791157183145,-12.403704728242513,0.8352506396422626,-3.3455073815105667,-2.79193689159755,-6.143162568133586,-8.200083177066702,-8.337705215853834,4.828048679177297,-3.134754531631895,-7.19297494288467,-4.634227743906757,-11.96923211274638
104698,,-4.448090466617657,2.391650447468666,-9.654934954335957,-1.1958773646963965,-4.435728962224116,-3.2600613993270957,-5.650607214621885,-10.55821966059662,-5.870989708505632,4.779052428878465,-1.1862223946521742,-5.714661755310281,-2.749765644659587,-6.087047318115206
104948,,-3.8227636918483743,1.2851278290237889,-7.139044683191353,-2.534703005843062,-2.209686204898129,0.2540961116699078,-3.738438798103916,-10.723403073732866,-4.854581832414203,5.308185973270492,-2.696638406593814,-3.5183239568523383,-3.960040241306404,-7.770917791732903
105198,,-4.833764896580945,3.239881086075761,0.8807920263897469,0.0659236688678325,-1.3633044772771097,-0.6928852884798626,-4.017094948166977,-8.25087266981613,-7.477443545540311,4.540625125580126,-4.5431047274768925,-2.428702103986906,-6.34876861670276,-4.047335893075418
105448,,-9.701272733634362,7.294768803684153,0.877201062072344,0.7143178483678391,-5.584569419441251,-4.972836481353452,-4.907196648033311,-7.813262460343877,-8.506753247924694,2.0258979324163864,-4.990856730501932,-4.662229945545111,-2.4117102880447128,-3.359454316666929
105697,,-7.956266824412774,6.625974084788502,-4.394468459297181,2.646251086581413,-3.943464247248895,-9.456903529304622,-3.776355030423012,-8.723887658248596,-6.671317825211004,3.83302177000834,-4.227822795166202,-5.885400966871524,-3.237295985120942,-3.9681751251666526
105947,,-3.3352716746954347,1.6721190436583575,-6.858442101959255,1.2767576396775868,-6.28222203084074,-1.9750879115369115,-4.203944308494508,-9.06790387930267,-7.3388403649503235,2.787059937506159,-2.483885961126343,-7.167828848806161,-3.348098762626233,-6.776937539825293
106197,,-2.709239670535144,1.84434994415505,-4.931006679747058,-3.276950505154652,-4.219607517213179,1.0817053862347348,-3.009151310577684,-5.608085100508004,-4.805887724339351,5.3224195875655225,-2.575243108800244,-1.4665242523459563,-7.564657046891656,-6.284144355716689
106447,,-5.414455637456321,2.832618396253934,-4.071571260890453,0.0353090928827185,-7.230098665069478,0.1582169843653054,0.27038240354532,-3.282017239071386,-2.196590658792576,9.388516280401571,-2.051359655629654,0.5099211858363566,-5.146708432787536,-1.9421090498071345
106697,,-1.8490041724856767,-4.555424340958868,-6.677658843964476,-1.5705570349149245,-5.92675658894862,-2.46101288816974,0.3005591407077937,-4.177055994813094,-2.387104121629258,8.349290306604383,-1.0478509241840304,-5.575267964355489,-4.487797359787261,-4.369723251471303
106947,,-0.5325714120308869,-5.644076234930187,-8.819446160785107,-1.7424427779125415,-3.5271795565535022,1.8335368046566864,-1.1536648851661775,-5.699922330762179,-4.7338464641180735,3.85031824487799,-2.4547508197797625,-5.729342249272527,-8.288801701980118,-8.699849880696926
107197,,-2.3771034119355714,-3.307411540630411,-11.8737242266893,0.0608363741977754,-3.202524685742953,3.7884418755695712,-0.5256185799720234,-6.969024367409931,-6.856758302711361,3.595160624917181,-7.414566905038145,-2.708525323472068,-10.249906546247905,-8.408826688684094
107447,,-6.478857228763449,-0.1705174862869991,-8.748626685490533,1.328515196825972,1.1089922677196855,0.4918156235826916,-5.118462231019402,-7.331672685908913,-7.307845714691004,4.959512540775698,-3.221953347279217,-6.96674235327158,-7.14952148490322,-6.343775654897326
107696,,-4.2898553270264514,2.49369525650817,-8.72645264843367,-1.9273061021493765,-0.6418933048484929,-3.164690333296864,-4.555447510799136,-2.6546956733399125,-4.97484888006054,8.729621702744364,-1.2964081577688389,-3.3572890786029363,-2.184620554442402,-2.8983001402205555
107946,,-2.419328683523577,4.465868554402297,-9.18079311735089,-3.1375916754372173,-7.84836239820673,2.561235180050712,-3.165753693340019,-4.119722202943453,-3.189193545972975,8.472510406073221,-4.9904942172800695,-2.7510508155691253,-3.0188632056507245,-4.683302103838915
108196,,-3.4213836445213186,4.441893275601178,-8.042327416704104,-1.942537637422856,-7.274336633667172,2.6325714881929905,-0.91587200289186,-3.816391427993384,-1.3771684558517905,5.686307598473301,-12.682487330341964,-8.458953851440556,-5.208395931126358,-4.813989571341054
108446,,-5.81590583686022,3.493192506768878,-5.097996349071631,1.493569329126866,-3.626530251317393,-1.05675953283097,-0.785696730802816,-1.7425204210429135,-2.533995587876126,8.413826727387548,-7.313799446563955,-7.528028264784144,-4.699996847044633,-3.0630213621862583
108696,X,-5.416420316759916,3.409836627154737,-7.038456392216979,2.4393643627517947,1.125719113913006,-0.527047263125249,-3.5564865071346423,-6.578110971417517,-4.8704372098776965,8.288148936916413,-3.137399391081346,-4.409447248712431,-5.433465494084016,-4.097074354709887
108946,,-1.1527534789923408,3.377009204092587,-5.518184334731081,5.22056823579919,-1.135083252337158,0.4519520923485754,-0.5215212803796019,-8.338867484133534,-5.84054754405872,2.1732190385265424,-3.2497440020752624,-0.425840526904534,-9.794410594312929,-4.600011859882024
109196,,-0.7339601818071072,6.315537917631671,1.573582656634884,5.838549492047008,-7.162973944191236,-1.3638385945830367,-0.2425119300094666,-7.408588361853818,-2.9519269173001543,4.748710818100543,-2.7277828847119623,0.1605545732816874,-1.4688809928380224,-0.8459652705958759
