timecode,event,eeg.af3,eeg.f7,eeg.f3,eeg.fc5,eeg.t7,eeg.p7,eeg.o1,eeg.o2,eeg.p8,eeg.t8,eeg.fc6,eeg.f4,eeg.f8,eeg.af4
0,,-5.5812599584818585,-1.8569026159382136,-6.962087099342228,-1.8136650482745509,-5.152791125823749,0.9018116328389676,-1.9996233112711368,-2.958666240892585,-0.7731319093713986,7.572306558547362,-3.768666272722628,-3.5129707242637407,-2.18048152907641,-8.311516571902382
250,,-8.32433091364651,-1.267261063128795,-9.622561542228036,-3.677386977453149,-3.9611156398330216,0.3306428765528218,-2.6099597477923187,-3.5859066052591317,-2.834804589702104,7.845148030463448,-5.347406617885468,-5.501313802640012,-1.0047073801251891,-11.907579289943913
500,,-7.2059921322015965,-2.237734022444437,-8.930561942304038,-6.700300525439928,-2.599223936380918,-2.4923518435798315,-0.4601557700134801,-6.324274295335755,-3.8946712776453047,7.603049994964212,-8.144267325414733,-5.45414567979225,-2.196427887503129,-9.422220600583898
750,,-2.610962020539297,-0.6151332862881268,-8.976762984773092,-6.834633625150212,-2.1504245780629363,1.1407315173403128,-0.9041482269815344,-7.672806156458279,-1.4541529001970288,8.933036069883805,-6.361175576421168,-7.468855161672842,-5.437056594518294,-4.662896496557355
1000,,-6.860337904056317,-3.386923884765347,-8.115028311026965,-7.443726961525298,-3.909452099956308,0.929151559258492,-0.9362598234291896,-8.113932499134247,-2.384676589021604,5.127208483745446,-3.5325151763945115,-7.806066708629384,-6.090364170047123,-7.080684209236875
1249,,-8.18434276948636,-7.505784685487811,-10.43067785054431,-4.29499777600694,-5.796028574029657,-0.9514853825267824,-3.09426256940655,-6.494497293427121,-6.164021632404205,3.9169835822115706,-4.901313194594917,-3.403365196141225,-5.95289656785272,-9.976871811792568
1499,,-6.843870446659431,-6.835996191459913,-11.091538313433029,-2.872576797857232,-2.9278763788542084,1.5264529486488545,-2.256959163288584,-2.4776507669650547,-4.770250404372459,8.435449761288217,-3.876642486972566,-3.94209893890234,-4.045822933123956,-9.687150562186744
1749,,-8.23217097765821,-4.437560914188071,-5.462056843313103,-3.4201270235113244,-3.2553065911207018,-0.3994584590528419,-1.8346743780531336,-2.3650768601638377,-1.040741628281363,9.311184887315871,-3.409745322879789,-8.634398708318498,-0.2878002661494488,-9.45088668288288
1999,,-9.177361343271224,-1.0088249786436272,-5.99227958163738,-0.4820152797898741,-2.1702589946127704,-3.022443921778556,-2.4065958104005887,-2.8776725907725336,-1.7078787447527168,8.380817353373223,-2.0584396398190457,-5.103114483756023,-1.5412896745723663,-7.62148735859559
2249,,-5.762191000619163,-2.836114353895685,-6.502443128495865,-2.0122352724065906,-0.9365105830388978,-0.9468269436557014,-3.329338129915909,-3.09192981074557,-0.491534513077317,6.96043222620059,-1.541852781645229,-6.045481007355647,-2.743117808755598,-6.993589562283537
2499,,-6.704474230169033,-1.462288252538842,-8.838705977793898,-4.554360808102784,-1.5612020018734276,-4.204749383065886,-2.2515101494097847,-5.530728999261871,-0.4996416339820119,6.100319432765176,-3.1104951290078064,-4.732085586537018,0.0263191514036841,-7.994522183346824
2749,,-6.796164933924632,-0.834196578174166,-10.111996218995907,-2.2488233893013816,-2.9193721541667346,-2.496639376183708,-3.049497259278529,-6.199677270284846,-3.3319646279889463,6.224149006539077,-3.829353925739903,-4.525750354695639,0.2357999955033457,-8.586463727992694
2999,,-6.476961531973022,-0.2939182738735627,-6.151444202014831,-5.267207449020655,-3.201353255291735,-0.5650566812251598,-1.4833131777856714,-4.242612802438607,-2.6630305951783773,6.459581647125155,-5.904016021236645,-5.492631052805218,-3.0511202261587247,-5.535117028259675
3248,,-5.590491913892018,-1.0617504410226497,-5.751771228336774,-6.431913489947464,-1.7894136344999567,-1.788763222415081,-0.4038771047324735,-5.106725110885884,-2.908680053894412,4.388750675389379,-11.00946409908152,-5.347686108133178,-5.359541808828356,-7.374825996608059
3498,,-5.477803509497534,-0.7861860075200413,-6.74096406498699,-5.138681397214551,-4.053903401836286,-1.9681092726078135,-3.0471352482473324,-8.078076691926704,-3.959200805306292,3.958485236314,-9.2383080404383,-7.918960990167387,-5.206470591400683,-8.53709924500401
3748,,-5.828110925267314,3.123138910509322,-6.1034313861164,-2.621914444071401,-0.90877350672618,-2.813423955250656,-5.213896713101345,-2.3294185644951493,-1.4004254719720532,6.738236006878554,-4.882746380454024,-4.792180489286157,-2.298261297338483,-5.184701501065611
3998,,-3.951810121536898,1.3534841302021772,-5.848689309940605,-2.087963437375413,-1.6696537899367034,0.0913459761204087,-5.904162834435115,-2.010456866744918,-1.9245064417297424,4.124132153663048,-4.954034681711278,-6.489049718701354,-3.03559789288859,-6.053566294404141
4248,,-6.001448189069266,-2.7979746540115484,-9.67942910041275,-2.781724208063979,-3.70590112658916,1.442078072423374,-3.5005433081478103,-1.638507466443998,-1.5947105652744091,2.478086506681461,-4.4470587396178844,-14.335136076914967,-4.862726317195175,-8.671961655470893
4498,,-4.604299272884099,-0.3257419986147042,-8.388789094412584,-3.558414210330721,-3.0275175608831004,-0.0296069394955852,-3.4375741986461867,-3.884029811659256,-0.3224031075517991,6.946457421931099,-5.27275576942592,-11.47845566909766,-1.5820199263851042,-7.510789740345261
4748,,-3.198549514219909,-0.6818828200726129,-4.6061208632167405,-3.57750186118036,-1.2217094309183956,0.317426306971493,-0.8497174552023687,-4.421452000246786,-1.9731033688094928,9.83041494769634,-4.997144584722619,-7.943902083491917,-4.03502877426463,-6.546427842088008
4998,,-4.137211985208908,-2.3271534351890018,-6.9159887212855935,-5.670018310796565,-0.915736722791304,1.5032338231422984,-0.3217580140552137,-6.104971414977323,-4.808044052881028,8.231775230966221,-5.6541768114040805,-5.001130946408861,-6.063318991303433,-6.029441997190293
5247,,-5.298799007760082,-0.6034457066715129,-7.386583061286956,-7.327288560676163,-1.3099139634275208,-2.106705915326525,-0.1603621697253628,-6.950603818121013,-6.339200453383783,7.40135105699952,-4.28791737820096,-6.085243522396635,-4.921037151410839,-4.556413861184336
5497,,-4.775262252752953,0.6502915085020717,-5.330769513278536,-5.547628351823048,-1.9986612123379823,-2.462660280499394,-3.7991356011137767,-9.095931760694896,-4.239080757072063,7.441971918967526,-3.5750080345734894,-5.466250097892936,-6.39897133700514,-2.4823145417627703
5747,,-4.438855189929182,-0.7683320128597914,-4.576911241987433,-3.424073078849619,-3.352400375925721,-0.0516149677027469,-5.449774258067311,-5.745636650325352,-3.68223299067922,6.741123528307056,-4.435509934040463,-5.1547334651644015,-6.406655554160226,-1.0150769438044809
5997,,-5.9023489702906655,-1.4731703721322107,-6.778240819095237,-4.488352325613176,-5.057426688093941,-0.8116592037112792,-3.386346121831587,-4.086119090319861,-3.6114142495677273,2.3701414252186623,-7.099990304211358,-4.036328806930204,-5.511970204565392,1.4899967292055991
6247,,-4.419782793672783,-0.5341211300364751,-6.358895501955677,-1.5298531235976078,-5.517822083522913,0.4151615927337471,-2.408572171291928,-8.42230351123729,-2.8558087906087937,2.412346477660805,-4.67844584654038,-3.0526972240285795,-3.985817865968988,-5.0396617638322265
6497,,-4.316944242592225,1.2287205005594823,-8.313150383878435,-0.3946008224391951,-3.2209105858312053,0.7123669997697415,-3.005471437475577,-9.075527824426729,-4.206437615281516,3.346095556478437,-6.660281324469553,-3.879635392155753,-3.2298617803451184,-7.447145485870327
6747,,-4.83735000719221,0.0244524051705009,-7.552292511189254,-4.3375744777522165,-0.3787398311494572,-0.790582466892798,-3.803979102306072,-5.789319568406476,-4.734359611769251,3.5489652914942087,-9.395090458854554,-5.341529833788924,-5.885599932069345,-8.826080168122655
6997,,-7.31644004024432,-2.5780631660726154,-7.736691103315451,-4.54924559499152,-1.9565817858215837,-2.6077307344667155,0.4973039144422602,-3.366506060665824,-4.0995979597167125,6.726607715600817,-6.601291988517187,-5.439786164961889,-4.482203282906188,-7.212808778714398
7246,,-7.580206595746204,-5.771541700767759,-10.4203152884401,-4.4334146245179245,-3.875808860998978,-1.2785105934008911,-1.5832497126093252,-5.351809490616483,-4.961245218242905,6.851642490885311,-4.009575012473685,-5.466683693714858,-2.1604938793178707,-10.735204996198684
7496,,-6.907736769156338,-6.134581188314661,-8.39305829961704,-3.894886469898039,-4.452182401302892,1.4457491359889298,-2.557615675298784,-8.608242459972708,-3.938140775389203,4.277724902817538,-7.120480824473113,-6.360029674520064,-5.617831175916371,-8.625893987838815
7746,,-6.39225685733035,-5.482808853248629,-10.801407637647149,-4.784816944848767,-3.2426759955137534,-0.3098833488158038,-1.2480495253151025,-5.325483773204054,-2.767556638773161,4.861078367472319,-5.418962644701828,-3.659917638072608,-5.432447433026287,-7.873441618109521
7996,,-3.383216141706653,-1.2960793489274904,-12.981073758156292,-5.401977348016027,-4.021783936205293,-1.0132763870528678,-2.226878747302102,-3.6666935710687607,-2.382289746489179,7.881373418737162,-3.883026354294619,-4.539776050013391,-5.523060613460729,-7.360040179035268
8246,,-4.046883869331061,0.6672654598028205,-11.181245960837437,-5.073147056341599,-2.109261681552467,-0.1826620076780553,-3.5835328225193983,-7.41744155434728,-4.82676394231997,6.6228787827482405,-3.3444535448848893,-8.324043096634796,-5.909915534712499,-6.390394632478903
8496,,-1.5250611234933062,-1.8058204833691296,-4.42986910658269,0.3993776072782184,-1.5117651738256397,0.3590638499553127,-2.269647980784617,-4.096639782424965,-1.027721570737081,6.031001956792213,-3.3898399816643447,-6.856554741523068,-3.9972682366109673,-2.784310977143389
8746,,1.8756363846181976,1.062617474224076,1.1725218012117349,1.6048966427638005,-2.405973329553019,0.939326052820012,0.734360194306029,-1.5428663842819632,0.7125667737223458,8.701737080897402,-1.6041520875774806,-5.750301768636748,-2.964529436886205,2.506811910495277
8996,,1.5097480561456076,2.1903271487633984,-1.3321260812658835,-0.3475198634229432,-2.834781416393395,-0.2897452350820594,-1.2135323218251677,-2.602912662030284,0.8800490895149705,8.333532673641603,-5.4141930141455,-3.6545723083138606,-4.420929384268052,-1.6045866549392942
9245,,-2.4046772082065475,1.646196916272601,-3.9068259062139465,-2.1721721909413017,-0.6665468418290178,-2.165257320306595,-7.822856441392232,-4.096790114876661,-1.6044464879376916,8.985409655314076,-7.22417351720324,-1.9999675836603477,-1.2238570843192669,-6.912391471670405
9495,,-4.281449457796176,0.2580298144128831,-7.502718313170789,-0.4718026618968287,-1.0422146595149189,-1.787707589874787,-9.34012897109239,-3.8634361664975767,-3.046171989111105,6.107318243432581,-6.963956230699672,-4.644645660685952,-2.992640048521276,-5.926836653555777
9745,,-1.3863928768936602,-4.6981635143115845,-10.728558949244087,-2.120705756307644,-1.1234014183133396,-0.5072178820278628,-5.690472962634306,-4.456420411605717,-0.9158121356613984,1.1361596432652712,-9.717015352610725,-6.541529574123399,-9.744065472565628,-5.547500355891838
9995,,-2.8121819315909944,-4.489804122718211,-10.569419614395237,-4.323504641278398,-2.2663948054021734,-2.985095204145194,-3.483929597745041,-3.2517125006454424,-1.1820267996731808,2.9373019565823744,-7.473754810221842,-5.913459902359936,-7.067453372880756,-10.373767620978676
10245,,-3.6903364499571256,-1.0877364272791112,-9.248998491585846,-5.198292593126002,-3.576222975353648,-1.4427551243606376,-1.8675656581064797,-4.1735884944975705,-2.10848753063517,4.234926359549949,-5.373942772502821,-5.803501882282809,-4.894791646071466,-8.386352157704046
10495,,-1.067482315445767,1.5081076731839205,-9.819143601484129,-3.3460470589471,0.7906883959973808,-0.4749886575843131,-5.173851935858775,-5.263376141691354,-1.9615592574487168,6.55347863536042,-4.0015308831396,-7.292983508770964,-6.940409757118159,-7.092174169165048
10745,,-0.9858462870652124,3.476560710869014,-7.465014372065383,-2.355320239623193,1.688854243727742,-1.6125630981015102,-2.9846607465357398,-3.869922953947227,-3.322980745685733,8.944011045532616,-1.7676612329190884,-4.141169230254685,-8.756096083904337,-5.241506835117891
10995,,-1.328660518411905,0.6437105826305975,-5.188721038073626,-1.1419316256436205,-2.42062257947952,-0.2626141047985791,-2.800200715679833,-4.126002442907842,-1.151945423757764,7.077814768893847,-3.636511818831206,-3.4354808382317383,-7.541238928906367,-5.898512993776638
11244,,-3.5833847848337443,-2.332568169995928,-4.702627813093807,-4.139191817061484,-6.233133658165642,-1.69054603343617,-6.2471239022524365,-4.400996929170235,-1.7083662027796316,3.159423942925606,-11.673673671751756,-5.462269724439742,-5.982773026488094,-8.956739350755917
11494,,-4.8070105218928125,-0.5216307783064236,-7.128153608559994,-1.48775314355954,-6.0518446092588185,-2.241871614171256,-4.21206734202645,-3.8741593384233033,-5.777719869571067,4.017028551568471,-5.853261579982404,-6.672301507471863,-4.653581183571295,-10.935200549726767
11744,,-2.407544513004119,-0.4079672640195223,-5.542249882715469,0.0796304422207064,-1.7351375857756957,0.475582330775752,-3.286716402731881,-6.21785650215706,-4.795311108409093,5.333141349531564,-1.36115020344014,-3.533402225045778,-3.780402608954335,-10.526889423337684
11994,,-2.206165381158119,-0.1746007847181252,-3.5836870454828555,-1.2469561933544209,-2.31092217392004,1.2302022451410255,-3.580883803692383,-3.462614692172094,-1.5667577567407038,7.917236297555657,-1.4914869979980767,-2.5985079452254194,-6.719589085198509,-6.559829228849305
12244,,-3.695483096542419,-1.4081555534535646,-5.886894075412263,-2.559430174454217,-3.371818157223272,-1.1460479110726538,-3.066051985669951,-2.2954530950470264,0.343864957457775,9.80796603837049,-2.709078994799572,-2.857422077073835,-8.35367848372348,-4.928671679262684
12494,,-3.40687477215849,2.511874391904134,-6.914241328332503,-6.047993899529336,-3.7521254907442367,-1.7809589118874658,-2.5456476788306253,-2.484880957056393,-0.6536020465055697,8.590855029909207,-5.382423439694053,-0.1644773344274893,-3.0504780710016,-4.60325820135289
12744,,-0.5067817600268478,4.1563326783611565,-6.478981035530115,-4.7644453541516265,-5.497455885630165,0.6454373959487931,-2.816228176954378,-4.67295679146712,1.1974961205764072,7.388335478796955,-3.200321252813647,-1.8240511559570427,-2.4519845013085626,-7.615140221472025
12994,,-1.8109220551556573,1.5673265999459665,-7.513849639445278,-2.0868800422940077,-2.2947958949635434,1.5055927395141504,-1.6657298599979895,-5.2596694361207685,1.797104664886098,7.536911837746592,-1.097710637509821,-4.4241578013958,-4.589737972734956,-9.874252005379432
13243,,-2.9615366009600184,0.64059834113149,-6.619288020636132,-3.0942402674536518,-1.8860586268802049,1.3603877607523809,-0.6973365100887572,-4.223336616795949,-0.0460111599470022,7.408605247861621,-3.4883585561767787,-4.366977484768863,-4.092212485243495,-7.449660831190554
13493,,-1.1958302338983486,-2.9785563634872325,-4.985018572022742,-6.024557629343054,-4.59524058938861,0.1906698847046407,-2.769075958093661,-2.3086951204509103,-0.2215762606249523,7.230482213787811,-2.6432489622494697,-4.57180024013064,-5.464086486656008,-5.622110533177952
13743,,-4.5725356613465165,-0.9428735357743412,-6.092186141855099,-1.799706301507035,-6.777462899030788,-0.7863089881436094,-5.383157372005418,-1.9784996941515185,0.3785560854155531,7.840597873797739,-0.0317772908404871,-4.057180799961382,-7.071903586945693,-7.497631970299445
13993,,-1.35998745350129,2.136675647408212,-6.311028380434731,1.2443380591846689,-4.517797815980931,-1.2029394309123072,-1.0539307325010967,0.5038496470528071,4.311928476634822,8.745347518255729,0.1981508535024593,-2.615785210891019,-3.825659573165414,-4.961068275707522
14243,,-0.9049812851131106,0.8589731924942644,-5.335089922234442,-0.618781077304405,0.1003699058256246,-2.5154803543617223,-0.2422851852451502,-0.2366651348058876,2.4759121252031937,8.234281629718037,-2.044171968867391,-2.6903260851768858,-1.910947288797773,-5.126165531254206
14493,,-1.8295857641975064,0.631309241857525,-7.096528661699967,-2.3857688840712914,-0.9815290422609996,-1.9912773024560209,-2.1453670460216663,-2.1133614351280903,-0.8543499462252296,6.573352060673551,-2.10706707691854,-7.594476634196491,-3.229520952338907,-8.152412159412188
14743,,-5.7172132711525165,1.6056731487804128,-6.14917457137854,-1.5667516247998363,-0.1569852324802967,-2.4640185137791275,-0.8519082961083564,-2.722952028897154,-1.0171841793375638,7.60450710776512,-2.564068647216755,-11.205287773751383,-4.923376199104344,-6.272304253932056
14993,,-2.941750792415637,0.9374360079959918,-5.767025394706189,-3.125102429815354,-2.1794337312982286,0.6439845893281022,-1.5165594966617104,-4.024081233888829,-2.376718182994535,7.238931783280384,-5.011145886673387,-7.061151043688706,-2.3946928908837277,-7.324801185395316
15242,,-2.30816238110156,-0.8296106365343094,-5.185016495536667,-5.060455870092609,-6.012827681692514,0.4806205246203143,-4.460650506570634,-5.9942903837454615,-4.090292888091926,5.175889844535325,-6.0104461956464,-6.107241089878096,-2.729600365608176,-6.639068421708435
15492,,-7.581616022578158,-0.645423631993447,-5.393214802084491,-5.292592412040666,-3.59906785317641,1.1949328550210627,-4.411362761281045,-6.189549611986483,-3.731756276726892,4.115759457906561,-2.415565595788724,-3.3235104015303696,-6.1103596314866895,-4.722778149931896
15742,,-7.848809483718714,-2.622068492174321,-7.5517681509346595,-5.021715208656835,-4.378553647983372,2.148450168382563,-3.309644825209037,-8.661918611811878,-1.6036640956710293,8.046705811094858,-2.258605353267252,-4.924271241730922,-5.0189589740480365,-5.995249463046765
15992,,-9.455825062184628,-3.055500638392159,-6.921325171966799,-1.6120037274169312,-3.0849602695909137,1.1295272821665947,-1.3552748691688992,-5.097253452419195,-0.1466640690218282,8.896254611393688,-3.954227095832121,-6.70281370123427,-7.39227406475908,-4.908967961220867
16242,,-6.741301302678703,-2.7549239072574543,-5.8061823071869885,-2.588297200098926,-1.9785161919567185,-0.2022795250709508,-0.5499648908439899,-1.757439260849341,-2.1465486418191286,7.7496921838184445,-4.586481116980362,-3.693409105061279,-9.545436109756263,-7.624095746895704
16492,,-4.269096303812916,-5.150687826525498,-8.409661028813197,-5.779314098781077,-2.312291954016067,-1.4665523667901588,-0.7492215872204754,-3.23420663001314,-5.447135887511662,6.120932780171201,-4.368923782469435,-4.13438646530592,-7.631723342464314,-8.842185664588085
16742,,-3.4400770051662515,-5.762867188746159,-7.852877976408152,-8.480762483550452,-1.573937543208784,1.475175258962418,-4.831210386625652,-4.521275174734085,-3.520328296804521,7.4500056011098,-4.703068739017959,-5.300494454480607,-6.634068469618032,-5.702472702435602
16992,,-4.087259079272106,-2.168278735959652,-5.730855507773401,-1.22133329864673,-2.8912672172257023,6.160250263373955,-2.472684317423996,-3.7278739347083456,-3.8025395645963904,9.344858624528609,-2.499340944960109,-3.330292859684956,-5.145782777693359,-5.039496093893541
17241,,-4.509213744475942,3.002403361277868,-7.132164825008225,-2.41276678601974,0.8164265095372902,4.945233242239382,-3.581711944541213,-3.978583458825665,-6.166610149783057,9.139968097164331,-3.41233301233632,-1.2906706104097174,-2.258848740578526,-6.589117387095682
17491,,-7.906872042702062,1.502861414510017,-10.129412547066586,-5.3064903661906895,-0.4531698311597051,0.4943658458864077,-6.796982947378164,-4.9325626640069,-5.72897135442215,6.0359350584311455,-3.858453833085644,-3.563254211755755,-4.289365543443447,-7.645700141413359
17741,,-6.879492165970927,-3.3459310055178864,-6.576362048467736,-4.99355302578206,-0.2096120792666893,-1.3425138816800826,-4.233286208585721,-2.415145435070441,-0.1770224246914378,7.488987275417696,-3.324682495995928,-9.517233671425684,-4.969147600634911,-7.14817875959024
17991,,-7.070219889359103,-0.8927524718403899,-6.483244797567714,-5.173321634697662,-1.0473480136104576,-1.7005324949595502,-1.6816999699047115,-0.2866993524492219,0.8999934059476856,7.706340929964881,-4.529122545907686,-8.751657474233731,-4.617911604731406,-7.572363088905241
18241,,-9.517502905073208,3.40236641745752,-7.970493473309905,-0.7404014966182684,-3.196878915494012,-0.0385746257053366,-2.817292242762104,-0.3633691468379399,-1.1961225771171984,5.020983776414694,-4.929455312190278,-7.553134090917887,-8.61416627993383,-7.598200525308666
18491,,-5.507484004980938,2.653685667212129,-9.567199477498892,-0.0758974661226322,-0.386358492580486,1.100373858885937,-2.2443452480317005,0.0812655255278158,-1.6963311694810348,4.59766420756358,-5.872143590087186,-5.430554822402641,-6.595897450689928,-8.625176180182185
18741,,-2.2159157104445515,-4.134724634296349,-6.673264344020515,-0.6589803291439361,0.8010695860761974,-0.425683901121589,-1.7510750375872122,-2.976879351906736,-2.742508777692251,7.025106255510031,-3.5040831755468016,-4.247918184372124,-4.875169811695836,-8.315175159062946
18991,,-1.127236650277638,-3.5642996165581966,-4.740636235860126,4.484147628608505,0.8899003422180722,-0.5388889124034352,-1.717054883028824,-4.95506564939302,-0.917604566439829,9.901063436135171,-3.399081014089277,-6.6189244431966365,-6.30259161339073,-6.511626747849586
19240,,-1.2994452397045824,-1.7757436920713383,-4.1059281045582665,5.698783687193705,-1.7729503306147576,-0.0751782565277993,-3.75055954376378,-4.025100041498153,-0.9882513272280062,8.307334778093816,-5.767920478111087,-5.089682955590416,-6.081149627241072,-5.443801259997132
19490,,-5.7801566042878125,-0.7098957541718367,-6.334328013822866,0.5051048175127375,-3.3604577246026213,-0.2244014983321321,-0.314399724143703,-1.4125893438835295,-2.4969369875712424,8.16898765380589,-6.631076077519183,-4.393079632771554,-5.995355900166594,-6.4844386762709805
19740,,-5.213361040828786,-0.6511494480213189,-3.8622188763703234,-1.5111073708454457,0.6288841901017312,1.7940189585942834,-0.6215202799108922,-5.664419767856511,-1.882697409515524,12.083942616990358,-4.763685945206129,-3.458171396838781,-7.789611210034506,-7.514536782105436
19990,,-3.6473460811318894,-0.3689386666086977,-3.552473346581823,-2.091724099527369,-2.011055238817879,0.508457602786996,0.5459489379091957,-5.955745472708004,0.0741246494283781,8.786046194785575,-1.7422294035985486,-3.870377172285079,-6.762711205800535,-6.859414772838694
20240,,-3.078760610642351,-1.8856690989496625,-6.502470905811637,-3.3911042234371678,-3.953122412584855,-1.5972023764419052,0.634269588301037,-5.826250953213432,-2.339701946265718,6.596870255209794,-2.467974605264285,-2.802661747939626,-5.4917097229785945,-6.034585255190104
20490,,-3.481446910723242,-0.6586798452710743,-7.599245059567254,-2.0041301341708477,-2.079198784004644,-2.859589240900839,-1.4966380377292487,-5.774936680238387,-0.8965619317195219,6.772863862545031,-5.897197268544293,-4.150996284484921,-4.142682523944635,-7.325785785677205
20740,,-2.817983303528436,0.8377993361726119,-7.117748073902607,1.903804580118757,-0.3626980810326516,-0.7904707749893272,0.6827946906665672,-2.213904620622856,-1.3845655939071275,7.901681041417494,-6.198261100238045,-2.6384538986822497,-3.4387999729259437,-8.12936545522772
20990,,-5.828650114749775,3.2349443977969554,-6.921615404004625,2.478820042361487,-1.2444493159372585,3.665796663288032,1.782373253732263,0.3382340869382887,2.32180154713777,5.999505591145567,-2.943392476169114,-3.1754282694766207,-0.1754153099728848,-4.988024929516403
21239,,-4.576400009809584,3.23936796915198,-9.145960299115089,-1.939004545145394,-1.8580791337283853,1.9448335482636447,0.685265747671824,-0.7663336666926139,1.0482952544189224,4.7057635634004775,-1.774347097207238,-3.2098986178682054,-1.1173151216464805,-4.094252251271367
21489,,-2.634707931832497,4.357353931962012,-4.24920947949424,-1.432524603990169,-0.4185177337219897,-1.27669283426311,-0.0543335243647298,-1.5459246966568192,-0.1593999744128537,6.990725254009305,-2.026348772130504,0.6785414365113068,-6.1835724657577416,-3.6657382269142817
21739,,-2.245242869636017,4.418787147115423,-2.8940402550743505,-2.7290980775825835,0.4953328268065193,-0.2284987856551381,-0.3698287071001552,-2.1157228057356097,-1.0194747641965,5.823050894571905,-2.654183436157565,-1.0541971187004224,-4.329663025655496,-6.320230475955589
21989,,-2.0092582173417437,1.29977216450802,-5.945691700697079,-2.696535821722988,0.948455192217893,-0.2990310717449563,-3.827320231090064,-1.4434355186170402,-0.6600067345170189,8.011733975348818,-5.9645508965409295,-4.864321108042827,-4.136538791891616,-7.493914925651234
22239,,-1.592091632691557,2.557017956545061,-6.270570809660553,-3.581926586125169,1.2698045238007314,-3.1142851959441558,-3.677762137555435,-3.784125343974545,-2.3503071657462464,9.213690004803604,-3.476685319389276,-3.230710950398697,-5.111493431429231,-5.31886766852586
22489,,-2.491414020028196,5.1131398116624585,-7.37496234478119,-1.7590670335771792,-0.2950290047811509,1.0105471905854857,-2.4905055572742016,-3.883189866451788,-0.0733256256660105,8.563457131507446,-3.840002653662416,-2.6263080265414613,-2.8815977104023798,-5.814587399519717
22739,,-5.232636667600554,5.446373917907662,-9.093616743548385,1.0077397158838828,-2.7944100397482066,0.8611022983696386,-4.113067524616004,-2.425106288575371,1.0836323043489444,2.566942815100341,-5.715376154040324,-5.231614260670572,-6.172150246830414,-5.766712296298828
22989,,-2.7579664216522284,3.51953512589989,-8.411916908949554,0.0700345021531697,0.0506063088020189,-0.1661825180317992,-2.348428250726266,-7.143875372018334,-2.5212479926508475,3.992324298029217,-2.3141341549859478,-4.012903662427989,-8.282899867676806,-7.028156838001623
23238,,-1.0718237563577029,-2.244841766601985,-4.68611483564561,-0.7969978615431274,-1.0510783811132658,-1.479353374486062,-2.437547383541101,-8.828584784817348,-4.775565859228425,4.127071083891742,-3.720298233234538,-3.088596533934123,-6.85144730291671,-7.238753678704953
23488,,-4.13805680669397,-1.186848180008676,-3.190148846211647,-0.7696119440035307,-2.3285884287350784,-2.389559011737472,-4.663313964976101,-6.5715199101326105,-2.565984352016084,1.0888135592606971,-3.7950434817732175,-5.784867816806754,-3.746018282512048,-7.39388756698667
23738,,-3.449855309911163,-0.7690116201259006,-6.119350777208346,-2.1162695537068044,-5.84009720466968,-1.122265751924702,-4.039537950265536,-7.359833885236155,-4.942561084191116,-1.1040716802401287,-3.444070047590748,-4.984506710101968,-2.9231634835877114,-9.274979614367195
23988,,-2.5745409976128117,0.8999939642845517,-3.920731157519532,-9.495505745052489,-6.690478460543106,-2.7802378099285696,-4.521800102143087,-5.651598491380501,-2.906393219673026,4.22661157078061,-2.2255816127650494,-4.302890104243002,-2.8357907672693194,-9.623231446645615
24238,,-4.8532673367454,0.5558117685073636,-5.166505359941302,-4.295681743978738,-4.15632291930416,-4.447149913090021,-3.90037211283591,-6.957946555469027,-5.224020675009062,6.781707778059899,-2.6962502498160923,-3.969805593923293,-4.467359627089801,-7.268828885706641
24488,,-2.4930482006206485,1.96731411917598,-8.651584415476961,-1.1456136454626318,-3.544230350672793,-1.0465096207765618,-1.8398325025570803,-5.908704907551945,-3.752537586477773,3.904345019455067,-6.899260883535797,-6.373223703135079,-4.713809144837163,-8.679082715243043
24738,,-2.121912922956497,2.561793843510744,-9.64040821791594,-3.9123038688281153,-2.491155195356935,0.1557349063396095,-1.8706666748213383,-4.92588484920963,-1.0011026238127303,4.274039416203569,-9.256400848821604,-7.012355006035447,-5.029732599125189,-8.897189061030584
24988,,-0.9831842423258532,1.5444759253545586,-5.655720286424896,-2.086153002140433,-0.2342885446327569,-0.0509118697850554,-1.3868023727291616,-3.822694065253115,-1.4479156788111385,7.350719173159767,-3.942230765961977,-0.98172028499952,-5.068214848596028,-6.368261785678487
25237,,-3.645936544118874,0.4681378689432006,-1.8843078786995,0.9907605494371527,1.943879937650763,-2.940794523764122,-3.0501103782083367,-6.167868805949856,-1.84890622241773,5.56110231269246,-3.680952394778508,-0.1330290831778343,-3.7364628257758015,-6.572172635555258
25487,,-4.029439697357642,0.74745953651569,-4.733283782415825,-1.0038116516524778,-0.572541848392093,-6.3229261135002535,-2.176396548134931,-6.178958370248804,-2.210610554528481,4.919879063907708,-6.002483512802186,-3.965293609178471,-3.8761221878034258,-4.7645892796133165
25737,,-0.1903193290576305,-2.470203977915986,-7.017378185481493,0.1625327890871222,-1.833803196462252,-7.7264818996883475,-1.9667591639529567,-4.212518687009535,2.579113971867085,2.304185343408756,-3.879229402380635,-4.392286919126446,-4.865443332644276,-4.378723615045433
25987,,-0.2051266384445234,-2.772920577137058,-6.693622169682372,-2.793655948879674,-1.0549783944702755,-7.243588020838244,-2.124396250848341,-2.591258260580984,1.1736384053650248,3.4583109992131966,-1.5032973397623353,-4.592665695005799,-6.344222588382722,-4.675754750383094
26237,,-2.5804492854469747,-1.0758991432717382,-6.4910620776055525,-6.971811121572941,-3.1388503706036026,-1.6555476241725895,-4.30143894948494,-1.7399650105874294,-0.8742866086738439,4.991572386291993,-2.6846941301961023,-4.553374403094152,-7.254042192263222,-6.898355959980721
26487,,-4.441133942919332,0.96518722204878,-7.452495429988591,-6.997851585617452,0.392016155610381,-0.2782153110727612,-2.9435071714233514,0.5839777991391866,1.6717570937805155,7.096442975685202,-3.033620389408621,-4.824219150097103,-5.325148758761325,-6.818878757029523
26737,,-5.760277664740251,-0.6702696332602605,-7.919672798207664,-3.4002709015013197,1.57501534037066,0.8095555742783209,-2.398304221157118,1.1414528630472756,1.1115209923145684,7.61899758394748,-3.5386874962802,-5.452696723055716,-5.155429054649393,-8.052988116052438
26987,,-7.279164457466381,-1.388694268115927,-8.007558171337564,-0.994485404775861,0.5924233507084977,-0.3666720991267505,-2.425576374727298,-3.0962232643753373,-3.1269731820155817,7.125493006507824,-2.097911074222042,-3.802395392678717,-5.0797348591950575,-11.582744257054005
27236,,-4.510979726693498,0.2265378388939938,-7.292343875644594,0.1236881316301281,-1.703320664997299,1.1449617731299728,-7.149301031560986,-3.0138927706402785,-4.227446041837587,6.768279135509148,-2.8798836190146933,-2.608014486962907,-5.889976958471468,-8.92334167192902
27486,,-3.30642917504983,2.109896735525796,-7.05635012890874,-2.6192280328994446,-4.544824945802303,-1.139565154642477,-5.480448015805371,-4.596392988857686,-6.805229901432989,7.261321953624272,-4.009053526037379,-4.508134780902953,-10.208454084581538,-8.181733841317202
27736,,-5.25446507670543,3.5388008683283805,-6.119234754407314,-3.334366767649129,-0.9067121872731916,-0.0631163929069647,0.0351262834710715,-6.29807394298501,-4.89977148443095,7.080829838494649,-2.587332108181376,-3.17186193190818,-8.552446434690522,-10.824451880112704
27986,,-3.93175512034063,2.3365001992280225,-6.960347136586456,-2.5756644882238238,0.8834992660213735,-2.5015224581458617,-0.6660238270063239,-3.795437632552448,-4.463450910000059,7.852662394000456,-0.6849918796001153,-4.137597560256348,-7.264117987203021,-13.336973405741348
28236,,-4.055636373020725,-1.925543060484198,-11.467356408777825,-2.701364023748169,0.0056383337452561,-2.827830716738661,-2.80887885869185,-5.19334476634139,-2.753371213970341,8.901921692501443,-2.4489085066496994,-7.82058141942221,-5.734468777798975,-7.872215117173137
28486,,-5.034259280040389,-1.2447702455323433,-7.619015755728583,-3.482925865582565,-1.7530264950941297,-2.763810183950361,-5.994974024750483,-5.572449021413217,-4.0971121466699465,7.341622147806184,-1.530421688747767,-6.444956569407399,-3.568728301527721,-5.6054216137602895
28736,,-3.305885140835592,1.0673208779731542,-4.6237592408396,-4.543581496329439,-3.7795273311255935,-2.4992823011246084,-3.098217888541705,-5.625455370612452,-5.106507473331075,5.409355868550232,-2.9955416510183386,-9.43765755868792,-3.040463333678063,-6.526747789261381
28986,,-5.168183346924257,-0.7010571997963853,-6.100793429533852,-2.976396840823714,-2.536820324772476,-4.913356207885751,-2.7437328082416856,-7.541559027895374,-5.618066890901725,6.533106164973708,-4.599678271307758,-5.697663181739726,-4.65456606271659,-6.489519126782044
29235,,-4.136281099871368,0.5406166282247707,-5.104381535271839,-4.768128126081726,-2.510617584562268,-5.8656191013270895,-2.885495296239837,-6.202130058422409,-5.865813974013597,3.7114462961639023,-3.843575131811813,-4.040449867592274,-6.185738266338763,-4.788302936466474
29485,,-2.725940065101579,3.4615560598485566,-4.671083308713728,-5.34707703410442,-2.1910933055724158,-6.39351267898309,-4.157604847757871,-5.2182386725977,-5.677381299201654,3.137304315683822,-8.36293044620962,-5.663907610382678,-6.435539691195419,-4.212496236913423
29735,,-3.0477505597843644,-0.7705645076744916,-7.358389042881361,-2.8277556912213715,-5.627359969485361,-2.918846659828198,-3.808718722629472,-4.260295306213468,-5.256392960564894,1.6160328910135893,-4.793416065889309,-7.788954640525664,-7.953056402066937,-7.527777710016807
29985,,-4.767811265556303,-2.832891776729248,-10.00847193505839,-4.459443594748666,-6.29117106305605,-2.541264871054274,-2.9269133907343314,-4.12731551193916,-6.239924620877055,1.676857342082699,-2.878158165804233,-10.684167061204011,-5.525874199952527,-8.344782890797045
30235,,-5.019571074881947,-4.55847721163393,-9.001706084557332,-4.562689673413506,-4.795235355505239,0.0979667804018654,-2.289476798500517,-2.2179816945713324,-5.176468998711434,4.014002990891263,-4.772626444354453,-8.388240259118371,-5.18546811784601,-6.823417611611122
30485,,-6.777508034809482,-0.0210946155991304,-7.362759960288994,-4.240912727387148,-4.182603066273887,-0.931666465132584,-4.400212808101499,-6.949125126931264,-4.662229081256535,5.342306154287575,-5.502191580428933,-2.80927512649002,-5.392199860593921,-8.9917350611801
30735,,-6.632749597536534,2.185514748298929,-5.605735209659766,-0.5793688334049435,-1.513855832876435,0.2612377956266192,-4.778773446527328,-8.522205439363397,-3.5824601211115565,8.514667765251811,-4.880116583711115,-1.6393642092148129,-4.9090618454488215,-7.782063531081864
30985,,-5.021209979931905,1.3460175880665233,-5.471412361140007,-0.890933882473751,0.0400573169175924,0.7731820349893572,-0.87042015802796,-7.469151449213318,-3.171442682038956,5.5820863387867465,-4.916551730078899,-4.403528919192942,-3.299333153082089,-8.448651763356619
31234,,-3.4916836439912062,0.2352057324463144,-6.361117062243789,-5.193525579670659,1.07743479974096,-2.2815510691598826,-2.457865959922817,-6.601540165851193,-3.4420316055489564,4.497774505154646,-5.789127330879974,-5.648687203660231,-4.51344547804394,-9.148336560251057
31484,,-4.201026573383549,-0.4566692442346475,-4.90836438660327,-7.963909605619502,0.8024631648109477,-1.5950225627492711,-3.879683806180415,-6.170917240932837,-2.797193027847853,6.242760471372114,-6.358679578775926,-9.549885620880511,-8.372152556394425,-5.517945405184431
31734,,-5.554887544948396,-1.6431086459245607,-7.45309778144623,-5.838133294459603,-3.831994626941535,-1.89773358007309,-5.263966345599117,-8.311742498242184,-4.477049655269608,5.403452398138952,-7.137185631163757,-11.078051115388163,-8.914265873084952,-6.032843760551126
31984,,-3.864441726195256,-0.5279099035227309,-8.624717570419955,-1.6290763054546271,-4.843520950433539,-0.9452322062455264,-4.769687462226662,-8.273969901939397,-6.425883764517342,10.230275219108504,-8.747425777100577,-5.368202981433695,-6.877604855041319,-2.87490199036068
32234,,-5.504444653964922,1.3203800748738468,-8.517111812561433,0.4905487537322409,-2.633497094706989,1.916508860647545,-7.476994163863283,-7.469060679654812,-7.257386707197403,8.51272968291435,-6.768050681980125,-2.9836716223107853,-4.389375520368544,-3.1702636456931703
32484,,-7.136428150135115,1.701528051239072,-7.677839600091597,-2.6400075622150387,-4.622293595226824,-0.698522565097342,-3.638662031969924,-4.332739841709455,-6.102846019562111,4.099078384858338,-5.749837720195834,-3.302904009838437,-6.733732467399525,-5.87677819465795
32734,,-6.043923713789927,-2.641025631635709,-8.138770159790345,-5.46506102135104,-3.744666881447976,-1.5356349830728615,-2.683707763913985,-2.477140488902773,-5.114492652273267,2.881212196078644,-5.772864799891464,-3.338839798436827,-8.558587878965355,-7.460652529901871
32984,,-6.413951887919669,-4.243322763898581,-9.351521608074904,-2.5836979920633283,-1.7619157984371026,-1.5176114537153262,-2.9204536901412927,-1.4057397033982242,-6.444524021763677,4.024623885580707,-8.6978377051378,-4.186107963920255,-6.800530381354687,-9.696237669577352
33233,,-5.9291267932714495,-0.2802158461627509,-8.415355568616512,-0.2580629523379373,-3.9249395386179486,-3.7353727322219226,-2.0707088488750856,-4.734690069153176,-7.803269856355982,3.233784641014095,-7.4326956258868915,-3.525359813046914,-5.992295790278139,-5.695508388983607
33483,,-4.040564591820299,3.078271110439765,-8.534088685586292,-3.243232875444144,-7.345177901777442,-3.04532252617759,-3.696485612078688,-6.522893216990873,-7.385957609295276,2.8711638804505517,-5.298441107871086,-2.9446359976945424,-7.970792612003919,-4.537430333860368
33733,,-5.17997646444078,2.3277980485605085,-10.146646896184606,-1.995723667219575,-7.474703399334606,-4.589201337807689,-5.98077336801809,-7.0305906622347125,-8.700512075944086,5.241188643447375,-7.114813493375733,-6.255449126496372,-8.571870661124773,-7.533429162992943
33983,,-6.433244966164894,-2.5077716660704046,-7.620778291038182,-3.057857992436835,-6.700185853905288,-7.547805418645432,-4.261659456702853,-5.520974651021227,-8.532245547646607,5.471671420105323,-7.1687632575067015,-7.985396341371064,-6.898344144079779,-8.34281407539634
34233,,-6.3162036694328965,-3.150164098760512,-6.67964137629806,-1.1716513713160643,-4.977774420707927,-5.656025841344524,-2.1260234247296186,-6.074950039899658,-6.137966629670975,5.175254363769019,-5.415819757561593,-5.3321725134829006,-7.963515325983641,-8.591831332252962
34483,,-5.0240735579747655,-1.3934197253091123,-6.7180154350833545,-3.5923942739233192,-2.209437746587499,-0.789496564738872,-3.80734739695852,-7.680132526097022,-5.764263685802024,4.572338526920646,-7.663086490027018,-4.347078431268681,-8.38163461406351,-11.988786043037276
34733,,-2.159395861809089,2.932666808698288,-6.744284049041562,-0.989583065784632,-2.627682453318117,-0.5747199985264803,-5.75427423735436,-4.052447020291814,-3.595077018675523,5.889098234287644,-8.351885559479026,-5.352166136090112,-6.890359913770169,-8.842444110375267
34983,,-2.26019235606664,3.4953421754897795,-6.92248520556222,3.26494854095439,-3.847468142545632,-4.617572307993417,-3.7801414399616746,-3.3954384703633056,-3.5456835684002748,7.527334849693653,-5.524909862052646,-3.770952295629769,-4.769446975072765,-4.89373261938646
35232,,-4.837315978997107,-1.4136229534608011,-7.933814744397183,0.559639741563134,-2.2932480489956446,-4.002551667644633,-5.521200857116073,-7.732449981538023,-6.171101345690029,7.302425221052823,-5.954731345715643,-4.645020448100963,-6.988867925297432,-5.567491753327966
35482,,-0.0947183927966649,2.2827852532870505,-8.747757600022455,-3.555869004333459,-1.5048586562236534,-0.3794616873235414,-6.1586380296696,-8.151738133789637,-6.912557327168846,6.650355131414772,-3.651841138781285,-2.137013429116718,-4.966154256474385,-5.324093315038424
35732,,-0.2123460808237209,1.3759623776719083,-13.172393462392424,-2.537261629665466,0.5842049386492233,-0.3917908592463414,-3.880149349818181,-5.94621310169919,-4.932621631170358,2.879263525662536,-1.4660476773999664,-1.1811702852315995,-2.723029832302204,-8.5869687591085
35982,,-1.6055567060870417,-1.591527938673424,-12.18407776004877,-1.7592042448679437,-4.1907001505617,-2.1717667979439472,-2.5530228839115345,-5.0454361707167,-4.037123801419676,1.2553943479401728,-4.192568841845054,-4.837806992856028,-3.693817792648871,-8.929088931885351
36232,,-2.386929765869867,-0.2013675679609455,-11.327803931585873,-0.9588546873985304,-5.383865398737364,-0.6555117459968078,-2.3388362303467143,-5.583308608260706,-5.32516950842791,1.5060654721643674,-4.546560638083916,-6.435171388876697,-4.075367825680633,-10.086333360675855
36482,,-3.457602795405508,0.939314036782538,-6.6257531586705385,-1.0000124820248566,-4.369005501152218,-1.2856892043987012,-2.780440147710425,-7.662564172996675,-5.073666859182944,1.3893220851651236,-4.344826925754949,-6.583012064018019,-4.346391156625344,-10.232782557625084
36732,,-4.973231829531479,-1.2935605914459538,-5.077583711965435,-2.3028120740444185,-2.092716049922893,-5.075374603244481,-3.715751540282289,-6.847575400315675,-7.290490618429218,3.968125677498077,-4.666185817506248,-6.952200895486823,-6.003515038628185,-7.702270175165456
36982,,-6.717599540668253,-0.5084444328692072,-7.294337439841158,-4.402569656973407,-0.542131391618658,-5.126225225365504,-5.165836656350619,-7.074149281840305,-4.277988739994823,4.440469814368365,-7.460568082467636,-8.83659224513775,-5.855005085854829,-7.445120513120617
37231,,-4.068657410970601,1.3522471624345132,-8.957838424140098,-1.5666987434251145,-1.806104566255968,-2.249160366336855,-2.114892570913613,-7.263863400584288,-5.818495178898648,5.111241188913487,-2.65506005117574,-5.491102882687205,-4.503737170889514,-6.515061777353894
37481,,-1.1151934219326884,1.7059922295159071,-7.625681199655652,-1.6844039274264564,-2.74047154235486,-2.3973935579347208,-1.8431989994827809,-6.872405866450367,-8.193977819015512,5.387293167594446,-2.1641611473582123,-2.3312803752617626,-4.341635139137248,-6.132023196564137
37731,R,-2.248933658285222,0.9590968333683434,-8.793940380939068,-1.6677597449332116,-8.6302293533234,0.0176347370936113,-5.561465037633155,-5.634480503132929,-4.750649998667228,5.425326111816805,-4.523239469181164,-3.024317960946139,-3.185064251257004,-8.332123971782991
37981,,-1.9518935743285548,2.468409657184508,-6.433587275989505,-3.200880652840021,-1.770151825598922,0.1402092000185308,-5.594468246499807,-6.614555933407633,-3.735375065313536,5.314665494397063,-7.556609257651551,-2.765885924282628,-4.950709306949099,-5.768143592027981
38231,,-3.039602775579904,4.794004966279398,-5.74771996161328,-4.927521952039903,1.543082005340462,-2.1906495706312485,-4.912962957182094,-5.686293099470553,-3.666927426731285,3.3952000658653594,-7.317634965145476,-5.665890321939671,-6.613528203439385,-5.744276586081762
38481,,-5.818013620718917,2.682754049219468,-4.316307945477147,-3.3863198937110486,-0.3043107723188781,-1.847783733532999,-0.7392205832490505,-3.7590964499205466,0.6322557592492983,3.890658828395459,-6.304177079715208,-4.986371619174682,-7.772465040469445,-4.848412741328464
38731,,-2.52557669667312,4.556836556230353,-4.738257035764461,-0.6893283551252654,-6.480562145945985,-1.861214563010383,-1.588000772535726,-3.4735623126709414,0.693686870848974,5.2577583252985285,-6.425137523519525,-2.016802558742928,-5.50017819051834,-4.4072610223748665
38981,,-1.6396771600435835,2.1478414928432024,-9.04989054138323,-4.524802877104226,-5.340579126166441,-2.206293175372382,-5.931546679351958,-3.423184125133388,-3.690187653900579,2.491575927899555,-7.994199552359139,-5.778779076511999,-3.677005544987397,-9.108920665423154
39231,,-3.6167579006607866,-3.421877104782125,-12.832662733581785,-5.63403809842703,-3.91760452708902,-3.6458825499575314,-2.5922029741922694,-2.9163611984586586,-2.080815090707426,6.525837473554249,-4.732622201529378,-6.383363836785869,-2.2752352558208084,-7.595176094017551
39480,,-3.8443926588556874,-3.515886756302243,-11.3590287449811,-3.013265932744869,-3.987600807356001,-4.262464394673934,-1.6075746998260685,-2.6630677814851382,-3.661383161172087,8.159714926860378,-5.282438570917244,-6.510497679158962,-2.139856895517074,-8.014868178078542
39730,,-3.404365029519463,1.0684673725310625,-7.491074508073873,-0.8450323086067363,-1.7647315145138824,-2.458950706336228,-5.082574699463509,-4.8632470960174174,-3.666571717757734,8.515347660878541,-6.081584312895478,-4.547905700181923,-1.0606834405640022,-5.287818520887528
39980,,-1.7766640008389438,2.2031748191360863,-3.740764742736611,-2.6253267559707503,1.420393890304183,-1.307605931280707,-3.889960110240608,-4.934090431333682,-1.9542833347621849,8.221344310948098,-2.960918994952337,-5.286371105829297,-1.0971802072523955,-1.4524062214579496
40230,,-3.235284133577976,-0.6215067671135438,-4.045020541496623,-3.614858362220317,-0.0132777406112581,-2.3385958488916136,-3.9009065926033664,-4.496821045770318,-1.0144155973442357,4.591888630527329,-3.886372123199217,-6.965579104974905,-2.3212629947359518,-5.36667560380776
40480,,-0.8569669037887826,0.4111612435283908,-6.4556136554187,-0.6660498891822187,-1.0937212290338345,-4.393970417876039,-3.1141991500542816,-3.1615111948936963,-0.7257600613582177,5.660682663029542,-2.53689973059396,-3.1045660487576487,-0.6699378691733349,-4.466217631656279
40730,,-2.01765825791761,3.5053203556574712,-9.01656847817896,2.307920498338752,-0.9991303961111296,-4.416759926555076,-2.3384066711664797,-5.925119100386125,-3.0110458647674827,7.033227946805372,-2.311602323941852,-1.9685614129919888,-3.6145724608493977,-5.475496508622121
40980,,-4.583606396913204,5.701816152523015,-9.790369465767984,-0.3456541346630592,-1.5471755214751854,-4.499472075024961,-2.196520305563435,-8.089726442837094,-7.921372056338981,7.374180994369034,-1.4329687334562389,-3.976399006738183,-1.5589268531229692,-6.633978607865472
41230,,-8.330185157402566,5.1617789208613605,-6.236427043488778,1.2846178073794592,-2.614363139380087,-0.4846610345780227,-6.199609008711785,-5.97604303229195,-1.770721745938992,5.126004590665313,-0.9725166195877372,-5.587038085020609,0.521272240907334,-5.232841178262091
41479,,-4.848810858533284,1.9706337460914487,-7.851635806878562,0.3135634821079747,-1.7687715763157263,-1.1537000934820287,-3.5893661609165384,-4.642716942732223,0.5320761143245909,3.1475865764653626,-1.025590405425902,-6.069734304630138,-1.9463048693530456,-5.37267778755144
41729,,-3.820512672461049,1.530315465441576,-8.55461945841379,0.1808247125724143,-3.0144484235082984,-0.3617699178401365,-2.297894970187944,-4.62734023737557,-0.5312041962017889,6.301550940781212,-4.11020888683224,-4.9956020927156,-2.4247993456209223,-6.129864134383343
41979,,-1.9137477633853168,2.331338667690557,-4.824337445100162,1.4304798440655218,-0.9137197653753976,-2.371390156578104,-1.5195807754812654,-5.242130121775183,-0.4733200978481016,7.874172164186999,-2.819388449418572,-4.00803696233014,-2.747774498024207,-6.204343830942129
42229,,-2.7156621294502417,3.748554114566034,-5.848178973898632,5.223348182981483,-0.1563047628902428,-1.0863304729843002,0.8008231401544608,-5.201817102929538,-2.6108964264509327,6.579442333530926,-1.0157020742040648,-3.694759171991632,-5.14706832443335,-6.786021874272174
42479,,-4.614124795948785,1.5570653340772302,-5.691835025124137,3.0420743778969817,-3.206569124086449,-1.7061760510732311,-1.9282346071116383,-2.08748361503125,2.274511220975478,6.990399926481359,-0.8301770165210144,-4.057879389999364,-3.4398594987109115,-6.469140242775305
42729,,-3.162505711857795,2.867726909806556,-5.970760121149107,3.0408301356819587,-3.075085340794642,-1.650911387942051,-1.387837782058721,-4.402849558662562,2.1745555398745027,5.048212651961583,-1.3362247632430098,-2.560643654925483,-3.6388933003069615,-4.940984307146439
42979,,-0.6831495189829764,8.301299773701611,-5.738837026896574,2.3125057798499347,2.2581278038604715,-1.486633744284327,-1.702045516174017,-2.550530898500487,2.321173723222877,7.1984814151442045,-0.6071297290208509,-0.853065063665215,-2.334321418689162,-4.943621347431477
43229,,-3.4493643734623247,8.308807946920751,-3.72218804394984,3.0093628599374664,6.3474789680857,-1.4080384387182296,-1.599174859988636,-2.0621499850953304,3.058865277558544,7.1355726288989,-3.304059854726594,-1.3836987745782483,-1.666385807601634,-5.415961069055951
43478,,-4.700132991929157,6.852339470662272,-1.4658758296648595,2.284360783786015,8.9008653912677,0.9866843384591134,-0.3694505345549885,-2.4603122176273,0.9228295706167486,4.62022012138731,-1.2634495568144888,-4.09859814742311,-1.713620033282336,-8.482703788826583
43728,,-3.894265929895905,6.239847098342483,-1.3686796419249014,0.0679323138373879,4.709201260811595,-0.2080412512048026,-2.8379460436756383,-5.103532269895567,-2.1246086549381724,5.432472883414517,1.6453676389110523,-2.8809335265885885,-0.7163846225174504,-6.876507806607624
43978,,-2.827046013835634,0.0442458520403737,-5.435795619929572,-0.409242057574381,1.6452107145061157,0.6064783457466999,-4.318932270715385,-4.151560017929366,-1.724047680389573,4.326308217409114,0.5952420063371222,-3.614551968555008,-0.7199280260935892,-4.434674234272486
44228,,-1.5484721576960945,0.5083485833463278,-6.404698883177606,1.3662970015948348,-3.807655343982439,-0.9024346080363006,-2.1929503547608804,-1.0265530078540497,-2.2476695314714457,6.150949606371794,-2.079687442934289,-6.146189207629446,-1.725588842149237,-6.64644775173678
44478,,-2.4665577550732296,0.0147502522828699,-7.464635125367407,2.095114525934294,-4.053388714578033,-3.686683633690161,-3.191076648007756,-3.1835104745506526,-3.603451255966737,6.844947104040628,-0.3499359281390075,-4.653759301608174,-3.081283692612958,-4.582404372247581
44728,,-2.9752100151607035,1.116522224175908,-9.970274223150485,-0.2045024183068233,-2.4724795118118608,-6.602573988448022,-2.344241771145363,-5.753645546804481,-4.387024650519514,5.197936100451469,2.2777890630938176,-5.72990175839677,-4.574698823687447,-4.868192829851694
44978,,-1.9494653229946677,0.3754010970375858,-9.323934251714386,-0.7451805948106894,-0.3549019183094412,-0.3229180720307398,-4.477977240698843,-4.601021295060641,-1.4271004821279574,3.652893260255676,-0.8555071388854408,-7.183428478728069,-3.483142692229003,-5.728053571253376
45228,,-4.533576156615396,-0.6364590642344214,-8.935739636776077,1.0418624095999032,0.227241103955062,-0.2050861099077025,-4.57933819052379,-3.45673146912723,-1.943509180920324,6.305963627250533,-1.6425055481306,-6.407826972477809,-2.4605592015412,-5.669460400631795
45477,,-4.67653889196869,0.8096012227866406,-7.185359981727304,2.149700036086774,2.2607142447207456,-1.249124566334457,-3.998575858362433,-4.3280212737691865,-5.220683119806038,8.135590127220532,-4.165037967088511,-4.405807557732059,-1.8656548495403216,-6.587131379570645
45727,,-2.297197195069587,-2.5422506347035534,-3.194728780849762,-0.8852849278203998,-0.9706811184468624,0.7305134278311288,-5.152988758492296,-3.7675729771959823,-2.992689416825823,7.327944078724881,-2.443954046023798,-2.2766485991911805,-1.3972398668301664,-6.120879032449086
45977,,-1.3700237818931569,-3.0717854243817238,-4.5506545859556535,-2.624246535410069,-4.973009719663431,-0.98328714846392,-7.020526614714438,-2.256196505439726,-2.9139645105083685,5.457463475342438,-4.226755537654896,-1.3293585593965274,-3.5904043944001547,-6.23211386346955
46227,,-3.033872777657696,-1.0834616567828994,-5.585191622150804,-1.284458404342817,-4.703365677787393,-4.473389540395743,-3.462055785445738,-2.767534397852931,-4.639758788521936,3.888060030781608,-5.937436825548856,-3.7371232859542554,-6.764502725850305,-5.928106065313653
46477,,-2.547307266676382,2.0869102948832943,-5.226986587121321,0.5611489084763899,-4.114152641496515,-0.8807091067580421,-0.954478701877212,-3.1897672195260567,-4.5126006592628825,3.655239042164462,-5.536476812606597,-2.979683402218407,-4.550032392064724,-7.499307516368208
46727,,-4.918231487521069,2.33315564839553,-8.214842030295536,-0.5856447208035863,-1.7980781043257306,-2.3723091206827043,0.3017216721990139,-4.716843564878024,-2.4349518258691094,5.890825075977163,-1.8663617111134485,-5.474381562560222,-2.861740438234239,-6.163495018039136
46977,,-3.40980489184569,-0.2157826626413873,-9.962149041042244,-0.9409422129844582,-3.9122114898083327,-2.525362123944196,0.7217136260652508,-3.348300390164427,-2.5743939498381403,6.218704196710108,-2.0768542185664507,-5.286096270394238,-4.545131194194738,-6.274620280310131
47227,,-3.141030647994893,-1.4637978658798096,-6.93427548919388,-1.377843001676717,-3.695592609816565,-4.82160525109254,-0.9476991877833196,-2.946023889164807,-2.061923202800864,5.061893416974211,-3.3148157964690563,-5.185046108544276,-3.140217551570782,-6.140143908882722
47476,,-4.33948636589183,-0.0092788741957603,-4.4585820125113385,-3.279143246322212,-2.151186914653506,-4.741113981309011,-2.435552808575548,-1.5140798719059922,-2.563591412263878,4.339394883351334,-1.274276164661162,-4.988613090817981,-2.380191988698959,-6.332335885323092
47726,,-0.7783373275529248,0.8715588337733977,-5.887872644513477,-2.002564487852754,-2.8152866869372533,-2.411470728092551,-3.814155781081975,-4.473432392746192,-1.5090397523089372,5.504776194956844,-0.0739295104397681,-4.605060034186501,-2.1805112403107114,-3.5498543267366625
47976,,-0.586890882479533,1.3173769977612917,-8.164281207677993,1.0492787125337228,-4.356378346732103,-4.1715500745306064,-5.885096147468416,-6.564857029011824,-1.4424727001757442,5.383777634170278,-2.4677321724799084,-4.885176640599861,-6.359578219633514,-5.672956495371069
48226,,-1.2378462503413423,0.5650047842073213,-5.2510931638079805,0.1230467752233048,-4.675192953065176,-4.9056337384490165,-6.9700533626681285,-4.268610443698629,0.3351040226537095,3.764023252891774,-5.047545301749575,-2.9602930643204344,-6.108212521499016,-7.590338280693376
48476,,-2.868679231901842,0.0862531160379099,-5.334700297082936,0.3716557944898873,-3.564392459832072,-2.994158304171612,-7.8494100735821615,-2.9401656546966053,0.182773614104958,2.6330430096213497,-3.329205092794074,-2.7797348850282333,-3.9760571186941935,-7.966920345402197
48726,,-2.944113747695508,1.3678861685612769,-5.488419092671487,6.493177313288346,-3.2341081673602083,-2.62773646239667,-5.096316514310529,-4.820910366029462,-3.6534132055138215,2.634781863442531,-1.502051792442601,-2.2815535785296186,-6.32803628657232,-7.293543762037581
48976,,-3.380228431582771,0.2472031623890422,-4.21745906624131,5.700807640347298,-2.863606380835958,-2.2428495062444243,-1.5157167437910526,-5.460909322258142,-5.186642118403151,3.266590907421243,-3.46109822626248,0.3234618618222635,-6.053930989746247,-4.412111043884474
49226,,-5.886441454228393,-1.1155419207390875,-6.442796733558177,0.4147206320085603,-3.2494126095832145,-3.1862840296491206,-2.51031314152565,-7.244469874653952,-5.575616336897195,3.4889310637022937,-2.552041090546794,-1.7150000961614429,-3.542644764082524,-5.484962806541534
49475,,-5.849758230198182,-0.7484436594965425,-7.982622354586199,-2.595044845818516,-4.648003105043001,-1.298241120193751,-2.819563088990797,-6.371672260992477,-4.65180634948855,4.387712063973849,-4.174175891287567,-6.863116940775335,-6.23752750808885,-10.097739768069076
49725,,-4.440353579555008,0.122863050083702,-4.955400691707901,-3.1304712451287875,-3.986638724584647,1.027270952653688,-1.4166172308883933,-3.342781722216377,-3.799643462028206,8.03268529841162,-4.664709131611341,-6.746783452717673,-2.3408340412012043,-13.5087495905754
49975,,-2.523635796773069,-0.8746380239053799,-5.585289707280899,-2.916187277058104,-2.885907356523689,-1.760268141241875,-2.945987980245027,-2.567997561084656,-7.035999309475121,8.067651867435096,-6.23215576359255,-6.60059691083276,-2.9293475381798117,-10.02786145113765
50225,,-3.9410208316869912,-2.4951254384842327,-7.594369894362773,-5.282049563414271,-3.232212484114851,-4.209306320887127,-2.8498697657223038,-2.9724528922773343,-6.448684059497118,6.952463700009464,-8.349193673628866,-6.151235694924474,-6.336385745312072,-8.911933820223526
50475,,-5.191394321405688,-0.7312352291113112,-9.151247304864084,-3.2232008698496,-3.4001824281106154,-5.860616176284697,-4.17279628697526,-6.059176116898487,-1.692490904752724,7.689087337040371,-7.388830228800076,-6.379040524651422,-6.076944396226155,-8.264383207399867
50725,,-4.991193943714457,3.506826414967337,-10.31393884338096,-2.7655945553339296,-5.65107015225836,-4.665902088611063,-3.4682363385769444,-3.5959345043095303,-1.973204585698462,4.569656575505001,-4.702622378917716,-10.8153096995976,-6.393752689152594,-8.519216790283203
50975,,-6.919302710171529,2.318781908823752,-12.68400612321794,-3.4696310309388427,-3.503987483565607,-4.080182954336359,-5.234412811384564,-4.969713036917861,-0.9301885289228896,6.688864497872174,-6.752500568823601,-14.306644471115042,-6.69959535318146,-9.62844957142623
51225,,-5.69078904590444,1.973256800599028,-7.293690124271955,-0.9886276060142856,-2.194654509264361,-4.254430071070427,-4.910966844659425,-8.403238715230966,-4.113904541125605,5.457592738609267,-6.977180371387084,-8.366509403383303,-4.715836475612168,-8.989984920635063
51474,,-4.977217862641498,0.55490993170818,-5.349374576984504,-1.9291668171963705,-1.211825899190932,-3.007254860806005,-3.665195457273031,-6.209128093151665,-8.108817852612113,5.144925157684951,-7.459752880826446,-5.0649593227597975,-5.232003379661865,-9.43395456296987
51724,,-8.790032444089139,-2.664072287293704,-4.821962657941369,-7.140325161567369,-1.484132999241318,-5.454827395571632,-5.944233547813531,-3.772809298429951,-6.629226659692042,5.177546056210662,-9.74580491554732,-4.660158021035815,-7.155497704982135,-9.37401332512244
51974,,-6.472933910061782,-3.769996384558561,-5.775001014063945,-6.459396232317855,-1.719994907466753,-4.637609484705044,-6.215528973208389,-4.330964025434903,-3.3685839131958266,3.5380891788468465,-6.030073214294251,-5.825475640988152,-5.677765704904878,-8.426449403605002
52224,,-6.300348146285652,-0.5937319260237429,-6.452797926787638,-3.341040372500049,-3.875422868399769,-5.7211329189859805,-7.521582487594173,-5.827389824484335,-3.4916346142748464,5.522938192183094,-7.059907057371555,-4.297588799631058,-5.295547231460972,-6.324754324142024
52474,,-6.9118549700596965,-0.5528598864956925,-7.583775111809327,-2.340679606912896,-4.034014225914452,-8.631677530233272,-3.877419709330296,-5.122446285055146,-6.232350290918581,4.233441780958497,-4.405038511092019,-2.763578749284004,-3.906796862964584,-8.117671220422492
52724,,-3.351338264746505,3.336842186518095,-6.499982821773701,-1.235943113730226,-1.7521287783681498,-6.290789441301667,-1.2308544058650486,-4.278489607235649,-6.879343284681413,6.4436123133542,-2.8822582540678865,-2.345443442554063,0.5118893147012499,-8.755043977524057
52974,,-1.36060532657422,3.1331821413077563,-6.197484548796864,0.1027154334113896,-1.4557507893963793,-4.082493312765721,-1.0875962793253,-5.46194413710494,-7.383528256582581,7.919574853712588,-2.2174970317233047,-2.931159218235214,3.994221275344491,-8.61777751547781
53224,,-1.2973218899164018,-1.5359069485962582,-7.490219975369375,-1.568312863068779,-3.5320683661496077,-2.462362965198848,-1.63970402445896,-6.762835156410018,-6.169173592624169,5.920059975299167,-2.3182116136197624,-7.398990158794643,0.3736094477685232,-5.298264888555559
53473,,-3.1465467648088907,0.1244130465331141,-8.197741367398393,-3.3059799866898443,-6.027564986822661,-3.9536998974145536,-2.476164857073149,-3.261030776782517,-3.3521242860307474,2.64612131616322,-4.685493654493601,-3.8384845437058335,-2.107727032240887,-5.544974303041728
53723,,-1.0882124370239254,3.3103824620776754,-7.0212275379196685,-6.064918769389212,-8.82681470497957,-4.304791299040657,-4.633831007042158,-5.621315918777392,-6.307494942327208,5.150038747567368,-5.714698132830812,-3.756492817994842,-5.797585883655093,-6.244050810207634
53973,,-2.935059936544416,2.3887544366562934,-7.0160476436851305,-1.6417219866536583,-8.095876540235302,-3.992709667763511,-4.210675660371425,-7.070143913209571,-5.874208386501435,8.563001241283567,-4.3664090683651855,-9.239735823784653,-4.460807033678895,-6.163945813911683
54223,,-3.672405090116164,-0.1402272672694464,-6.158645016206395,0.5220376849038382,-7.831613123945894,-2.7936700824574108,-3.2768299570822963,-4.357667898827737,-3.1090321159775014,7.230434509339503,-6.668192150373303,-6.082654378706759,-4.624285668823966,-6.232165423023114
54473,,-1.3120630091588463,-1.920056463673134,-3.838923634198788,-3.55387853683965,-4.897539179017578,-2.5074873309022943,-1.7719406452115067,-5.853569917761031,-4.814183465823216,3.663127694778492,-7.723238237329784,-4.233968416207571,-5.933903999446385,-4.220392550454697
54723,,-4.2943140655794885,-1.042402885902972,-5.3956723033610245,-2.098331352757342,-2.972663764526015,-1.4782326467738232,-2.665937858292448,-7.738150738064227,-6.803118979114167,3.763469876137282,-1.909566932106052,-4.786100281305518,-5.197102497219137,-5.724438888123631
54973,,-3.47157055354769,-0.0524517362773848,-6.014621364131595,-0.9615767058678142,-3.2632277919085837,-2.309073398867013,-5.63987787507674,-8.520509513432284,-6.030281305455759,4.663254865818656,-0.4812266417174721,-3.742442068785439,-4.559611477467214,-6.913512364374985
55223,,-3.7561003207885246,2.1764767558305222,-5.464564440385948,-3.967369342241112,-0.4180561697965064,-4.713934669525512,-8.14119786895245,-7.807137479315225,-4.001922465075098,3.1004541671757857,-4.737746537123931,-2.644444115300505,-5.053248245846234,-8.453991427588567
55472,,-3.764526940765185,0.0732608316251893,-6.951975241158854,-6.254031449308098,-2.9283601159472483,-4.739669399216225,-5.784897725413324,-9.817192464382728,-4.794292841008665,2.5068350240508903,-5.22868293019288,-4.633286719756225,-4.454580802582859,-7.898235153439176
55722,,-2.4690607047527813,-3.667504847629016,-8.355166790324283,-5.374700130678576,-3.743169677796211,-3.1601809675347434,-1.3144651983464082,-7.732387834159724,-7.656690344997122,3.5092294946351936,-2.622982328324845,-5.338283732921204,-5.931723969629764,-6.912569259689773
55972,,-3.5633798709905182,0.3475236188390869,-5.403734916161679,-3.619251290299604,-5.111989566694674,-3.757053844425968,-4.168240378959343,-3.9496918791213167,-6.272860381128641,5.04329720890418,-3.841311960055298,-3.998938997916715,-6.587242984538571,-10.34064018182222
56222,,-4.895628577953222,-0.3680492516699201,-8.251645873945982,-1.502875827533726,-2.405613207065011,-6.681938587854902,-7.092238071109337,-3.71237240921711,-3.59684385891117,4.852512397975778,-8.269210372541245,-4.13900381026381,-3.31135118593364,-9.083925316720055
56472,,-3.0077787543044625,0.9108412850129276,-9.714363055368208,-1.5542347291596443,-2.837210505061843,-4.96831170751485,-4.138687369412163,-5.493124992876543,-5.392610418499595,4.734388029029785,-7.699630718020836,-7.201277142002283,-2.713473767255132,-4.288687616838874
56722,,-2.565035380542438,0.9384825248782316,-5.547489396654796,-1.6696318554278515,-4.739699717259831,-4.510970287066645,-4.150989259228004,-8.182594287946236,-6.115295814340593,4.847961393858997,-4.868811883528702,-2.089530330807405,-6.455563333725928,-4.31832713766306
56972,,-3.5496709719399715,1.6761046180756591,-5.811092232074251,-0.9409726416068688,-3.151857626569518,-3.2522015949583363,-4.635137923327699,-4.659146139230104,-4.789720138111202,4.012103583751802,-3.034922449392882,-2.2522850937138146,-7.554394378917482,-4.805949883183144
57222,,-4.680587066307968,1.949713543637228,-7.05768360237944,0.2905472546687481,-4.54319542591111,-6.018416821323143,-6.758899206758379,-4.793737384777442,-3.651490559121971,3.314679239501518,-4.645636805187261,-5.959517575621449,-6.659752284652061,-5.671147656148944
57471,,-3.8269131534253127,-0.1600084143640155,-6.705392730459252,-1.1793527341085988,-8.328035094324681,-7.427685726147906,-6.444422361630052,-7.762924746027107,-6.171452019629541,3.082263448287599,-5.964618109832928,-6.503979370202555,-7.181253512178763,-6.938926051502787
57721,,-4.858521205046653,-0.2530897953714848,-9.430214603346762,-2.2740436849646324,-7.671084417874985,-3.181080656830134,-4.288626955866781,-7.026278678053439,-6.582994404467164,3.302191386964947,-3.829988242089668,-5.424491846040194,-8.323541712412565,-6.94805183382525
57971,,-6.8839823067172645,-0.7067735808150776,-9.77200807838094,-1.5946946627872696,-4.940536409770504,-0.6247330543299952,-3.075058204973681,-7.26589640483544,-5.649259683800404,3.804411476999989,-6.215020931743432,-6.319034441463628,-10.042580886180964,-6.488673751301496
58221,,-7.344798060464596,0.3517488831115387,-9.829009046937664,-0.4734959529620075,-3.0907809050433444,-3.818567239196299,-4.311838696269791,-5.550068781012043,-5.463086560911343,4.607246674516991,-6.296080544569663,-6.902786477849256,-6.553460492503155,-5.719829225635466
58471,,-5.297392075111275,2.0813711119493385,-6.571607938559772,-1.5930839108932937,-1.8714968294402827,-5.034795398351381,-3.047043348100762,-3.026189778324635,-6.506054318688364,0.5072647904761239,-3.6669588261370514,-6.443311864166286,-2.332437323762071,-5.945738211493459
58721,,0.0794199643313777,-1.3430039490581958,-6.774893982641873,-1.5787872113929873,-3.767074132101994,-1.6225313919417237,-2.7027138118136413,-3.972694150471329,-5.510589172630186,1.6175334374024255,-1.2665322390158835,-6.764856756169172,-3.2483837720596185,-7.934309002881358
58971,,-2.073986881254253,1.540679109867522,-7.811391164575944,-3.904518977063738,-4.542364291570012,-1.447920844442847,-3.545369937052881,-6.92049793623093,-4.341621061430383,6.273057017684468,-3.490603420351144,-2.802709268754677,-5.11133478636423,-7.360287157205519
59221,,-6.256388613365992,3.2982074248329867,-8.36970680204737,-2.872034589912192,-3.1638448975345668,-5.240237803650095,-2.1472973265156847,-4.609582964584939,-5.565016550332935,6.5266399296148645,-6.943996991983825,-3.857095382648126,-5.594039545910946,-8.039532723841905
59470,,-5.027835919661086,0.4466821656221373,-6.251872508614254,-1.446278313345448,-5.955708246634571,-3.879779749382877,-4.63232878567247,-3.3803199330256835,-5.425061827904166,5.088556603801804,-7.990982280709638,-7.935169499685206,-5.529715723226465,-10.962714130312472
59720,,-5.1313720967723055,-4.892693952349011,-5.606853772319793,-1.434919513414482,-7.792970132192126,-4.960663310817662,-4.822551282476312,-5.680040166384962,-5.93005949599009,3.6939739790578887,-6.930310997583149,-11.510204813741442,-5.585815547389842,-9.431050391583533
59970,,-4.496443552447987,-3.693819354132932,-9.180272155317112,-2.2355199968832125,-5.058987657911782,-4.8886493439936665,-3.141285996870992,-4.520808096768054,-4.937120620975399,7.024925745509448,-3.721636563442543,-6.814085597702939,-2.315767889839851,-10.356366278928125
60220,,-5.665810811877067,-2.0669740704296298,-8.853588644237785,0.0198750776718148,-5.928143840682999,-4.813030601390846,-4.118183814766233,-6.379866129501824,-4.543544485279691,9.118562197714953,-4.882813590875494,-4.661672850762434,-3.766859747419143,-11.837549963476487
60470,,-5.732010316520767,0.5199403858232093,-8.23370146164802,-0.1700518531197106,-4.123757012171201,-1.7376597730138408,-2.221574517347841,-8.126245930044798,-5.479948896269942,8.224061601082125,-6.601503315159056,-4.66190963027293,-4.633098459146668,-11.447869332483537
60720,,-5.825223426999568,1.7038247647566402,-4.958379198525449,-1.842267970513026,-2.7079255689411186,-0.9185228509225708,-5.004330291140685,-10.009766551973376,-6.256292046523742,7.10034078181525,-8.340919871572542,-2.417260321765576,-6.289769924038611,-9.528299129907886
60970,,-3.6966421043879736,-0.6394693637953104,-5.40895102958428,-1.5643500967371184,-3.5810978613028865,-5.722193435259256,-3.5037981606993625,-8.827425733491612,-5.075302259540248,5.292625498026512,-4.54927616323071,-4.263722342909012,-6.233667244360477,-9.18505346483342
61220,,-3.5928276800419434,-1.4783944490750056,-6.999629209266889,-2.2734135704520737,-2.0083885383881954,-6.459814493499579,-6.113889234542476,-7.588034185783615,-3.1542549632240524,5.944806223749692,-4.522815356648208,-7.09109911516917,-5.0675923004613175,-8.63464796799753
61469,,-3.9038859323174457,-1.614136560362191,-5.554952563270891,-3.839167977694733,-1.9202404079335371,-3.625053408813032,-5.364342980103212,-8.976404471017789,-5.402321044490179,6.286578927802147,-3.500448540495556,-4.881134989705896,-4.700942568646259,-9.804572880169754
61719,,-4.305359569520259,0.2211737566460442,-4.8881447933081095,-5.750958013507608,-6.909535815181519,-4.488336773687109,-5.418162088266981,-9.899591231889705,-5.095012772323856,4.088477907505676,-5.46466333086023,-5.921338798820091,-6.464234814096438,-9.49689084892819
61969,,-4.636186353310966,0.4572521122907749,-6.950198140086816,-7.293313379798486,-7.445365567544173,-6.855514773542229,-4.985410651118192,-7.520604477710937,-6.823388701033122,5.714275381730208,-4.117058018227564,-7.022936506933366,-6.171984127800164,-6.948076054140611
62219,,-1.9238401101376816,-0.6456592563048618,-7.01170389496991,-5.067097062600084,-3.9139827504337528,-5.364451450640023,-3.9652857245037314,-8.838002401926827,-4.074957999311336,4.048925849420108,-4.249863164165391,-6.361841116806088,-7.733769981587235,-6.529462625206074
62469,,-2.491531355507582,0.5314716579320427,-7.652325072670839,-4.723624124168516,-1.9445523974150716,-3.3339042039412754,-4.171137177776907,-6.825008555698567,-1.5152435901688852,0.921240020019518,-3.898431219988249,-2.7372857048686887,-9.707208196195584,-7.161618931663631
62719,,-2.2053077690529115,1.5420135173164762,-7.402955187396621,-2.6876094358186493,-3.4948720229467805,-3.302686853278259,-6.201915662749002,-6.145845157046863,-0.5106778141564304,3.9755093867438607,-4.621256658411339,-3.6071489475384735,-7.998452183309558,-6.421536066834013
62969,,-2.382430573631505,-2.051649446146768,-7.116328213817575,-3.549072427840672,-3.2553442150768763,-2.592816691848844,-2.077586370609445,-5.570167180208006,-6.58216127237119,5.80972240082942,-4.838316205145698,-5.031186465767618,-6.200010142715925,-4.206943033448846
63219,,-5.152900679236076,0.0512019823483207,-8.588147488360235,-4.392500332234136,-1.1004829771119236,-3.308401859952665,-2.0662691973825997,-4.392187372115657,-4.7387653351166605,3.659434911932787,-6.9376524176677465,-3.3858742996662934,-5.589502833451464,-5.827030081664091
63468,,-5.409107325547949,0.587958718434093,-8.13289761506862,-5.480326149510962,-2.267075413223965,-2.074311355771841,-5.274843828815355,-3.639050992487317,-3.7113454466089104,4.333724058924582,-10.828216777063986,-3.0428415644382256,-4.77287273566569,-4.533033224443531
63718,,-6.226752282493067,-3.012177876178015,-7.845132949424448,-5.121305839075621,-3.7544731253579,-2.390237690625997,-4.268440714593097,-5.017944577794031,-4.898438834345483,3.752696167991502,-8.049298837247893,-1.5780113851577562,-6.119899722104898,-4.625989847629038
63968,,-7.5279344261813534,-3.513421417728674,-6.96122954821209,5.3784832287965685,-2.130611672352047,-5.640958605239234,-4.202135823510005,-4.599676560674485,-8.146969239189145,2.0758365485887227,0.569797380018799,-3.328731353195097,-5.7293530005395565,-5.921802693203144
64218,,-5.889820529158957,-2.632349733916133,-7.545211104695456,5.650439902381899,-2.064685299723887,-10.51476366901735,-7.016206627187254,-5.49125087980225,-5.126819824736088,3.706373814795781,0.1530247040512621,-4.603598748186787,-6.261183082152818,-7.449098935971717
64468,,-3.7411884321612887,-3.510217033230224,-9.072961113309924,3.1241687118686183,-4.353692632710017,-8.646312925124041,-3.5825148264259505,-8.563970119868905,-6.084754597010039,1.2511570930777558,-6.074080954926609,-5.87258351127336,-5.805873487890142,-6.127084699754075
64718,,-2.194231931369505,-0.2291078545609202,-11.5912373496161,3.7427588391419664,-3.8439990158877575,-9.582957193825482,-2.2261665154183943,-10.456588140391103,-7.595496894178434,0.6505165135215313,-6.3145242690043535,-4.376306857957909,-5.07339656971293,-9.20478617675356
64968,,-4.199901395307576,3.4072719631760333,-7.872237745145579,0.0057743093393083,-3.150112819357665,-5.543286473904727,-6.002229577598048,-8.23894548343797,-10.30892453963035,3.612827500064419,-3.9584151533989935,-5.080266207743263,-5.0355319454080565,-6.42880112148981
65218,,-5.8811428206794485,3.292766011654636,-7.838936314747662,-3.624608482788551,-2.097463973651355,-1.6238981666365062,-6.46558450819195,-7.620794470312557,-12.262321206328243,4.7484972070534015,-6.524352246434656,-6.00763332354534,-5.065263961504884,-7.122070251795181
65467,,-4.467019889177111,1.746633579474248,-5.912233831003562,-3.925088598842573,-3.080523155704925,-1.6565605270069077,-3.782256424420977,-8.075731797507045,-9.345043560798125,7.351852902149862,-7.501768944591046,-5.042568053562068,-4.688492074772002,-8.392456797735598
65717,,-4.003790081625124,-1.554658293533162,-3.733646069467624,-1.380920084187861,-6.301280818690625,-2.575679039181731,-4.836815726279305,-8.994400148551113,-7.411321621582521,5.421322719456459,-8.267701736657349,-3.0753422712627936,-7.714658050708184,-9.022799008541856
65967,,-3.52726882361605,-0.3828264713125634,-3.573612868339828,-2.436547698269955,-5.195556597571816,-6.739431545234016,-5.979720887395144,-6.726449648515888,-6.661403822023917,1.5933579294596605,-9.072211144538104,-4.76343350666386,-8.324152166028686,-8.175592994292725
66217,,-5.564077694220311,0.2293088904614032,-3.164051946111328,-1.624975405800747,-5.928505741962511,-11.112817842618313,-4.739918040774627,-4.845243333777519,-5.542168472518039,2.286645780490924,-6.31285346111491,-7.257075238663665,-5.842244001091828,-7.216237920055555
66467,,-5.300375027168148,-0.4644001707887148,-3.2953165808354474,-0.9529927381498162,-5.53353097478106,-6.492989711280959,-5.6034221500173285,-5.881556053871949,-4.82436904451859,6.358608800396199,-5.513224877952702,-4.799575189011575,-5.927115724535766,-9.069622925768728
66717,,-2.461044926702425,3.99344335928782,-7.281155244996365,-1.6909011736101225,-5.029879664094459,-3.0346978468483576,-5.196505165440972,-8.614279848948115,-8.068762117655979,4.7123990520085375,-8.422312962871478,-5.5729728200837405,-5.655795371792661,-9.890732602794987
66967,,-1.5648501228060745,2.99416746563325,-3.879730008403558,-1.314576771119382,-3.1789523101326216,-1.8530900824349643,-6.347244086443682,-5.65785400429628,-4.067505957107169,3.68411481229478,-7.641542509726892,-7.089870855910293,-8.81770111982333,-8.069897078890552
67217,,-2.564830503904389,0.7429244891601817,-3.945211383822389,-1.4477514497149402,-6.154792810860027,-2.853523940014137,-2.681842532650066,-7.488968888440295,-3.849043976319497,3.290545923111139,-6.80487368591557,-4.170218379013396,-5.103493735843819,-8.454247792222425
67466,,-2.519938863629669,1.2105581066432516,-7.2533236686224125,-2.6121989234470293,-7.36143683114298,-4.049370135443142,-0.3324573798359463,-8.097371157343456,-5.661183729947776,5.527702126969954,-5.699302942204591,-2.531411642551972,-5.025906070658031,-6.342163159650973
67716,,-0.6858104827683729,3.328203040591624,-8.059573747121439,1.0025812916035957,-5.152216203001807,-3.995802037081098,-3.858520979395265,-4.849081719122762,-2.931966700977526,6.3653544086276215,-5.256935359991244,-3.1283188780048325,-4.720258664789084,-6.314398977147762
67966,,-1.8660002164037524,1.2527810372670545,-5.177637782644543,2.2382669978865484,-3.059948072331843,-4.994896928905115,-6.911735379745324,-7.841687362599119,-5.786242631657328,2.724556026673848,-6.762856060220413,-7.317258670426757,-3.530684784979241,-9.39930256105615
68216,,-3.835697946447371,-1.5145319680435485,-2.669007280277392,-0.4133734835647615,-3.0740539117106227,-8.942543055357463,-4.256257901260328,-7.3714615501392,-8.363583483179205,3.081835102376824,-9.162114134551558,-6.054649752441086,-5.966150593367421,-7.987416912786505
68466,,-2.0276187485425243,-1.9530804623873987,-4.424870820410913,-2.283040051992129,-3.888838040707221,-6.172845036342354,-3.3956757820957257,-5.206207284764053,-5.415362342605604,2.97349189699254,-7.35305525014185,-6.024494635281831,-7.822077919972549,-7.502216300050146
68716,,-1.7445367983433675,0.8495861738832355,-7.06739189698048,0.5445384535189334,-3.9116602459634353,-5.074133849431189,-3.841104306290278,-2.7655767968328755,-6.135768125576268,0.8714501187006753,-5.348054863148793,-6.855915317887201,-9.64700867216298,-10.0137645742042
68966,,-4.294557587751039,1.7027558290027662,-5.6312001997805625,0.4236676758954761,-3.094021729387913,-4.912936143952661,-3.886938664259541,-5.97172316900399,-8.77317146589839,0.1103612445662624,-6.399108402447736,-4.424693601986314,-5.945849303350269,-7.342940801092186
69216,,-0.98314056935055,1.3975731935306277,-5.23264845366672,-2.1920128892683497,-2.925093504721032,-1.322746620058731,-4.572094849725795,-8.139959280953795,-5.550485862941046,0.3958112331251588,-6.170430672126418,-4.130316500744747,-1.8441758763895155,-4.905377881998544
69465,,-2.121926724463318,1.3882536744869758,-5.6476005843628,-3.15647339410643,-4.409792742323573,-1.1843789922567802,-3.146676137750397,-6.688751577646357,-5.980634775490277,3.013487942537798,-4.291675656248884,-3.863493392106238,-1.780408302167532,-7.658680468021426
69715,,-4.715538903886788,0.819769715457468,-8.960341967646503,-2.815166201522428,-5.575558228940755,-1.279340931893097,-2.441200284236337,-4.104562940285526,-6.285420246013072,4.8250727749072615,-6.492625916744235,-5.082938171646461,-4.972726198211369,-6.274730133188145
69965,,-5.788392744358246,1.8073162754667207,-7.543533973926486,-1.5631405987808324,-6.27699174419935,-2.8574471771916525,-1.3500520803171558,-5.351186029091823,-7.579106056948362,5.317764305158384,-10.20906783754526,-8.457645350487038,-4.385693980579566,-5.596900652220612
70215,D,-4.054513209592408,2.313412741434547,-6.6979806394670485,-2.446534799823928,-3.989800689917875,-3.6136871052313015,-1.7315543814203909,-6.433884647956117,-5.649805092257738,3.981043612031816,-7.678017091707982,-8.844978284738188,-3.3591471223029234,-7.329439895602635
70465,,-3.213168657786504,2.0065747342450786,-6.015523645868076,-4.366363467902993,-5.887633395551562,-2.092821250539619,-1.0685005843335866,-7.849411101609586,-4.572649754070628,3.0396925789501013,-5.067929511929417,-5.216195217239456,-5.081238184523195,-5.535385760436325
70715,,-2.872917149876337,1.2418453492891328,-7.6549810696553084,-0.9497014244365976,-5.573628685733375,0.5502007048943497,-1.28111923186479,-7.455284188930226,-5.321537472267586,2.6559535061593804,-3.609947413594604,-4.4625402544625175,-4.740501632952315,-5.420425018535248
70965,,-1.6722109683135733,2.1398731852243067,-6.888165132118327,2.0297436074843622,-4.890650646816352,-1.1671472197829982,-1.6023462205012642,-5.135687268584455,-2.2925535694615067,6.519284122429191,-3.2681265373466,-5.251208559226464,-4.839531935976329,-7.240444226443358
71215,,-1.679866493452641,1.336551948912953,-4.376155725218366,-0.2674108367587849,-7.703148517461706,0.6867801333806269,-2.88945286374814,-6.872990513437303,-5.80715808647177,6.130375679986022,-4.530179256492351,-3.1172531469459623,-4.428787456665965,-11.539995062561864
71464,,-3.117403138185998,-1.1025229328282289,-5.905827873091841,-3.3548859033881264,-4.209973789225632,1.0611320476698023,-1.8748302805071464,-7.450946779552754,-4.814933670658397,5.791167989550393,-4.222439836221861,-4.078170993334709,-5.188540137038076,-8.281255336250728
71714,,-1.2839457743621696,-1.658703818049705,-8.431153437710794,-1.6830373396405152,-2.949440963987266,-2.5985336134187174,-3.4111144603517314,-3.92000752940455,-2.437443479643238,4.351425617246384,-3.618774293475084,-6.490500009726931,-3.922678744889325,-4.887744858643263
71964,,-2.395663000545937,-1.910455813529818,-6.7778685170220685,-1.3840864303730605,-5.322288988632068,-3.73892424802974,-2.3146332087367534,-3.388130141425335,-0.7578667964106943,3.2274365220877077,-2.940920910256648,-4.7706650589565855,-3.863440983218837,-4.366563042566562
72214,,-2.437984241847655,-0.8651464374950463,-6.68630610028091,-3.4945661962125234,-2.625854056740388,0.5967144166646573,-3.3839285891197,-4.976609730289884,-1.952319209555192,5.898144109888866,-4.890544563283943,-3.969279918197648,-6.685618590860827,-6.807736864118051
72464,,-4.300846788840953,1.9480391792367544,-8.35492025310057,-3.965138995979144,-1.421551418750319,0.2266295855080562,-4.541295481891559,-3.575012175021465,-1.3430323521024048,5.093575662105981,-6.763762462996727,-3.2270640226303016,-10.099449862627909,-6.905547703976303
72714,,-4.925602360076363,2.339874295582705,-7.238751952151029,-1.1053336414238122,-3.4694930458916664,-3.169856656218459,-2.902405951638143,-4.853363235861453,-2.6904787317811127,4.179931336435638,-5.195773458501418,-3.423260741114382,-15.085598640210597,-6.564638151036935
72964,,-3.9917574282310286,3.6519138528262807,-5.997258511623239,-0.0439822193082082,-0.1334435595390644,-1.7472218747261306,-2.469946980607509,-7.970139989844727,-1.515297810916047,2.944817736721534,-4.032701518565213,-6.4343661101350405,-10.636235300443309,-6.124199783286501
73214,,-3.808994225623561,1.3201414415115973,-6.339418325345273,-0.4720610929391201,-2.2989665555359418,-2.0613531817282382,-2.337338518766189,-3.52927267766732,-1.4276894683441734,0.6572199619430376,-5.035853920174339,-5.517437360041261,-6.02726793092218,-6.347303437671271
73463,,-8.637971075471585,1.528017729627702,-4.621254582331047,-0.4746211439252763,-4.5418187299625,-2.1820366729385827,-4.402233632280916,-2.327809200152952,-2.8324684589707223,1.574036958259972,-6.691465432761218,-2.3042226655368028,-6.670143351062245,-0.6014606556651764
73713,,-5.901084568218003,1.5195496299389246,-4.167645377090251,-2.056425557645248,-2.812971896199075,-1.680034220823857,-8.375512894495325,-7.914841485314314,-5.7586285793161975,4.355645491868321,-5.006562927875828,-2.381233269896841,-5.848439056247997,1.1758790213921253
73963,,-2.299354798844856,-1.520753708363361,-5.042430492948236,-1.0108226806204874,-2.0367075674602013,0.4920472093075607,-7.584539864369272,-5.880780086021069,-4.469269354228674,3.697275345086197,-5.911348824380339,-5.617633359483119,-7.657360592193692,-4.950136057541889
74213,,-0.3239063657525872,0.6661017327403294,-3.152576756817925,0.9023445990955928,-3.507025145233284,0.8298030283090646,-4.865183825270357,-4.499658397331236,-2.8033679258714828,3.9442894843204046,-6.099318735786333,-6.5580560335283975,-10.28903769139134,-3.983497855298349
74463,,-1.7684266562135509,3.004213158725226,-2.094203084175521,-2.31134531429218,-1.201987338283326,-2.143573204076485,-3.8861521695187258,-5.621593423132399,-4.35091476942176,3.0774256224311367,-4.267367588708748,-4.003738378243226,-6.772283437364397,-4.508560218999858
74713,,-3.4706308085179844,1.7491279051395154,-2.781594163314687,-1.2208434396349706,-0.7388012561286632,-0.9264244963121196,-6.507890888429399,-6.807252591513398,3.016850152725363,3.1236778363436084,-4.209303821172357,-8.376932749758057,-4.939041301430827,-6.259992581022811
74963,,-3.710378396527005,-2.7616082651740963,-5.471150595507314,-3.4904443599037807,-2.379354451812605,-1.4203414828841736,-6.90288705800581,-7.127483373398897,4.673525561741871,5.960130977552125,-6.078060911550709,-10.433961850223207,-7.572949298871992,-6.935827873674013
75213,,-4.941919504047433,0.9116108705355546,-3.9684879803777298,-6.086034874271611,-5.023528288778369,-3.601531062725836,-5.757667359388485,-7.810700938972989,-3.071697681972385,8.063060611480191,-3.1403665736438424,-6.028844889084388,-4.357929565381896,-3.96932001650919
75462,,-6.204159831192804,0.8326483789155568,-3.620119789481336,-2.8017643230743188,-6.6349291699219055,-1.83006102433796,-6.554446914364704,-8.183488464847569,-4.9529715723410845,7.512952955318357,1.6790425890982283,-5.492459240275478,-3.3391249087774555,-4.641615536832596
75712,,-5.29798810147917,0.5221045340819502,-6.439749473770945,-0.2660563901780171,-5.510353584868994,0.9305319427630468,-5.762777317475162,-9.31235029263096,-4.843139550103535,2.8847805455590163,-0.971539540245782,-4.432137725581465,-4.07617142236186,-8.305456002195296
75962,,-5.7454142661577805,-2.8155127813389877,-6.491515100908006,-3.022071437903739,-5.0896179865826285,0.5347314423350671,-4.3202408713204665,-6.575233996238351,-5.60752896696669,3.3712795387420096,-6.007354520368434,-4.477259757249882,-5.670157417701138,-7.348857889869879
76212,,-3.8648553587855936,-0.8208989539555596,-5.713058093981314,-0.97928266037373,-6.933549100242503,-0.0739246061056265,-3.622026162034456,-4.771143520379713,-6.142586502592788,7.864381632533146,-7.536006903537588,-5.898651436113688,-5.2603995300080015,-7.341735055929959
76462,,-2.840033784082988,0.2895626328457561,-6.440614427554555,-0.4545215156007373,-4.935623060769025,-2.9920753350959206,-5.151877408660287,-5.591829177201547,-8.286350820317637,6.777254119455886,-4.263547571637987,-6.5082827812595205,-4.651080912388076,-8.354850671435926
76712,,-2.723675667709284,4.606225560336286,-8.541851882539081,-2.702718288141912,-3.768621143603383,-4.061240331462132,-6.228623019863528,-5.919769992621328,-4.939011876855983,5.940884623414044,-4.360931237691811,-5.340466381496983,-2.267961999092853,-10.138940987224046
76962,,-4.402887173291577,3.6814675285200953,-7.406402786806677,-4.433870349170648,-2.680443850140868,-5.428154883419783,-4.558934421512992,-7.50511104731544,-4.561583967798864,4.112049990323586,-6.092220812041125,-3.084461946414353,-5.019667861319114,-8.16548925109
77212,,-4.96010069915168,-1.6908448812627863,-3.431140456318203,-5.883068905541946,-2.616495309922508,-5.637588318038978,-3.470172070811347,-5.859439751057629,-8.575722763450322,5.322811473294847,-5.899874385222716,-1.7502308346592217,-4.070882065894833,-4.673921200739847
77461,,-2.7127385253931724,2.3150301676800127,-2.354363877656982,2.1705903199274648,-4.639322295632999,-6.131481067498033,-2.591890601791257,-5.893126429410165,-6.998733908861146,4.309986566774569,-4.179317017109893,-3.0112965549373767,-2.9147670583922225,-4.946807816218691
77711,,-4.100155405078178,7.487997695501748,-4.40755854975926,2.395132026875461,-3.3537875110018023,-3.847033029457228,-4.178597390048283,-5.405135187969479,-3.529472343261551,5.1744954807426025,-2.5687223047607843,-2.3976299098815765,-4.203607789139175,-6.774573225174171
77961,,-6.633560944772569,5.201576162030255,-6.255474940747487,-2.252308000554608,-4.536263355816489,-5.5621046417925335,-5.5754205541814095,-3.588035611629616,-4.568285645311596,4.615644347838063,-3.1118292617761267,-3.112745013976847,-3.547304145723226,-6.580200833175814
78211,,-8.899340595191008,2.225184660820883,-7.005719551867664,-1.795789153825832,-3.477051709697185,-3.648707073872417,-4.840269769113816,-4.294740456291166,-6.352526328821736,5.3250554644132695,-4.4180443497378885,-5.4605876872213,-4.594828987780897,-5.467897171499533
78461,,-3.959121790428393,-1.062475621217123,-6.852806734382655,-2.6703909232048613,-5.498095526773177,-1.8079572140059303,-5.127902234435591,-7.19430669990619,-6.631072471850604,7.343398694735104,-5.065163938181062,-6.132135452739549,-6.275789307860279,-7.882040131596675
78711,,-3.9570794337832655,-1.3696831846341544,-4.505713023280682,-3.646790707921945,-4.747557722455448,-1.4511397342587051,-3.644624306828177,-6.208961201880936,-7.043352898186679,8.464460452617356,-8.418704506284346,-5.642648535489883,-7.637390387975358,-5.143622436712243
78961,,-4.871070004658239,-3.6745001414722704,-5.435711991865283,-3.79984125516976,0.1109919200955624,-1.7613424061380183,-2.0593121843144098,-8.04651725098254,-5.682227837845867,7.783812828043297,-10.473901043205956,-5.970521297211465,-12.687321361257894,-6.507041321051188
79211,,-4.430151173277883,-1.9298292043269212,-4.843595526246099,-3.036796815941928,-1.02091339674668,-3.69958728638235,-1.3259779401431886,-7.018889041944641,-5.669060866591799,3.908312546862237,-10.199156325737016,-4.36635762336223,-6.875870881686312,-6.315969489642784
79461,,-4.811055982661713,-0.4373262310944988,-3.279363146418847,-3.8493078796826072,-4.987551586110574,-6.023671024776195,-1.770488211996541,-3.7671183813619664,-6.141511396106294,0.4715496204598718,-4.45342096897507,-2.498701449655192,-1.5468630421275833,-6.649541063542569
79710,,-5.296709858302555,-1.1724347309336869,-7.505960489843737,-4.8123478198005385,-7.12809589708827,-3.3995108735585173,-3.672822552547603,-6.639165589909135,-7.769607147288404,2.658894682221497,-2.4939540002596776,-4.749075489039028,-1.5454339931924053,-8.583688058165183
79960,,-1.9756088893221828,-1.3707291727010529,-6.00935751937137,-3.106794546874316,-6.810317760912101,-1.8717974553676728,-2.2484663186044904,-9.985784302810089,-8.737439418424897,6.426392442480744,-2.053449700442214,-1.9300900118223507,-3.055942159455354,-8.662537051965955
80210,,-1.2917188988845087,-0.206311153980126,-6.367144416878736,-1.8014443999861416,-5.164628707670902,-2.1540823781445524,-0.4009777913362755,-10.92806396684268,-6.447520289521064,6.801982930746919,-4.720371709700879,-3.1030088935696214,-1.6095516637930518,-9.306955016734078
80460,,-4.857765346485024,3.153480354884156,-6.343014654662383,-1.240464586641775,-4.7983297304748245,-3.5432399254672924,-2.560902497543782,-9.278809734342715,-5.510160992037642,2.420888661464842,-6.424142191530447,-7.882121287979862,-1.536454056267177,-9.741886451650505
80710,,-5.4268538996146445,1.6585752835047476,-6.917518040191073,-2.767825652539705,-4.432377695869114,-3.405541685817266,-9.571541053471451,-10.587361423881417,-8.173214727194608,4.220249542911642,-6.790284831831444,-10.454184414777274,-5.21226067771952,-6.697695784906897
80960,,-2.1521278296525392,0.2710445438720771,-7.731326378489314,-3.685362989836137,-2.08591191581847,-2.049481116490288,-9.76087758727121,-7.0303748539350615,-4.875453787356997,5.881797465437214,-3.965199359946583,-6.717103851618131,-6.813849763310977,-4.578660037209978
81210,,0.3225763417977844,3.0964786279062366,-5.387731055900402,-1.6926569765195691,-0.5769983950043613,-3.396100925899508,-5.188359871726503,-5.645695790345256,-3.2713475992472256,4.447662893198986,-6.784044937612116,-6.28574779102666,-4.33271839649655,-4.248868775260512
81460,,-2.1813343386840907,2.733347510405792,-5.22301540636473,-2.1179012246517708,-2.930459045632337,-1.9133660409837383,-4.971612620466185,-6.283362335322788,-5.056300682618074,1.436873607917848,-10.644783484223987,-5.791896032690974,-2.981988391229786,-6.642339947326667
81709,,-4.2670056308536255,0.519952976573831,-4.032710570629629,-1.5729072743908137,-3.850541777709217,-2.2805636519693264,-3.0588637444309423,-5.342008011338391,-4.642812634006503,1.5138741066136197,-11.518245880430502,-4.382513019628432,-3.891712850366132,-8.74195527829627
81959,,-4.063936809527671,0.1321472927712721,-5.812536067071157,-2.67479940855951,-2.4782255196013696,-0.8521620728223953,-4.555077470382672,-3.49210878313552,-2.314255335215967,2.251239692157541,-6.884139146140978,-6.20681401302725,-8.549550999873643,-7.456738959317263
82209,,-5.8197651492246845,2.1116260877204,-7.028460647008171,-1.7586474884136356,-4.449096140027217,-1.8858154270504,-4.764311642506693,-2.8888419434484627,-3.2482803326878917,4.029297200044958,-5.55884866149447,-5.120553515045557,-8.794338473458597,-5.57775951050917
82459,,-1.9097063929613696,2.9226466114455647,-7.652280137700043,-0.5202086694967306,-4.885301369143697,-5.327233908870584,-0.7392992028543389,-2.544103139546209,-6.543139658466495,4.9964237319339055,-7.143104873888988,-4.456898789688085,-4.621806747219211,-5.85287349069774
82709,,-0.1696285777814398,0.711579054268596,-7.758066265417324,0.4108905036735272,-4.292068239981159,-5.960094489354252,-2.994186598098393,-3.3583876469578744,-5.868765397572274,3.953748366661407,-7.242876209277865,-3.293335907104633,-4.637470866068693,-9.354345380114218
82959,,-1.6746357182272684,0.1411832736054375,-6.49079919433305,-0.017687492578754,-3.43133123219838,-4.036205856605034,-3.7022216031251727,-3.1753446915721604,-8.065674390113198,4.263197122388714,-6.478176317821368,-2.0663738546904744,-6.236147653786295,-10.175410712635696
83209,,-3.1896021443520297,-1.4379026546397131,-6.4778964882911065,-5.08160840100273,-5.1341119715883865,-2.4948043946773875,-3.439135407109947,-5.162523978458308,-7.746595037942818,4.750499940852332,-8.082527947121266,-2.809977810741047,-6.221986071824625,-8.484333282703073
83459,,-4.747708686196942,3.332822243939076,-7.016186301083199,-2.715412650190689,-3.351255751374667,-1.622912681806088,-5.594955158095136,-7.112519848779771,-7.905375753602188,4.11715070426585,-7.840635648845247,-5.239536005143783,-4.390381069356542,-10.910822084799552
83708,,-3.0313319933738585,3.7412341986079474,-7.442223314878991,0.5652822602460349,-0.0095006710470291,-0.2240674941846466,-3.219981245914864,-5.534362752119122,-4.867927743649211,7.909361940773961,-2.6202355083263256,-4.296048991800853,-2.0930197178543097,-11.370180615836208
83958,,-2.655965306798513,-0.8425011802325286,-8.248812529414781,-0.9905083077060992,0.4241744770566331,0.5856593619270853,1.5977892992779676,-5.040402848362131,-1.240964698414626,6.077839050798499,1.752616817478268,-4.831722716061629,-0.0740510950776694,-8.785445987450094
84208,,-4.110359317688955,-1.1493503414590054,-8.535132310765137,-6.887242396395883,-3.299623330906043,-0.454235481808647,-0.0537921672600078,-7.999775748553447,-4.308413567773364,5.494225836829047,-1.324175183222001,-6.142417446214584,-0.6224324380435354,-6.546828732421959
84458,,-2.743885949338409,-2.224480396517708,-7.721505449179359,-7.184697275513364,-7.217145038790078,-1.8175865317548776,-4.664423235721906,-4.694281699532462,-4.273340050736582,3.821152808229879,-3.710770858646853,-5.773334017636168,-2.07181347415415,-4.856095501379552
84708,,-2.360533787302823,-4.211676534317185,-8.926185568950343,-1.816078676670399,-4.375505217790925,-4.53221547201319,-5.451039461216479,-2.8325574443490344,-2.667933057814736,5.404910365385663,-1.874242874254276,-6.217320821212324,-2.709469108054382,-3.300195361018967
84958,,-6.932577581478482,-0.8259642961147019,-6.729775219669023,-0.1904774303547374,-2.931493495444266,-2.598149339022453,-7.9431124315023585,-4.88536394526426,-4.926796702257849,5.372772456424164,-4.244686824472395,-6.2245485928666175,-4.2399447283191405,-6.136693476817728
85208,,-7.248750634248806,4.419223640130146,-4.537097411288015,-2.1454679162039207,-2.2981499243712467,-1.65658058372939,-5.956838403569378,-1.5459305236034595,-1.3141963206956222,5.4668494038742645,-5.221803680822839,-3.4510892515537117,-3.953053318709199,-7.1698162318253615
85458,,-3.8240550065919625,3.266965266901175,-6.026280027068403,-3.27597973022006,-4.421610476686975,-3.6586816553486488,-4.876935316130926,-5.039566716958246,-3.736427358774635,5.450012832835396,-9.217050856810513,-1.3507660870805538,-3.938956520888565,-4.04484945753299
85707,,-4.396303745190587,-0.4962756432008339,-7.949095500998031,-3.92801117839604,-5.514807561399028,-6.378863577104966,-5.366061235616141,-10.566228678869972,-4.420394800720599,4.164772045837824,-9.671240561135678,-2.90301935166917,-5.72243831387115,-5.746403417031887
85957,,-5.7191750401828685,4.333403222465283,-5.649823518489663,-5.995696844684288,-7.117887450221111,-3.299388366614049,-6.74867566782747,-8.57971127748722,-6.090013435518259,3.5125133834550177,4.139880945571633,-4.051083276503865,-6.344266181748517,-9.310095162508087
86207,,-1.062624324614634,5.192240895015244,-5.052637951789091,-0.4054217322227524,-5.661240623141727,-0.8045847287448518,-3.730795940472229,-5.161870502714498,-6.643762470245964,5.79467933182936,6.57849870529691,-5.014749602466231,-2.6391385685407136,-8.403876588700799
86457,,-0.7456474184186811,0.9468386327191196,-6.97760638350564,-0.4215952613579138,-3.659567744199109,-4.801031211358408,-2.636892280248847,-3.4683388676105062,-3.082881994044928,4.02628445642392,-1.3487195616327985,-2.6392508054960246,-1.8336393965001656,-3.897286582311122
86707,,-0.9400788625557068,-0.0335645894671966,-4.774658866144909,-2.302714663183432,-4.351730732074356,-4.365618792350844,-1.5674975767640382,-2.666288423358244,-0.8668678947644238,2.178181657520493,-4.834999266642191,-0.0023986313665701,-3.4701067716998137,-0.5048187016281431
86957,,-1.8112808568135408,0.5642830347803132,-5.017843007253751,-4.789292767897454,-6.376291820125588,-5.467888283799711,-1.7565699410083446,-4.4537412487788615,-4.012140365971842,-0.6646929364052778,-6.781344997226448,-4.364023053500031,-6.2116949346719625,-2.7542005896656434
87207,,-2.0216989539758723,-1.7699197349763311,-5.151768430464829,-7.255968804695212,-5.226006056585447,-7.677974648739184,-4.122263395651748,-4.64404044296892,-3.981913454215013,2.7910039080199884,-7.342974499792505,-7.338963130808816,-4.568525757744998,-7.015969058331512
87457,,-2.144400864717114,-0.2778238408452804,-5.869303121188692,-6.268575993452718,-6.053354775156042,-8.196048965688224,-4.475216531110727,-5.526738411603321,-3.9570903538610014,5.045123714932212,-3.9426376958437,-7.870920660664757,-3.2940422377550966,-8.121225972739257
87706,,-1.7931530858161238,2.220014989979581,-4.299028219380874,-2.5261152490328658,-4.003096346926166,-3.5326066771978177,-2.81888058282739,-2.390626347624812,-2.291270853840604,6.761854313387366,-4.08775031923665,-6.46754678543564,-2.68294347028402,-7.284920446047229
87956,,-2.5612632718490773,4.850194305655701,-6.445909282630433,0.3955914638737734,-2.9529907625848937,-0.1478948369762653,-2.830666072904093,-6.114762851441124,-6.016534589243879,7.28238683373706,-6.0397327229050575,-5.788595058889708,-6.0158459096774655,-7.765422004297912
88206,,-1.9116223957474103,4.088275290709944,-8.700230839752429,-1.2295864332448885,-3.4996393970038926,-0.4596710466162667,-5.963777622496444,-7.51408238670888,-9.084003420698185,6.040970179323977,-3.574767645692729,-6.794789652151456,-4.8226219575538085,-10.178133957299258
88456,,-0.0207526375540455,2.92305497869172,-8.519636514938297,-1.6123567008065145,-4.458206044202184,-4.554654859161735,-2.055114340598084,-4.069670104813151,-5.096433008118253,9.050676629708228,-4.737635650266409,-8.039837195597592,-5.173122731327895,-6.122712038182666
88706,,-2.48476963863416,1.013853800228502,-8.05957049059508,-5.031200702188594,-3.373518499147475,-6.296172242287876,-3.211263663717232,-3.4483706527171574,-5.501454359545765,7.009678403357631,-6.040749475486623,-9.50410315999055,-3.39925015675043,-7.3108835517984785
88956,,-5.050606354791764,-0.7065597297079222,-7.262035139844132,-5.031239654015902,-2.52338657650248,-3.875472644003593,-4.317677534233011,-3.2178503466026767,-6.532748539650665,4.815011218944028,-6.924703338027185,-4.52863187022349,-5.471469131505011,-6.996888052068818
89206,,-4.278628259470716,-0.1168326142405755,-8.135064173321025,-3.6333669612695614,-2.320086090176944,-0.8767517994286934,-5.221567935018234,-6.6839366148302695,-6.672948392751971,5.56659465839031,-8.15720791022706,-3.549962822366519,-3.4749992399368947,-7.774267773996044
89456,,-5.186762346748324,-1.9582300934372896,-10.434750682898455,5.797367321874843,-4.2043203455544855,-1.1836804033608344,-3.2681218516462813,-7.571294878021744,-4.723270284262623,4.25296360734569,-6.821870488814893,-4.212992902985562,-3.661603170954101,-9.467988537615607
89705,,-5.269150014432144,1.2693277497705044,-9.614157467883812,7.554731239098553,-5.870186141804177,-0.5500739790789383,-5.851915918033475,-7.352264823077479,-5.195624322865619,4.647265775359148,-6.398029311076392,-4.216293173843537,-7.190312277810165,-7.815502808368425
89955,D2,-5.240933860338195,3.980373132037727,-10.197871053983365,0.0134393195672131,-3.711735441274057,0.6663003248631799,-3.447944773958515,-4.093494591143323,-3.6510057910460496,6.426138470961387,-5.141325806020054,-4.963461851149684,-6.254135742129242,-7.523732532055256
90205,,-5.085077612955039,-0.6634583552725226,-11.333297827535482,-1.9240115623887264,-5.449524076618316,-1.3977120347814136,0.4882752435702264,-3.572250735907199,-1.772717502570066,4.347349887428866,-4.186085471098947,-4.249764869118413,-5.182458428837303,-8.061133461641303
90455,,-4.906138104054685,-1.7052102503203113,-10.481884251027903,-2.4988109062705792,-6.314394418864308,0.3554051050502006,-0.5948231930929977,-5.59636779967724,-6.095073847915674,7.700045881302094,-2.801796756574647,-4.064201306978029,-5.215575599825049,-7.74282129643669
90705,,-2.994680486406888,-0.5367068061614487,-8.39174118319718,-1.6470107699205183,-5.006125047863742,3.066743726974462,-4.500064679435973,-10.541408666366666,-12.856497431675308,9.7226129120665,-4.937541199197551,-4.652859632286285,-6.271211808747284,-6.8711908059765845
90955,,-1.9910203248568317,0.2422283059929828,-7.664540090929859,-1.8583949235984725,-1.7559844963254847,1.3786705107160324,-4.044221223047376,-8.676892813429426,-8.033481367255193,10.581530212962187,-6.706754232071486,-4.950143247576366,-6.341772358701143,-8.240087647758585
91205,,-4.2021711627610365,-2.8488009683217363,-7.4981214767999615,-3.6437877873869184,-0.3106345993820289,0.2324293239128456,-2.0298521865700048,-6.944319748464234,-6.7593402036151575,10.756250878156164,-6.510875812239104,-5.258946785261043,-6.422807877463201,-11.09815777778033
91455,,-1.8122196052623685,0.7099926415271935,-9.55268093342003,-1.188181627961715,-1.7410824765765556,-1.470694872627785,-1.592162922360849,-4.828433847781469,-6.7268618578586,6.114159235942242,-8.784357428094967,-5.734787034581103,-8.56796759855502,-10.192655938017188
91704,,-1.9744664238616292,0.7174721814863392,-8.424116106295013,-4.0671957077163565,-3.704431610446198,-0.2494747101397293,-3.2378510992375893,-4.839668402738477,-5.2055228158761135,4.35738551905559,-6.489786801422003,-8.018655613465363,-4.277108739180883,-7.77397521162065
91954,,-4.678966131906704,-2.476865870234625,-5.551546037247219,-4.41606382208388,-3.17049865574276,4.0009905151576906,-5.672642666264962,-3.384414979027151,-2.639192787458179,6.8832346609362585,-5.966155775145281,-8.91156382622337,-0.935101775709401,-8.67148433350925
92204,,-4.216082741320345,-2.964099961521006,-6.388091524333492,-1.0234084887934942,-3.903923102439839,2.2652824697472305,-3.4014147227957023,-4.93625406660631,-3.387113004681583,5.51576229504904,-5.07307555366242,-5.680465722319196,-0.7994961786474473,-9.697614657852846
92454,,-2.2519084397418143,-2.699464411686909,-7.790584206649896,1.5612577904850202,-4.207484714490578,-0.0187256653804083,-1.8683495655476556,-5.365847205536767,-2.6580473695936573,5.168717552803317,-4.0943161196944295,-4.611399387553581,-4.0655235321838,-7.467219143316159
92704,,-2.2122150542761925,-1.7320534840385629,-3.6872944039946383,-2.3479758864104565,-5.660950673993009,0.1511503191096513,-2.923096818988216,-3.228034845694493,-1.314046882848143,7.248573054213258,-0.4536551214959861,-5.261043750077916,-6.822095384742343,-8.93220132275051
92954,,-4.28569577939337,-1.9414203883332035,-4.152198541837825,-4.179085838980912,-4.042057448705655,-0.9718504261283774,-1.5848735279987534,-4.273713349977778,-1.626113844585719,9.477825547044596,1.5455555170623505,-9.372247374802347,-7.080321134421224,-9.45920912882488
93204,,-3.686820921301599,3.8999524828305248,-5.947385452380662,-3.258279119538454,-3.9057837689192407,0.4235789771703579,-1.167619181651737,-3.987417748597891,-3.72640375751184,9.3153943419027,-3.7126351326148943,-5.3514499492183445,-3.529144847909414,-5.686027953535897
93454,,-3.4006797523089243,3.492919036391016,-7.724961101543714,-2.873837436309712,-6.878584248509066,-0.004786591612255,-3.3873205758997416,-2.865836855297549,-3.3939345675487025,10.14205790798615,-4.381564544178676,-3.5185106156735206,-3.90648171483829,-5.665415068212118
93703,,-2.483252690075825,0.838279540545387,-9.012386017216429,-7.300751912907365,-5.864080471348987,0.375254683013591,-0.3963277481630947,-3.1461694532488367,-3.535539020914994,9.785018184135334,-4.223087059704699,-6.4590439876631365,-5.2302754468353205,-4.824498089427425
93953,,-4.235705734483295,1.1696990899109396,-7.711743519018954,-3.686484534109928,-2.555755612805977,2.0289874234347334,-3.194545055671129,-3.479696199693717,-5.106575304493976,7.626205795797897,-6.629062377614583,-6.32720215196647,-2.087506549403594,-5.916662390363022
94203,,-5.570295607273068,1.3365788884994183,-5.2084728328770655,-2.528325435040004,-3.171515629120286,0.6893878866658802,-3.184600517728594,-6.627309261814061,-5.110902033468494,7.892128982747904,1.881051162734288,-5.901987787222621,-4.152410449882716,-6.345524630740075
94453,,-4.006209029367719,0.7683288810345694,-4.736252637223071,-4.647931130184543,-3.029698534561521,0.9286756339714476,-2.1295574642009374,-6.339290637530267,-7.403892826695828,7.456689505562052,2.317345289322285,-5.665717262968014,-7.652375344999914,-4.2755676028557
94703,,-2.3099562340727138,3.386540975400536,-7.049646116219993,-2.338494994515368,-5.985140125267057,1.085383145561085,-5.244719002008599,-5.760697947809852,-5.818326095236097,7.794428278878172,-6.0277363722039015,-7.3061243770037185,-8.532360530288788,-7.506123981079439
94953,,-2.3203751220327624,4.223305916767447,-9.38928759583314,-2.360344823968985,-6.234449126411487,-0.6885731138760749,-5.92174920571818,-5.483210926226613,-6.719184904283169,5.559961339541793,-9.494532169075516,-9.440482610406775,-4.580010090957365,-8.872493545537388
95203,,-1.4978929520547486,5.060928926825243,-8.890889382756368,-4.824499210273247,-6.102565353488738,-0.4529121788915335,-1.6379421327408183,-3.5600698529858987,-5.346762206619048,5.795269656237048,-5.012445072341655,-4.709599408535006,-4.696416814161459,-6.83412016057265
95453,,-3.949041362470596,4.317926115060989,-7.838334789626394,-4.616664360731998,-3.427736386722582,0.4909385022887543,-1.6047878889312404,-3.435130810986569,-2.861422228248387,5.812351706135336,-1.1211212530227146,-1.2756819749486523,-4.558108828130701,-7.852451205442028
95702,,-2.1419078948636203,1.1116270493383504,-8.810312260732706,-2.6871970273709733,-0.3437390146588159,1.744836007808304,0.9904818939069024,-1.4020690705012155,-1.881697983062187,2.261237989095885,-3.447294225335505,-3.1945238172877093,-2.5426076904113994,-6.02070368183647
95952,,-1.5773844947065734,1.7689215082992338,-9.871333231457353,-2.9672944678917386,0.7571508929900854,0.5936944218208458,0.2607281107904637,-4.492593625937574,-3.680211100734722,1.692545622817275,-7.482994225421247,-6.925652014837109,-2.39366047473198,-8.096730969409704
96202,,-2.570634882322623,5.1654506188996905,-8.823255042095862,-0.9172471916654794,-0.9166713892827116,1.033191664047299,-5.836851696191148,-7.8619819637041,-4.9449083749247045,3.5843792529596814,-4.545994398958131,-6.263331437391283,-4.152863684063011,-10.60094621774516
96452,,-2.498467755036605,5.8436742493968055,-6.135956907847177,-1.8438038250552031,-0.7085199202485609,-2.2310649050102063,-3.1905102184445817,-1.9655965604673529,-2.4587557415629515,6.170672125270929,-1.5224844610787565,-3.8235211090454135,-6.737850858959185,-8.600751325655509
96702,,-4.157043676227058,2.040263311299047,-4.959601708875935,-2.474260477343861,-0.0508902558078122,-0.5253411039133269,-0.3188919343128928,-0.5560301031708317,-0.166694795100035,7.679057675699092,-2.89601449749107,-2.458700452432848,-3.899049427589541,-7.980989398400919
96952,,-3.5496662432355146,-0.8804291900939316,-6.13864517072577,-2.320496966875281,0.180372528499968,-0.8589988143820694,-3.0370597462402857,-3.6062718678813392,-3.331468755047286,6.670895802935782,-4.522626534508035,-1.421218738377388,-2.309014604648264,-7.248046118471638
97202,,-4.474330536066383,-0.9512087476836074,-3.96878232839178,-2.1684517135908754,-0.9398551850330362,-3.209542200378676,-3.929178066092533,-2.980700883334064,-4.714116055013414,4.268496614569983,-6.540913277945698,-3.4650412170977507,-4.061626684237786,-8.405976358970303
97452,,-7.314512664102645,1.2724823274089734,-4.434270230490452,-0.994127946705866,-0.086362668560873,1.2762960621907171,-1.867902797318322,-2.946648590546817,-6.03710604798836,7.657148905573239,-9.160580426428938,-4.6305929850819085,-6.777069868796346,-7.213616797077224
97701,,-4.651775299007694,-0.1584220535392591,-6.658969721647035,-3.60500303760864,-1.7498331656871426,5.221046111147158,-2.108298498733549,-3.1005722047445534,-5.452869066785717,10.283195611193054,-8.70550549312855,-5.928989972840599,-5.578031009568438,-5.650662969821049
97951,,1.0909122661854949,1.9813717620379028,-3.2919530652434696,-1.7460952861333965,-0.3077147719387236,2.600901232186019,-3.939122649431322,-3.3853490827800528,-2.8416284847403563,8.043721938903715,-2.1908985179070477,-0.3579970019860934,-3.041283538146252,-3.293920606942632
98201,,2.340886972653133,3.848674258763952,-3.812930089644626,-2.7263714673647192,-0.9295903443675936,0.1704921411214939,-1.7184935258937484,-4.470939362101612,-5.627771956690701,6.572660076148958,-1.1388798137243878,0.3055880375868532,-2.951048424117764,-4.006958032890458
98451,,-4.862836240870666,2.442186367261121,-8.421541868232294,-3.516895145472796,-1.821442787719695,-1.5090685706157123,-2.063593105637473,-7.3847475805119505,-6.456996716428593,7.936692658601023,-1.2794255544269912,-4.92615787428768,-6.859529739729911,-6.373097228679018
98701,,-4.411926180759802,5.223729545884331,-8.337343007742477,-2.9919054707876613,-5.345353880291976,-0.8820048825845312,-2.3822816356019056,-6.977125196034885,-3.954756875316617,8.598034051957326,-0.2287289759985035,-4.464242619730789,-7.114722046952191,-6.077660478045414
98951,,-4.302109853422876,1.540728640444268,-10.302919265816566,-4.87784644326171,-4.851260181301008,1.8248116373825043,-2.114494509849921,-3.2237432331284683,-1.1850571270122894,7.923405423627548,-5.12700865897328,-4.668019147292785,-4.5388681887073705,-6.654941930489247
99201,,-4.145383999937266,0.5821238027353243,-5.6597582310384285,-3.999453410253717,-4.564825228418789,0.6231932198840443,-2.122505819043172,-3.4866733138979638,-2.0878641260454813,5.520337391706727,-8.135068877368388,-3.47797004841941,-6.518733119112513,-7.150994780907972
99451,,-4.0453559201685865,0.2303147756680495,-3.44116810178838,-5.693209417354871,-5.6004214098383,-6.650990228965688,-1.2431757002539654,-6.1584277849709546,-6.129759740137262,6.048916813807384,-5.525353784995487,-4.267239386655209,-6.346055033233812,-5.528859574756555
99700,,-2.6912465399679104,1.1386891980569436,-5.198869228885363,-7.350452671245761,-2.0644809812329123,-2.396848020631287,-1.8491558464415696,-6.519799339325139,-6.684908836424809,6.295050142573322,-7.675120458973565,-4.865783145989251,-9.27235484291576,-5.052440477023048
99950,,-7.009034448983734,0.7909383626609674,-7.330992297419801,-4.276725496565339,-2.040371636966535,2.229190169032408,-3.263306734406312,-7.915505351886542,-7.191213237428196,5.529593672019724,-11.558685984911468,-5.102590981397136,-6.809360066589136,-5.838357094785984
100200,,-3.5786843792716283,-2.0664260156124614,-9.827659944546872,-1.0326481877826663,-5.014712425396674,-0.2611146329326541,-2.972499661582,-7.274731632245096,-6.617339639327517,4.169745748259597,-10.84779392225145,-5.196154622995023,-1.4950672711341086,-5.8230330199726925
100450,,-3.087563304577809,-0.9854264981158548,-10.59385295962814,-0.8327809450548616,-5.398217821240382,-1.9318234400677348,-1.7191890781629864,-5.807789550139415,-7.619486813819781,1.975187199872697,-6.810204583842822,-5.283761689270127,-5.088064238010508,-7.152757448832444
100700,,-3.053967731716112,2.2578066437812945,-10.34967503994254,-4.4762620183711626,-3.2500861573227087,-0.5943229160328235,-5.349620501745449,-8.249248944060469,-6.501855186478051,4.583890568665723,-7.898461880186045,-4.587083807500906,-5.16526543738984,-8.435883920156018
100950,,-4.0076282701301045,0.514965095079905,-8.91828669813444,-5.807880443127347,-5.911259059395558,-0.9315115959369198,-6.533696212408431,-7.733188162552324,-8.760549908821993,4.569542621224655,-6.946449117813989,-3.769246142099031,-7.0337664992348605,-6.909397029741346
101200,,-3.3543718745284066,-0.9684615441742866,-7.924000841587322,-5.7967599890352215,-3.0078749857661577,0.3588010165074724,-4.237925598384498,-7.24802918723586,-8.62125754047421,4.859581345773892,-3.087415917350252,-2.82706489259382,-9.639588346314936,-7.610142394805263
101450,,-3.4943879403535725,-1.8423608824315587,-4.372934650705345,-6.222841114687297,-1.6067697891929735,1.8204483451108988,-1.9231210550773032,-8.5042307126382,-6.172940715419998,3.4270287782784834,-4.868542922783247,-3.117329788845,-10.825693889454374,-5.816703220207756
101699,,-5.021272523874421,-3.5789916098314603,-3.54219693553228,-3.718456087542327,-0.6274476233143327,1.2485596070378375,0.3870571766838473,-7.479334624193115,-5.568390219691447,5.714196691734779,-6.093288687599074,-3.079824668745679,-7.556656778767559,-5.429080999093314
101949,,-4.325974127598999,-1.29699300078146,-6.548828682335649,-3.2823544549978085,-4.009560365145232,0.5294304709832285,-0.8105412631376108,-5.242922316436961,-3.4463439139357392,5.577399176065891,-4.322503500756256,-4.326401641596672,-4.928488466198308,-5.351929263283085
102199,,-4.099010529699281,1.7326881563326102,-8.256229770483754,-4.0059162260926575,-3.481400670641537,0.7527695267762735,-2.12668781206832,-5.21896438555833,-1.9701637970182344,6.190091679460211,-1.8499691423240567,-4.019087769263956,-7.930681993705464,-6.724049770053318
102449,,-5.4776998238392185,1.412828255864648,-6.339458711333078,-2.815600277206043,-0.7172426602851661,-1.0477263102176952,-1.036448777680916,-5.994743944350581,0.1440916109117921,6.632971114981828,-1.6773268857721575,-3.737959481100484,-8.83737795604038,-7.203504246834102
102699,,-3.869433452710128,1.519381809605388,-4.286240813290806,-3.599916321650701,-1.8155917641322032,-1.1648247028703458,-1.9980467905709745,-5.394810928212378,-2.501711564948826,4.904151640142185,-5.986835473625073,-5.084401694784559,-5.760106306756515,-6.712466581161561
102949,,-5.187778598172068,2.8375946976657884,-6.914163193740506,-4.003785349360453,-2.775791139994188,-2.961815171457433,-2.947563831933624,-6.74207870056104,-6.49839637825031,4.829860518939004,-3.935609893787212,-4.534313455789768,-4.277044136253947,-6.690904402421144
103199,,-5.196334893511311,2.961772801527755,-8.4394825000767,-0.1255093153009128,-0.4955708977510089,-1.454481513750706,-6.452091429554311,-7.1925128753830325,-3.6694098911447215,8.14429034359273,-5.004000776676442,-4.804552720726201,-5.711858584392598,-7.727589979110654
103449,,-0.6268171818924653,1.174138847638662,-5.423429978017484,1.3341141773316714,0.6834708394655714,0.7122103554888872,-4.8439522314390295,-5.772039794890242,-4.700583491034199,11.04760860268006,-3.5848189957670997,-3.053238790478804,-5.538365166009531,-7.96649380987987
103698,,-0.8175126454701366,0.1588698926156414,-6.241645799834707,0.6407129060330551,-1.02765478833847,-1.031578501050407,-5.669692772887014,-7.350939739103437,-7.074492071126619,8.989121241761035,-5.14772449448177,-3.5022409593975845,-5.180632095965239,-8.599661230275983
103948,,-1.615414364864607,4.07839181058451,-5.071607649739245,1.025423641551194,-0.966670060491594,0.95603181593988,-8.62376714444441,-8.621848342166945,-7.772808194974089,9.208712035870692,-4.623817516074825,-2.955451502441726,-4.070455378892045,-8.478890826496174
104198,,-3.4657267902757627,-0.256028676994183,-5.7809950630441485,-3.5620266173440163,-1.8742173974852403,0.1226323537234077,-4.688809877490849,-8.69300722798317,-6.327173966907224,7.254896791327326,-6.33100220381368,-2.661463239635852,-4.539147537465978,-8.711242698434024
104448,,-6.114715082546919,-0.3406831960823104,-7.452800860258364,-4.764431948702737,-2.8652612887358506,-0.3693759966353693,-4.124032360406554,-6.596089132277314,-5.85030623963862,4.22891642625143,-6.419656371736582,-5.338840857814857,-6.355780323125119,-8.382137596936975
104698,,-5.287878121695862,1.6386521620930805,-4.588286809901628,-3.078692542589211,-4.883662392831866,-2.7062117355926,-2.0541515343800105,-3.0569720514954755,-2.462699857364097,5.709597910718357,-3.397728679974999,-7.118891320359885,-4.4547989719742045,-9.375550788823237
104948,,-3.469201333341707,0.5513470632394374,-3.926435340070826,0.382850238693763,-5.721729504089813,-3.561382716852424,-3.2720152284653388,-4.105957867535351,-2.9891653324322376,7.619861305245226,-3.986107312362221,-6.737811129871837,-2.6441558161412786,-5.678804246054573
105198,,-5.148934328378757,5.222453069445407,-5.232340052844233,0.3999566243190248,-4.2460982038456505,-2.1042218329232654,-5.6158484866192016,-5.727677243121121,-3.263774966196829,7.778467211552375,-4.095300790037579,-4.158873019589075,-4.824675895275347,-5.415719232601032
105448,,-3.530361283906469,4.548205925716698,-7.566631407699976,-3.0776119229971464,-3.166152720982592,-1.4342219919554886,-4.190741632410288,-4.521820757456806,-2.464696259399052,6.632194646709615,-3.3202807517899107,-6.728844282479372,-4.883344984959185,-3.873601671914936
105697,,-4.294506294590178,1.4489520729034575,-10.103330479899668,-3.608671963558639,-2.7260040284344678,-2.99545559386642,-2.335455851932804,-3.144849533853998,-2.045136000271869,1.997926727332961,-6.153494020688783,-7.279497865792022,-6.858283908974299,-4.333210519401156
105947,,-6.100599540912532,-1.1316536705099711,-7.710547597868671,-3.007200735558185,-2.399066296184777,-3.3307675996568955,1.7895363751891769,-2.6034353818969667,-0.4932054863963492,4.528569496369313,-5.365391079887062,-6.362291493493993,-5.812127047659381,-4.257886814515124
106197,,-6.373799702014475,-0.3268035859296664,-5.826091996290279,-1.852701982741892,-6.586298765006937,-4.019877330635819,-1.3353995893454094,-7.980137671195903,-3.094999144058728,6.584867327317134,-5.308804396713549,-5.3114901766561085,-3.0046235261311107,-4.747542545521176
106447,,-3.9825432835599206,2.7053013430950354,-5.931878031559008,-4.702665487998281,-6.3621637076776985,-3.8828392958422295,-4.72816102969268,-7.524103416923815,-5.10880766027396,9.36318857753945,-4.87520724038128,-4.263601036212793,-1.8875548930465151,-7.150771579990709
106697,,-2.170587835651156,1.285893372493477,-5.900158395279442,-5.996224067356183,-5.912242716303846,-2.358943441998697,-6.498247317859176,-6.63812202160499,-6.945338116391002,10.228883183725747,-6.615873504876593,-6.481382241644818,-4.797702437623986,-6.84530894370703
106947,,-2.3715104266935585,1.7052531024699722,-5.139071608875206,-4.86480150734005,-4.539055929303438,-2.612404635644223,-3.451218001723636,-4.432125178577255,-7.402538140999613,6.560663151102619,-6.529682589227496,-8.320297519968861,-5.320092660266593,-5.457142826228197
107197,,-4.248723887101157,1.40093947267285,-4.271630923315854,-2.765272729570744,-3.984175157476428,-3.099649518554074,-4.108400786007364,-5.436271337301247,-8.279701776325549,4.131989021702818,-5.153658253213457,-10.50328973996548,-5.134199545307039,-7.076025582842634
107447,,-7.0934274492175575,0.5146059951399646,-4.000750763875366,-3.563680494171328,-3.5313949395730653,-2.223634167509857,-4.01145533568685,-9.48550841100359,-10.279658197734983,5.000552331283156,-7.4848362289939665,-6.368710033390229,-5.684625252994936,-10.964626257682252
107696,,-6.1600278730054825,0.002056518251466,-5.533233829533715,-3.1766648556101167,-4.40240827072042,-0.6964656728983716,-3.8211648333113457,-5.070992890010787,-8.257256195596158,4.996038040858572,-8.17426821441091,-5.961041235947088,-3.578323296198403,-10.948507999971484
107946,,-6.708289012396326,2.733829563683688,-4.964703406314273,-3.3670833134657,-5.549631179701185,0.1392328838323595,-3.846124617489693,-4.172845262761769,-3.428433972294357,3.493719893602411,-5.873316203470665,-8.615131207869219,-2.649932417205892,-11.726146002321023
108196,,-5.583463527717326,1.9307731069467635,-6.359478369664928,-0.3778640554340244,-4.826768627878909,-0.7923413109542161,-2.4927552050978483,-4.804226412594356,-2.627951903927142,5.317849361306416,-4.09853372605231,-6.789759804717792,-6.066741051110919,-9.103903783546649
108446,,-4.569371582936486,2.987744807448798,-4.918258536111973,-1.26057881915193,-3.407917282929124,-2.8488882263574333,-2.621255577919548,-6.310486444178419,-3.918966101927608,6.9795845302691095,-5.590972878517681,-8.001496334887703,-3.1327597679309265,-7.0192911580632975
108696,X,-5.717881786292959,2.5791820318803858,-8.855102838415354,-2.965504274537332,-3.6539730400708734,-3.437706321044799,-1.503044880671818,-5.640859058481496,-2.9433405449293537,4.518973008941531,-8.662665039854435,-7.819774980752053,-4.32724126697034,-8.585582188696248
108946,,-1.8821331828165104,5.437048664798353,-6.500520148462932,-2.7283354104054958,-4.033924845813613,-3.63643503747073,-0.8459914475961914,-4.862897131878714,-3.958668622381628,4.232799472306176,-9.657497274191885,-4.473252289869127,-3.2675503106756127,-4.118025816272686
109196,,-2.323366887428238,3.256083488092179,-3.2248201938450194,-1.14103392599093,-0.5371754155936306,-0.9628166891913787,-0.6780263023525037,-5.097703453742607,-3.55408271119129,7.470148473432431,-4.951380649084459,-3.22698650302379,-5.550891838070131,-3.3909424160372854
