timecode,event,eeg.af3,eeg.f7,eeg.f3,eeg.fc5,eeg.t7,eeg.p7,eeg.o1,eeg.o2,eeg.p8,eeg.t8,eeg.fc6,eeg.f4,eeg.f8,eeg.af4
0,,-8.581995949287407,2.403941216646099,-6.524088070356852,-3.250975738582172,-2.6451295666618133,-3.560545675114554,-1.028812949599971,-7.006648691602591,-4.713505213166051,-1.3035491756994777,-1.432595726102195,-4.396448491512716,-3.660237015074955,-3.336586952628282
250,,-6.302015415874194,-0.096402258812448,-9.692441610551516,4.497658967468045,-2.6127300692546607,-2.184391552915435,-2.622708519000069,-7.452840209327745,-6.1788148639576255,-1.2130179810409434,-0.8438857908147723,-5.66380646222963,-4.235567437787434,-2.721070283578987
500,,-5.386327993202928,0.9579238867500164,-9.557318263181696,3.389922040539588,-1.8992221498806283,-1.7374315965482665,-3.388599781461294,-5.251633669940175,-5.226217154795756,0.9607085664674576,0.1550391922168572,-4.718463415395515,-3.3188603784386013,-1.9555787907317308
750,,-8.208821231912637,0.4792943627742621,-11.291701641725457,-4.714758043765942,0.9708162695494992,-5.399587214891688,-4.06123913153165,-6.997883282541856,-5.571752187716175,0.6805958910618328,0.4049589752300835,-2.456747310816379,-4.515600592854032,-0.8959786244734365
1000,,-8.675017603196743,-1.147377182333003,-9.405727896758766,-4.877931215625983,-0.8448561521220785,-6.74122609017344,-2.9505876245676124,-4.325324125245763,-2.8728400218178987,-3.2199208455937063,0.1001223223254363,-1.8264090241563988,-5.072716400137719,-0.050326108315856
1249,,-7.675818533430664,-2.9152236135321266,-9.41291234608875,-4.735750884424419,-4.616816011320224,-7.974761649533688,-7.175382061205981,-7.097768626906783,-4.872779834299019,-6.020569372789005,-3.151398559935445,-5.347466396959214,-6.904638458341347,-5.87776977827509
1499,,-7.105139769005515,-3.4478018423173653,-15.43233958435656,-4.715915388374774,-4.203134907056973,-5.450576035977093,-5.880778215145264,-8.044235077262572,-4.006815017093476,-4.9337648936714125,-1.6199137377816306,-4.217362147594313,-5.801450396703073,-3.184716819140692
1749,,-7.809235636548083,-4.511490281267991,-16.35139668496148,-7.565264516568096,-5.436416314755136,-4.389005397297304,-5.904571541538309,-5.0843825225313335,-2.8280664188103843,-1.7378933473176352,-4.791687208143739,-6.056383446591317,-5.999099210164776,-4.031244328029643
1999,,-9.364285588157488,-3.4472825671098706,-11.04817958279786,-8.163664331555387,-5.241001288828352,-4.606237961120993,-3.20175683280773,-4.464654376284084,-2.4303834416880084,-2.8705784924029643,-7.219959731489016,-7.3119370846533105,-4.473812732023047,-6.156338296911401
2249,,-9.869622054069488,-3.042875373232253,-10.29080862477354,-10.793726437907036,-3.624656994664047,-3.703364093842846,-2.371936117680545,-6.784845851087633,-2.9313452897132573,-5.450631924119229,-5.500648176987212,-8.848403002389137,-2.0573236585139854,-2.3760359857567157
2499,,-12.157976736066878,-2.7657760626313586,-11.770206222262694,-6.645214280406612,-4.028021248738731,-6.434250635458882,-4.809619270581962,-5.933575739847062,-4.539565189950956,-5.751654152297707,-2.7012842925888614,-4.033721022859675,-5.289600626139465,-0.8963333563398399
2749,,-8.741155066606147,-2.34198476837354,-10.637221034051477,-4.682109628068718,-3.5994816216877474,-6.753582179702171,-4.504992246548948,-7.373162999675041,-7.568365995529136,-4.858168028042816,-1.3623958185186704,-5.204018054728282,-5.365675167134402,-0.8162614127265561
2999,,-8.423698852728869,-1.640443857997624,-10.292986657617831,-6.497886092615386,-3.0504533533963074,-6.125216010269402,-5.110067327677421,-9.63851498103374,-5.0228062255689405,-6.370678070714381,-4.399354670534966,-6.854740687635187,-4.755323719951042,-0.1763895703594036
3248,,-11.301687623313809,-6.105151409312405,-9.531120465370524,-1.2152788789225464,-6.816959386849431,-2.021966291998204,-4.003118576697576,-3.130746759957725,-4.852334228338531,-2.629106910356601,-9.62456188332836,-8.179249372542115,-4.326877276391384,-1.5781415955097842
3498,,-7.456162178306807,-3.149013471911504,-9.10396812143715,5.247689244328494,-7.470937976110762,-3.239878856830629,-4.970869807289423,-4.883226547972641,-6.90050137776161,1.0816086766342032,-4.812812718650065,-8.571231217424252,-2.225983522994936,-5.467109677120469
3748,,-6.122813066527753,2.637776329600981,-8.90350971504547,8.295491075463305,-6.200343014672301,-6.715704254144965,-7.4624531044637,-4.360816542058815,-4.347626266641954,0.1499032356091523,-3.91155301583298,-6.58219930229275,-1.0149484254679737,-2.403959559874264
3998,,-7.033244819246624,3.534389920814624,-7.363129973883876,2.5181050364828184,-5.771368368939721,-6.869282222262818,-7.491254633859102,-1.8785807754982908,-3.587760538555626,1.5751937709435946,-4.989840860991096,-7.202364760587833,-2.282902529301519,-1.8522409952082524
4248,,-6.599407372689049,-0.9068116529360256,-10.96049024136339,-3.750202932551333,-2.808575176562797,-8.723267818280663,-7.405510888425515,-4.650036640030906,-3.990408937704084,-0.8150931869457432,-2.767073791692673,-9.012500189643882,-5.46573167640144,-5.138710781336135
4498,,-5.322283182757563,-0.5399249007889688,-15.112123277130609,-4.833849980607733,-2.4186939015543154,-7.201816886599127,-6.783109110011223,-9.269431782434369,-3.223641890121864,-1.2576565205216028,-1.0963606488256428,-6.937889749422217,-8.169377910159087,-5.024098006086152
4748,,-5.724004816058773,1.5471322704538926,-14.658799173118222,-3.4210949512098434,-3.698557835721093,-7.217177202996062,-5.369865137208229,-6.180059464773391,-3.507944550185018,-0.4955627943751372,-0.2594437010134936,-5.819423110937919,-6.781125327966234,-1.8371008951541372
4998,,-6.92972069132106,0.0892653963128995,-14.526400742489685,4.463814518696189,-4.639755802996611,-6.0313394607615365,-4.000005478600947,-6.753043030482347,-4.740716364469338,-1.7856578000187158,-1.8528799087900056,-3.8582124487740743,-2.091795900262335,-5.434668631076499
5247,,-9.330424564080737,-3.0516702906499216,-12.75653116021865,1.713048508421038,-5.056091569478701,-8.658977173941015,-3.818999294225301,-7.160075223480141,-4.1968797622898855,-4.052445722555028,-4.5256457700011925,-6.605963941057915,-2.1237585000615478,-7.246423577320156
5497,,-8.711605313756623,1.474381419953532,-10.802091767865644,-4.090180501589809,-5.457827703282371,-8.07266259599561,-0.2521403366791688,-7.298983489391377,-3.401211413910113,-5.627677489184176,-2.2750182679304176,-3.5088864699585667,-3.3348127041041447,-3.168467512727431
5747,,-13.710469969915948,2.8662825106683343,-12.264745527121423,-4.513916453444119,-7.101456238822,-9.406731807668,-2.22835684161981,-10.3510044844092,-5.858189052358718,-5.135234506610958,-3.622307086909828,-6.358949193429884,-0.8675231294204149,-0.1411510783946052
5997,,-14.627352051904843,0.9141169951410624,-10.556918382254494,-7.656803411025587,-4.780465059763491,-9.152332025889455,-8.167868843521918,-7.744082364231071,-3.3802168930322662,-1.7540977913382638,-7.052360722855237,-12.143900388793504,-2.550173120311427,-0.2512104765873929
6247,,-7.106492652502108,2.7026132905058926,-9.907828710999734,-11.66440039591174,-4.261603981924731,-8.536053148593755,-7.990541633774967,-5.179730927268294,-2.6199805992789598,1.5115832501215882,-2.050470863931784,-8.327789941385218,-3.644812139565876,0.667174193109043
6497,,-4.503401638416511,1.1333104442948476,-10.239200477562814,-9.173094325576775,-4.628508575392188,-4.792106585737271,-7.349233481013552,-4.846863215748465,-2.9341635314504124,1.5809664598961644,-0.4119041060349604,-3.835710126060852,-3.262366308573102,-0.744973959921901
6747,,-5.21806400490928,-3.065553819032884,-11.353099845607591,-6.455545237229191,-4.351509989046788,-3.248231914911273,-6.714453187482694,-6.46939148014468,-3.35877337091407,-1.2732639532829153,-2.503932378084465,-4.512023671793831,-5.835686377405418,-3.0575300358084867
6997,,-5.594182465092254,-0.6621281814074752,-10.683293473998203,-5.752777395145017,-3.8116877199045303,-3.198178646751877,-5.135524792925661,-3.549008562810231,-3.0802597478913105,-2.216507450974969,-3.195610026100537,-5.749535390181233,-6.036481467700318,-0.9643367262495716
7246,,-5.100185120705668,-0.699324598723814,-6.837534006815311,-5.598853816500561,-4.270501005414477,-1.0753264779224452,-4.321707709576949,-5.366954903410175,-3.7181946612140777,-1.350985148991513,0.3505463044350352,-5.700425986778495,-2.378331930458488,-0.8175940018909789
7496,,-3.364349265797248,0.4829137041598607,-7.213443898868056,-5.605541492407448,-4.302424402142627,-4.591601020890438,-2.661682690276688,-10.559361010262922,-7.562943801864648,-2.7274834480606613,2.611343718181623,-4.567242540035805,-1.9240224373979835,0.8743419109750296
7746,,-2.4721026905694505,1.1948769560586094,-10.87270807111569,-6.378148563752774,-3.692889600334624,-4.4844987605841,-3.683979620523017,-8.61762988003533,-5.157283398946824,-2.987736043852815,1.9459364681361493,-4.185373222820498,-2.6362849069930414,0.5517585310442223
7996,,-5.030807935594708,0.8128464619148167,-8.88452302854607,-7.39269792638094,-4.580105808167327,-5.661399123984975,-2.9331008881378717,-6.544839060105922,-2.4824088814561835,-4.537598686342416,-1.1691790393055306,-5.257509386486266,-1.775828515570984,-0.9902456301443924
8246,,-6.312209963775115,0.5832548164888337,-7.04801461361011,-5.92832284657759,-5.547704852212067,-4.16468471628876,-4.445311079433298,-6.385173771597947,-2.527300742455902,-1.99773945208328,-0.3937071349347203,-3.4108321385900284,-3.92642085552632,-4.252562187795852
8496,,-3.162924877866336,1.374401142028915,-8.040445718293427,-8.05101083911464,-7.868765408690316,-1.6630699667532292,-7.324146687980111,-7.668529633197611,-3.0110561464529457,-0.2322537310710888,3.96111645546736,-0.4497145972794583,-1.3335760991277732,-2.20243394584028
8746,,-3.727959961407128,-0.7610055093835643,-7.848632808553521,-5.913967352560628,-7.920667165140181,-2.0522840629452013,-4.9753799697148064,-9.970079257569838,-5.144209426880618,-7.55204799902712,2.954220270121088,-2.3675274302335225,-4.412270033841132,0.2865588591095878
8996,,-6.130492384837728,-3.562804384699587,-6.818403813827688,-5.4378674881960976,-5.157579042909225,-3.3164001151960947,-2.7108407407627744,-8.233139753799465,-5.2047684653382165,-7.434746501984275,0.0364332372338902,-3.5960604692601548,-4.050581808548706,0.5805055497367702
9245,,-7.900335949535805,-3.5129724057370253,-6.736620942810579,-6.200308974381042,-3.342299702124856,-3.769455515981102,-3.176892274985128,-7.573344635477821,-5.475937485782022,-3.9465842796134383,-2.760634651691552,-4.38414170312242,-2.0422538073113383,-1.3270607736262232
9495,,-7.588722372543052,-2.299515913740197,-8.685546516235727,-7.806271653301282,-5.508117837880658,-2.444243870656058,-3.7662106043245047,-5.92006761741554,-7.824229232375266,0.4138568582916784,-1.3293659991178763,-4.1050840490494265,0.1939393306713116,-1.057551936308483
9745,,-6.846683491924964,-2.217611856702488,-9.748693364833024,-12.1352172471266,-3.872317055679914,-3.98040341903904,-7.536728763545929,-5.919142531803771,-4.350312995327263,-2.637259497371889,-1.9559334236584376,-6.7299255914400655,-1.7519252181471223,-3.41143996625679
9995,,-5.565810817502445,-1.010351124004705,-12.500376170227709,-10.17885385801511,-0.740064849994178,-6.587545828937403,-7.507240261888882,-6.755228681460576,-4.408770602454874,-6.471320143587199,-1.324304570590181,-5.43966891904431,-6.903933150155105,-6.228190514443214
10245,,-6.925527507304391,-1.5109342644511194,-9.849645054777769,-5.280368784839528,-1.227711567578853,-6.988091611824203,-9.826685837472544,-6.38907691817332,-8.531064171935048,-8.020703853148175,-0.5619229045986005,-3.247176408919617,-3.1846922893819727,-7.887603062914122
10495,,-8.048920938796481,-2.9951799299670983,-7.944698612119927,-5.020281469649351,0.8961518087517097,-5.193390516825577,-8.284853672781319,-8.1889469850735,-10.309953598308514,-4.122381148127049,-2.0077760202349064,-6.745524559044192,-1.9029214867256377,-6.619299530910244
10745,,-10.449892108576408,-3.2431257740470403,-6.540532699917168,-5.540276092971409,-1.0587029614411327,-3.521530226281796,-6.342010344412107,-8.498278304535777,-7.934230121780209,1.4178030055025967,-4.386832622392346,-7.331344479666393,-3.722043465484228,-7.62150612932397
10995,,-10.798244610321875,-3.771311535030069,-10.111839644576415,-6.431464105217523,-1.9579703766388925,-4.994118458710762,-8.695864944723535,-7.541137367287975,-3.9677878770188815,-1.6939416476554463,-7.236756491259245,-9.10019873411802,-3.5639498144168846,-9.336876527281548
11244,,-9.35055321545802,-7.429950802243783,-11.208608581032484,-12.344649554309546,-4.6440807192550855,-6.998723587603582,-4.592663242956881,-10.960804344047697,-4.9481098892942335,-4.693845137405187,-3.962385380230184,-7.252356100523952,-2.1894274969966747,-4.635933174113223
11494,,-4.898640331383307,-3.688567963790808,-9.373630726771893,-11.87520304060633,-7.3056611119382575,-4.488240765852803,-5.158305705159525,-11.116221602903764,-3.724705566987806,-1.6245762768909189,2.208274464631739,-2.350369373369193,-4.567815447565128,-3.4226884431077185
11744,,-5.21825730799107,-4.97314555327096,-7.205537868108662,-8.608859591312763,-9.234662254536357,-4.4475776098199225,-7.644898347195332,-7.807867918801542,-4.439295171048824,-4.123483214559187,0.915072445556746,-2.926508598422121,-4.952086952739942,-5.826697019439783
11994,,-5.76660826691858,0.6108005519795419,-5.406767188336646,-5.12674645533187,-5.747877724694728,-9.749928118901089,-4.753447275287352,-5.920007208136111,-5.908540335816835,-6.03882979148975,0.7303657210816692,-1.8369453837070076,-3.0575191715930345,-0.2085235845610573
12244,,-4.191843037494242,8.25586531024936,-5.499620503980425,1.0865231200667709,-4.529964803349608,-6.912393043774268,-3.5831453537371187,-6.059295675975847,-2.501868240643159,-1.8736796499482744,2.186052846508032,-0.327983812578808,-2.1150963387956008,4.778971013858927
12494,,-7.698050940735072,4.406018214154982,-9.859378776793994,-2.231170817405684,-3.5936554110962597,-4.839938407547487,-4.996405931754127,-5.114500169597969,-3.480625385222597,-2.664537125922784,-1.556266896889909,-3.782756284302224,-4.864145679272167,0.7031720225033934
12744,,-10.403665538317252,-3.640507025211223,-7.02745983242825,-8.148515243861617,-5.363584525227213,-9.199876408059117,-2.2569477620993847,-6.711407258802565,-5.021495562733302,-2.726358483558709,-3.4946847497275724,-5.872710163377423,-3.791918273835939,-4.35460593488734
12994,,-6.955637951477471,-2.6180938186504936,-4.452397571438455,-4.990133281629213,-3.703873336050943,-7.492110618696155,-2.3277885870136217,-6.271131542158517,-3.637962239066504,-1.9044196588032076,-1.3446288550806027,-2.938080880004578,-3.988271696307354,-2.580438564198748
13243,,-4.630933081850436,-6.500582378067829,-8.350546170237749,-5.2068919446166415,-3.784802185400216,-3.9270852458823455,-4.301403150749915,-4.804218730775362,-6.120999520677422,-5.5738590889667305,0.4194795965570376,-1.448866177140546,-4.271264155186972,-1.3747977889943883
13493,,-4.713936054548816,-5.875882502342348,-11.919218640928964,-6.2932233048723285,-6.396914819698864,-6.1843947777051,-4.307519116745736,-6.642599824512323,-4.159257609775741,-1.807451777283595,4.597842052369609,-2.4778630999822515,-4.529854448941785,-2.974822923558257
13743,,-4.194571899544966,-2.5134886655900512,-8.702892586499152,-7.945978625808975,-8.275193326654817,-5.490446995675581,-3.9503462514137726,-6.248227181055675,-4.138290314492714,-0.2289734081772171,5.283407816344548,-5.075572643755319,-1.5690215920069182,-4.582004309032048
13993,,-3.7871875454463537,-5.176814173700491,-8.40486969897135,-9.533847356940186,-7.262912359755411,-4.693239284606566,-2.9610884849120933,-6.261571297713164,-5.5474235855596365,-0.5047861049076461,1.4544307580986795,-5.299239419309569,-0.1752094686526683,-3.855642119579474
14243,,-3.633252030410544,-8.395814790339076,-10.205551168692567,-8.088969460462597,-6.810215258746705,-6.741191029587537,-5.988901278685658,-6.707434652576612,-5.356507322527606,-2.154446432585555,-2.3230531878142617,-8.90518279721276,-2.477880833806539,-4.849414911229879
14493,,-3.3381239988857763,-3.593858816847153,-9.477527574177024,-7.981082969388892,-2.9705554922427364,-6.245554579835462,-6.909152270321089,-8.414606207161249,-5.067086871904987,-0.5935808363502197,0.8455636197114652,-6.969358964419808,-6.506039678770783,-5.317203006923663
14743,,-4.537740016014092,-1.248880778491018,-8.253241510783749,-7.68136435552933,-0.3959762582603996,-6.36370631593962,-6.090517522333094,-12.034561784468568,-6.36519610512254,-0.903154294874025,0.0048102225653565,-6.134544473583311,-3.429040403148533,-3.103728986812224
14993,,-2.911762415684088,-2.221667859702516,-9.129989350693435,-6.43046877188707,-3.4159434727432503,-6.823278418394985,-4.121253037809802,-10.100500061490807,-8.444017314355518,-3.0318749249262784,3.538799243593286,-2.9321357812806967,-1.8986681086088824,-0.9434722293968392
15242,,-1.2397389852306622,-2.020242034834218,-8.647149456564495,-5.906880492321136,-9.72535202993294,-7.496986073356076,-2.709293273026367,-9.336689926932785,-6.161013251419396,-2.8715765484981706,5.922456552334036,-3.369091302953211,-2.906653376055319,-1.9510532696925609
15492,,-5.120751631276392,-1.3354109150017346,-11.36807870455649,-3.7541741766346193,-8.548700975500001,-4.699670955469749,-5.058351494796295,-8.493861246928804,-4.760261784068343,-3.658974405391899,0.1134537083749675,-8.481133849494386,-3.541330810714562,-3.8059300217922183
15742,,-3.629322627711628,-2.7076782017326413,-10.36631165799153,-6.758612038752276,-5.723615219895764,-3.2700351628658506,-7.879001861180188,-7.603937159135093,-5.993456830056915,-4.969137590204198,-0.646571335067204,-7.611045921479395,-4.4144197141338095,-7.287916979164074
15992,,-5.543775525708714,-2.250940184866476,-8.058012622293646,-6.815834722853004,-7.061548817022187,-4.215978287554873,-4.870910384775099,-7.247068235426182,-7.311418454021403,-9.350488468684176,1.2602929120512216,-4.715031633780496,-5.02506216047505,-8.571108067961372
16242,,-6.105225500235969,-3.327050948681116,-10.529504423112124,-5.3597301011768375,-7.9945061081534785,-5.010128063200387,-5.396245856741986,-9.834181351822956,-9.750922701558403,-9.928127171703164,2.0561494105982785,-4.730735558034416,-4.702777705457945,-8.717076778693475
16492,,-8.700842352787872,-3.028510346697554,-10.090060583281597,-3.7112398593851297,-2.869888355996136,-5.882020591994152,-8.974965213724316,-9.645005484430657,-8.872495400391315,-5.477221438645273,-0.7229347823356435,-8.901395131814388,-5.875487544877708,-6.294870534403263
16742,,-4.415603613708613,-2.375012046221042,-7.862915257068453,-2.629342165230064,-2.448902514287593,-6.214752077016319,-5.093346463924905,-7.400651593325738,-6.177058706812502,-2.994737555253488,1.762098778849031,-5.791133955121628,-2.4650937222204305,-5.702067835875965
16992,,-0.7779635811898207,-1.5242361944934093,-7.407376754895751,-6.299871069966015,-6.634408139848382,-5.239414381391979,-1.3764004266282894,-6.646369802399066,-5.310680262936281,-3.305421629403391,5.975889465558511,-3.8120773180351226,-1.6970651617302823,-3.7884163481377855
17241,,0.123285234047874,0.0961536024580058,-6.474781334070334,-5.925221058144713,-9.059858116237532,-3.694213664748994,-0.9721924487909828,-4.184535148379678,-7.200349357526054,-3.885188013560765,8.315364090974073,-1.346178711332057,-0.4377549849654399,-1.668104926594666
17491,,0.2907809374396655,0.678151214684617,-3.336275058993428,-3.690202896823104,-10.00664226779418,-4.062788528795837,-4.308430501162888,-2.432706967384768,-4.728941616604629,-2.696896551149453,8.895756044984203,-1.2809164668951896,1.5955872877578092,-0.3520768210873637
17741,,-2.9403012766817094,5.62820164001939,-4.068721384736006,0.6735786886969197,-4.009588722238747,-1.6319354490282931,-9.89948053359996,1.5292437831693388,-1.0570709583741036,-2.322441636690173,4.327979746280689,-5.2313463470338135,1.7848058648221672,4.382415476991187
17991,,-6.371602391077655,3.8199607687559016,-5.707026369587608,-0.5198641635225402,-1.5354642094444595,-5.078073310821617,-7.29196040525191,-2.535281973106533,-4.046079141318007,-2.8126309137359367,1.6700798880051893,-4.473071498518101,0.318054777374594,1.5845910022376883
18241,,-6.338817575357291,1.5461514059987136,-5.565495560318317,-2.6447464729403385,-2.9647601747584598,-5.708832369527399,-7.125900334750069,-8.283323846145864,-6.245049760841103,-3.703648674987876,2.0753569895200505,-4.006605348652305,-1.7630594064968896,1.100928590921507
18491,,-4.601829153121394,2.271509179735514,-7.118881077477309,-7.010074567859595,-1.2577381797537888,-4.523678234453431,-6.491319845818687,-8.29998484844301,-4.395719700531815,-0.0534360274717587,2.3959712787255527,-4.557673388958606,-4.003023349227845,5.457156873328362
18741,,-2.0868371581243848,0.5702703371854445,-8.882164661556143,-10.267604722729162,-2.237299427313224,-3.328125885180973,-3.526944285960431,-4.861849706015937,-1.8108459172447444,-1.5830013277159871,5.978605020408719,-0.9261381118992992,-2.789852698281696,1.0975499903249266
18991,,-2.542964367339387,-0.7419657454083686,-8.60853052814198,-6.978777763229523,-2.7515809968907687,-1.6562250708045276,-3.4090263478092906,-2.030751891007572,-0.4494624776091596,-3.381862490010678,3.203976425203896,-2.8223057576437647,-4.181628635889947,-3.3271350773517905
19240,,-7.634342992974682,-0.969608747306606,-7.246958828437825,-6.796199435435585,-3.3126060748623383,-4.6463748886883,-6.020592644358813,-5.3721798221992,-2.469832124090967,-1.6306289369367366,-3.045967551941745,-6.090663999450396,-2.5961290284924625,-5.9763199896588
19490,,-3.7538068781573566,0.5858219238137627,-7.888364623527439,-7.307365138675261,-5.571896236308779,-4.071857693904553,-2.7791614067096977,-6.772601987534045,-1.518424089576464,-3.4040174441486197,3.000523070996847,-4.711962595039488,-1.672751628126497,-1.8220642614771811
19740,,-0.5813617421289773,2.6970112312617447,-7.166763826963603,-1.9083780344717012,-2.504824681305691,-6.738290354904299,-2.809059349777657,-3.1565634572543635,5.183539178349021,-2.5448226668553176,6.894299011819324,-0.5052280604292633,-4.481675309856943,1.4463110006063622
19990,,-3.875844308413844,2.2736874192306678,-7.328580589563511,-4.998315549249412,-2.3182599979001988,-7.885477472022319,-6.3684823728931095,-2.8411152284775865,6.47727822963488,-3.28942477110504,3.756076995037312,-2.331165456356939,-4.258329798373538,-2.142160864988337
20240,,-2.618031411457938,-2.905072161505604,-9.509565153937023,-9.284308439454133,-2.0048219031767687,-4.110049496352682,-2.156003416498155,-4.474877730446197,-1.573303477102686,-4.795926426060762,3.649179947735508,-4.527366525641967,-3.7569368537857306,-6.670437000017277
20490,,-1.6421981287920877,-5.741620721699869,-11.635615203776236,-8.016777216728782,-3.482877157509925,-3.8691947693745328,-3.4455645568921094,-5.247608343093786,-4.359065306618434,-2.095650830314359,4.344241470246493,-4.050954410579245,-3.945328549095448,-3.4486853749968764
20740,,-5.04687210506907,-2.98783979111449,-9.687864701716505,-7.149995747201226,-5.764654551472091,-4.2801146937151096,-5.439423345621369,-4.428104293336736,-2.52060250850562,-1.6639208196158914,0.3356607005436748,-3.5988471467204874,-7.690651038794032,-3.47927721596011
20990,,-4.2921764278958285,-0.0994151094538018,-9.67689882981979,-8.137215564980982,-4.834918818853243,-2.6403442817283382,-6.368660017080321,-6.528947776475223,-3.769087948575966,-1.7265355470404606,0.444853698859927,-4.306687222945448,-3.2919210480966603,-0.8036715090380376
21239,,-5.20335320183224,-1.3977804118739234,-11.735650587677055,-9.968517575457907,-5.211259467233928,-3.747388236383293,-5.443666987004549,-9.800343198808442,-4.611178953014727,-5.123262072479594,0.1765794706695179,-6.325138454629586,-0.5026203966510452,0.3047671495885234
21489,,-2.5343599162587536,-1.518465088226468,-10.919402514781549,-6.975647720461438,-3.068465269821281,-10.924099552304693,-5.110859854443916,-11.685271458100228,-2.917222659048879,-6.109866684423492,2.796015797642001,-5.609020784803382,-2.4160306169373,-0.8390061995534205
21739,,-0.8521798215658971,-2.304874627299726,-8.374767662685944,-4.976154643001655,-3.79270761324332,-8.680595613998253,-4.70625448394303,-11.642868398618091,-6.877024611052327,-1.680533353076161,4.427750666250937,-4.363877397520005,-4.114863090250665,-0.2691766867619158
21989,,-4.052171116809803,-1.9184933398017303,-6.119421551041164,-5.190518287875294,-3.2736944955032614,-5.216896241346952,-3.6796211019165703,-8.802925862743095,-7.1115810875990615,-1.0802257045600512,2.594238299044515,-2.68210650238694,-0.4206932754176502,-1.896996734988048
22239,,-2.8879619429191594,2.7425900563790258,-10.633292661469188,-1.5719120252861454,-3.8269312808093248,-3.099701010343188,-2.3970608235976005,-7.333961601409875,-6.10073731284235,-3.0777499051718955,3.117275713324432,-3.7180239895611136,-0.0916291559241845,2.7679056835917875
22489,,-1.7106246786621515,5.252439194725193,-13.278765112581706,0.8760061701193628,-2.055210276167549,-3.161097869224056,-4.7569194168564,-8.54637134543184,-5.146789546536215,-3.99973223095127,4.198873838083649,-3.5829237589849083,-1.7645372810116675,4.762072258853982
22739,,-3.715107862188318,-2.024064204149885,-8.785020829103601,-6.199985290893323,-3.20040265724507,-3.180258589101457,-5.736862205148718,-7.996330184070624,-4.831329638075681,-5.6856385250756345,4.123809033821335,-3.7558476390538926,-0.8334310264518113,-2.034566373047519
22989,,-4.826072495394032,-1.6178517412278297,-4.896940264463616,-9.484433653317112,-3.3639211068781947,-5.894282010073124,-7.415884785314921,-7.2922719712540385,-4.908522622477518,-3.6178297601605767,4.544101050233839,-2.1395222455755887,-3.901885703611228,-3.137345792059248
23238,,-4.582770634848781,-0.936314194452306,-9.118081300008802,-7.5914958341139105,-3.785668984173215,-6.127847608375956,-8.962020036301938,-11.075277120775883,-2.8253567586570427,-1.571856226221752,2.725620569155835,-4.704700055287079,-6.6497786198719,-1.5134669409002006
23488,,-4.58156039988963,-1.2401669933513562,-10.135241132308751,-5.429665468749497,-4.307097769791652,-6.952143438857189,-11.658837076985751,-10.976070595027378,-3.4771210949077744,-3.034620226859464,1.5527244056537954,-4.679969072567056,-7.015787914291799,-3.788174014935546
23738,,-8.549902418202084,-6.531238950896993,-3.401972784807868,-6.682185988975361,-5.9565549381242295,-8.41813905260034,-11.6851329467604,-7.64215896900081,-6.350920475986253,-8.226574132858687,-3.787347596079992,-6.796279701797543,-6.25026768634446,-7.321212092571012
23988,,-5.002029787832205,-5.452637620998049,1.2257226416709803,-9.025305936018524,-7.77943818439277,-5.623669856666761,-7.497888487731599,-7.210381070001997,-9.055822932000954,-5.314841372384912,1.0541607955972363,-4.748611655993592,-5.844152778328975,-4.182161088912547
24238,,-3.5132028153664163,-5.813308581067456,-4.116897812768649,-8.665490110203846,-3.625167928506855,-3.4601236470946906,-5.609563762066316,-8.180812692040027,-5.122636498643791,-3.3447774111767274,2.2923704735553905,-3.1733669619542457,-6.345620003884084,-2.0519318693913458
24488,,-8.243178815769843,-2.767959863640712,-6.777837640722026,-6.126069504355733,-3.054362364107457,-2.9460018566108785,-3.5839285387295576,-6.1459993690811725,-4.545718175667169,-3.2476566669327136,-3.762965791221975,-5.513341074775727,-9.79108405138922,-2.354968336190237
24738,,-13.045882772022388,-2.615331579904188,-8.386812221354628,-5.874805800460548,-4.933760720529522,-6.140367065567725,-4.413720720420553,-7.934999333193735,-3.497065696086011,-5.517727387055665,-5.678954039294989,-9.414999386519046,-9.411712862294245,-3.073076818833409
24988,,-6.454022352776411,-2.908958594873136,-11.294631800237926,-6.618353870457162,-2.696553037317413,-7.465382051805871,-6.539847026151612,-9.082063184497288,-4.430655577256108,-7.746776837689298,1.364900292897501,-7.55174233970246,-2.0016657269868583,-5.004695345909197
25238,,-5.191861282850954,-4.847576868781083,-10.584648357317333,-6.523980659464344,-2.125517583284851,-5.622492805551413,-6.136379576556492,-9.048320236548598,-4.461026996004228,-9.058643610541044,1.4882883922945591,-4.833389912550198,0.1096322343563039,-4.848756914029378
25487,,-5.3916662942046365,-8.0618895376939,-13.787784388523956,-6.176498013480929,-3.7087731344424575,-4.2168988631736095,-5.2189439539817535,-11.015525878969244,-6.321048886542133,-7.420833713630656,1.2676254702311534,-4.127423317715194,-2.1335571523414947,-4.109469859982244
25737,,-4.203557528370062,-2.2950624216810955,-13.08839827050732,-8.504257169980383,-5.945816461141989,-3.3997352168863064,-7.411553096582613,-10.487633138800074,-7.875988722852635,-4.497377541524624,1.9069799570171944,-5.7502637252336,-2.754784524349157,-2.4129087188569045
25987,,-1.8833862923119389,-2.212314839149014,-12.371659798679062,-8.831330839746364,-5.788487347436584,-4.933785353381879,-2.9003977194157144,-9.504065930710206,-4.927096772748084,-2.178156320682429,4.558690940190787,-4.358735929063155,0.9387901633614996,-2.750467444708855
26237,,-2.4860396951554584,-2.079629314561015,-10.290003486782906,-8.529685730495814,-5.660890125351807,-4.804578384993655,-2.19009979885078,-7.949867317089284,-1.9819654304599963,-6.850121107002511,3.3927923720747115,-3.755323673542637,-2.185340121639353,-2.9311900720321797
26487,,-3.755028685958613,-4.463614823923882,-11.283706386399569,-9.63827326119109,-5.705190704103593,-6.546931003809532,-2.441703067890482,-8.576578697990225,-2.4441823034420755,-4.420364473243033,2.839941741210337,-6.624897719755083,-6.115649025109652,-2.3352981525469536
26737,,5.520981657705595,-2.992826359384171,-13.565252444121228,-9.606875463026562,-7.453155909581296,-10.937978660397356,-5.362180930086065,-4.542756714178088,-6.029296849438711,-3.295130857168747,4.380154801393543,-6.875049481850245,-6.67420542874102,-0.2933935752453438
26987,,7.4707553011509695,-1.6900935107742374,-14.415676986825636,-6.879871325176204,-8.792796752501053,-11.901999453419377,-6.724444648504089,-3.886403048751895,-7.32161333615625,-4.479508179615994,5.315185637594334,-5.554244059809161,-5.146056150209239,-0.7825677925728769
27237,,0.3741048923057685,4.799292138490472,-10.9379104112673,-3.5786495270256835,-5.498222664995,-6.0335197159796286,-4.9949116156830495,-6.022893277706616,-8.566662212337292,-4.798062808413468,5.412791195070621,-5.296881434260269,-4.78845730062125,0.3243591555858926
27486,,-4.980203856814799,2.3773319318941866,-11.336218148062295,-4.676343566104154,-5.088618735444561,-4.771816566624399,-5.643787266942232,-7.290689604118109,-9.301227610084492,-4.887663477734644,1.5473922123640391,-7.403586727426815,-3.1906109922611625,-2.0024341491911817
27736,,-6.27592955552719,-5.017747995168743,-13.11912609877924,-7.06549657994724,-5.102130692136711,-7.682933578961951,-3.9897693895358506,-8.92458314614238,-5.991318610791456,-3.0834792072612007,1.6222394402546385,-7.437398504447371,-4.636443981698333,-4.54507612075467
27986,,-5.21054011181266,-5.625269770691919,-10.772378421535338,-3.4207401936578807,-4.648424993061675,-7.370077890234535,-3.574485613062416,-7.287377104197679,-2.4049294832805312,-2.635478991748444,3.3188565532832754,-6.402058840427937,-4.756910132144866,-4.583701376630001
28236,,-6.8618242487621615,-4.5520816079019415,-9.18467223469674,-3.5214579865059625,-2.518582416054171,-6.297575374433661,-8.830628112479351,-5.45546898324512,-3.41292564111734,-1.7914879751821529,0.9029720365697336,-5.920725683229255,-4.290601879948088,-6.815119267027846
28486,,-7.924706970130156,-3.2697498930054,-7.801995577951603,-8.243229018439903,-3.392263376354736,-4.956778400758508,-11.918038944060726,-7.819666994888683,-6.4244270319538,-2.336887651303923,-1.914275267882415,-6.712783762613289,-4.672638920647517,-8.887767123578191
28736,,-7.451713065421125,-3.162376558892687,-7.392594949916296,-2.4732164769814675,-4.69135315170684,-6.979563455590897,-4.405827777214232,-4.451328136096892,-9.22487898929569,-5.2022963824981545,0.1893974317017981,-7.245505148927831,-4.856162434556415,-6.695276975871016
28986,,-6.62483289012042,-5.53012769026352,-11.310124696400132,-0.9552731682576332,-5.118842736025442,-9.93946445737327,-5.85128117847486,-7.277426526023115,-11.02890932018913,-3.572394222813131,0.5179527017783361,-9.16433127000538,-5.429140979256094,-6.061676125679084
29236,,-1.6199406358902366,-3.074653340632883,-11.81695163700976,-0.7583400016981388,-5.16036695942009,-8.048515814906235,-3.6653768234791455,-8.469348036355616,-7.680454624826268,-5.019685670710788,6.442302553708155,-6.170943789445291,-1.5948487446625457,-4.016519397435376
29485,,-2.946324880482336,-1.5215493871843064,-9.788075309262169,2.060110528652904,-4.105658193214107,-4.69313707507386,-5.705330793654171,-7.480575624398016,-5.899155581763891,-9.689900512977946,3.86982749591175,-7.2218903112798705,-4.122366989097838,-5.844132838197087
29735,,-3.608823312531589,5.010553555662702,-6.362232269957988,-0.8763102520653642,-5.041109697554694,-6.333228041476431,-6.601997786256474,-9.19774255406803,-6.263903954505452,-9.6949838235139,-1.042142545098199,-4.549083948253935,-3.9839499716198814,-0.0872902501208695
29985,,-5.354097331459046,6.7948075126934135,-4.674018168034214,-0.0477547957116323,-4.030980980917326,-9.034250613883666,-5.076617549695282,-7.629861284322209,-2.687929915537868,-7.934725746215582,0.5023547096922131,-0.8056116855094647,-0.58260273915788,5.749869011297525
30235,,-6.795279049281136,4.578668063981927,-7.203435540263645,-0.6265582085442113,-4.634300149052345,-10.003939669728329,-9.485309152421198,-5.514507384431932,-1.8411002483014505,-7.849689067625202,1.3272734239439117,-3.2363221805282465,0.0517781727059298,5.916116885334612
30485,,-5.882854430630004,3.948950469398164,-8.416598894973237,-1.2192335226011015,-4.530374929870616,-5.507366861540932,-8.312369092924373,-7.815336056257713,-1.8489537563911969,-6.344820634920091,2.323637327068287,-5.650093212373938,-2.57002194985236,6.848913232116301
30735,,-4.14170423600277,-2.2943079444023304,-9.250846320220722,-5.192827161271818,-3.818582047985214,-4.421938553442965,-4.686218824386684,-9.66784459529747,-3.318131515537256,-5.632091162444551,5.05486814658653,-2.6079590377823565,0.4130495602197282,0.7634515262287318
30985,,-3.6346944555945337,-2.433811736779874,-11.814039080569652,-5.145907269334334,-3.3794664026432653,-3.4043916211044074,-3.392665406096464,-10.94789415649035,-6.144815099584436,-2.698848499265696,3.934575626493813,-5.653124455170885,-0.1528835326191691,-3.891327218045176
31235,,-2.234095465872871,-0.4518839151372198,-12.597431819141203,-6.267159520871887,-4.112764305403495,-6.848023064666757,-3.6076393935866,-10.103421811878642,-4.809897554901812,-5.94329160112906,4.121103977951719,-5.126958224889776,-1.5042410703259308,-1.7962898356059758
31484,,-1.31184680975615,-1.055638509885558,-10.34650146364784,-5.794591030419775,-3.930019633496839,-9.092321317453138,-2.879023632730313,-9.33965387571616,-3.87327536088267,-9.08125675990587,5.063779150417423,-3.5721122238837117,-0.1273174369336812,-1.6181722023892622
31734,,-4.250319583061063,-3.451074686425024,-7.356632671272853,-5.235750166841076,-4.175507498785684,-8.684704693928879,-5.1817225432106975,-12.203896497217368,-5.144123905896725,-6.519418790908537,4.184195675115443,-4.183074971243281,-3.589401369029626,-1.4473078869013056
31984,,-5.034988920013921,-1.2737906481920291,-4.025634990464631,-1.7064368814001507,-4.414336205779637,-9.358213660452003,-5.139761118088439,-11.76816831169766,-5.212950516360456,-6.467834367436192,4.468913095123526,-1.857666654885344,0.0269188105512931,2.6558468265941544
32234,,-3.4722605003151537,-3.962130061170032,-5.6220851399469405,-5.793388718425444,-5.402956963502855,-6.647540650950907,-9.389237551064843,-10.348826770870971,-8.164190308241979,-5.823769003892921,0.985921637514219,-5.621501071300859,0.1148765452053151,0.5637320529208335
32484,,0.1138019655327056,-4.944427574290232,-6.843131451473341,-7.959855428345275,-3.30750586370193,-5.750064105327621,-8.349003924573225,-8.107544200262168,-3.464044134303898,-3.069321938039918,4.332839975488319,-5.566769545173371,0.863164526334397,4.143067989079644
32734,IR,-0.5982770744366684,1.9184329706802357,-7.916165734665098,-4.555812560448988,-2.766300059927302,-2.9971468890783672,-4.761877607820951,-4.276720447007013,-2.3486436992763187,-3.2496581360849266,6.4386037353724745,-3.2877319761275143,-0.2427419053057219,4.026991553126985
32984,,-1.0131798730722124,1.9258120052335228,-8.074300434503353,-5.206799556024714,-6.654770611024024,-2.290837100145481,-6.080576811075558,-4.201720815089174,-4.209294071666715,-2.2773145212374755,6.600326639527278,-3.5480006174129834,-4.847168663596611,0.7914995361497403
33234,,-1.2969828012581652,-5.337889419155671,-10.584027802582908,-8.256138730121096,-5.967427489322472,-4.782886671662501,-6.742110510485268,-7.480099307651472,-6.106108975381959,-3.1104953045274266,4.540098315914007,-2.975865775503957,-6.245646802497192,-3.06194878814284
33483,,-1.085199786184484,-5.691945089835874,-9.536588426224752,-6.4445149862977775,-3.014686768261861,-5.875304297609157,-5.100673088394254,-3.9863792234762094,-4.609991077329767,-4.253514270218829,5.574517403103286,-1.513675467862738,-2.502114021161266,-2.7690182119321047
33733,,-3.440392407782296,-3.859851744021933,-10.162370773923042,-4.158259018169794,-1.1967164247664928,-6.437572985880036,-6.273340964209169,-3.186255880807929,-3.672005202236454,-6.010572510238827,3.718469749400501,-2.8236751425571924,1.103949962639352,-4.355641791977802
33983,,-5.050776438389693,-4.712337905047605,-10.98024053447948,-6.672253572593309,-3.3658214391276307,-7.23397602037166,-6.806705162828575,-8.748127869158775,-8.335061572363445,-7.228143230117517,1.1008454919986108,-5.58967913718133,-0.7187132256309039,-4.314688003936404
34233,,-3.3891206155056386,-9.098958773548516,-11.929137552297547,-9.353151455119038,-8.82278052194966,-5.893860510413683,-4.019631257205027,-10.488112092509054,-8.042465709152193,-4.340451620295496,2.1841711338935226,-5.60160980833178,-5.386405276889549,-4.677490417484616
34483,,-0.2108345888638045,-8.294543051626638,-14.42167290067913,-9.230344857832923,-5.256959438665305,-3.49726461055216,-2.4181622329696566,-10.603030944314238,-9.754555042940837,-3.675816142696573,6.770427564795992,-6.943207511810806,-5.938870611446879,-4.354350121777126
34733,,-0.5803690871499625,-8.681103578979174,-12.134342604282368,-8.344953917164645,-3.772390071545448,-4.741288512946255,-5.714198601687568,-12.257774599930666,-8.4653077352881,-5.1238600345468965,6.193460187190802,-7.695062935803893,-6.083450867752806,-3.877820734911194
34983,,-4.494309524859059,-6.472389481884421,-10.030842086388624,-9.377194106182444,-2.988414758881543,-10.514587529953872,-5.585413173668012,-7.100013935295529,-6.095995351954495,-3.086319854440511,3.5249295475832643,-7.543259513134916,-8.949798571598386,-4.796287392903258
35233,,-1.3014354217424269,-7.774952797767338,-12.06472100285497,-12.087545139199031,-4.689841660218969,-8.66203155771399,-3.145374861809448,-5.014134714317327,-3.9825459965029726,-4.847882304730835,5.424297993779934,-4.593178188196943,-6.34750285155415,-4.8210720739430935
35482,,-0.7323099334302079,-7.3368530036539426,-13.732099548264705,-9.42886040724744,-5.285172866656444,-6.275195897782918,-2.198643479981611,-5.9266353166226535,-2.1801514944516054,-2.821293092976454,4.256147389363744,-2.1514992697616804,-3.285853843567805,-2.6110247094343
35732,,-3.790388498422948,-6.063441577223564,-16.961590772469695,-12.44596178152138,-8.093705599259124,-6.997848606950013,-2.7768263593457654,-10.081092725502284,-2.935205881823497,-4.792523825662645,3.570435387671313,-1.9367638419210664,-2.894636330003972,-2.947774812652584
35982,,0.5421093534351826,-5.336721893283194,-14.100425533965604,-6.982902384164041,-5.036699574620156,-4.037934333724527,-2.98543248767265,-7.633577877176926,-3.0505018822218046,-3.0000026306014345,7.947606682103339,-0.5716709561963932,-3.6626666521302855,-3.069405840630996
36232,,0.8923426431780335,-6.352150948756031,-9.363514481322497,-4.523713822315952,-3.500830344129944,-2.858543531249053,-0.5137915141541676,-7.234916438976782,-3.3290284320712225,-2.7333977226376134,7.948630103248271,-1.0905562643047026,-2.1406580402209823,-1.5889086131418635
36482,,-1.7076992115544722,-3.9994340153219534,-3.015972260606113,-4.110467203598679,-1.6008967684051156,-2.6412352964511503,1.0397319096907185,-3.992566060185725,-1.115916834301249,-0.5448714210385837,6.239851881289086,-0.9363119916372126,2.0699050403974977,-0.7412326717858659
36732,R,-3.763955325435544,-1.0063778721098169,-2.7309227975010937,-3.404416814496697,-0.939460034709207,-1.1075708031216105,0.1302822225767172,-2.658472476335091,-1.4106110015983662,1.652028003190595,4.5711149726426425,-1.7290362704027014,2.75809127248567,-2.207392647757784
36982,,-3.7266276053912746,-2.789783666775797,-9.15561695145216,-4.061049836791612,-6.025707310114582,-4.3429561267430135,-4.861572313953102,-9.379399788629728,-4.439194385099105,-2.1839243040400254,4.233335713115765,-2.588267484955192,-1.2981876216171275,-2.0702715724280045
37232,,-5.144550710201054,-2.852425277466701,-8.210603370955607,-5.934828278470335,-7.269696357666523,-5.977843350470719,-4.682108150852999,-7.220018391326157,-2.7761200216906285,-4.989917358579223,4.83825567079237,7.359006805520369,-0.9257056342401752,-2.984246858592324
37481,,-4.220272174016188,-0.2492340161387868,-7.272470410132974,-7.020586965728902,-4.626835108325854,-4.5103739831069225,-8.582370039960587,-5.716129908920711,-3.195893526544257,-4.156978642609468,4.776328274119148,6.379191728535886,-0.0286316236874381,-2.981770214542494
37731,,-3.6354331330155594,0.4502526708513501,-8.15812883024692,-7.160966850341034,-3.038491654629108,-4.103517195495641,-5.927756301635284,-7.948936938459679,-6.682505790574446,-2.194643876146134,2.1316550322540326,-1.8560892927074928,-1.6489886164904064,-2.567396416007268
37981,,-1.7963501514758513,0.9477734390793529,-9.519718474051116,-10.959610285402816,-2.9494992742539345,-5.804172743418398,-6.562094903406549,-6.90544426824686,-4.777489260719739,-5.392133824176932,2.6428892607741403,-3.898554956252319,-5.97926344742269,-3.8742397591397193
38231,,-3.992249921531928,-3.7823069803551017,-11.001338066739049,-5.830949035471452,-3.882906427922639,-10.532041978156164,-11.452608430987638,-8.746601955590155,-4.302909776485091,-4.422972574733077,2.666592363700151,-6.19857214525616,-4.364136297247035,-9.374808871035825
38481,,-1.3391632960343136,-6.314545507328509,-12.163874765364652,2.755886922695831,-4.38666714925982,-4.903058814301978,-9.424532532534435,-11.390947087513638,-6.8853183497513015,-2.700447455764907,3.445410055163625,-5.786310381424373,-4.341557383124148,-7.834491099506275
38731,,-0.3612869676991348,-4.761638701009224,-11.16672406948766,2.100158800344407,-4.922661050086218,-2.263239947789078,-4.2042565261223865,-8.813952902875108,-5.260034966910312,-5.098744897414727,4.899891716674017,-3.5254319996556265,-5.614980696957634,-1.9942543770751489
38981,,-1.1608131221751226,-3.3348365964738216,-9.32920963116034,-3.715603044917892,-3.7088264771908057,-4.17814680989925,-2.751459869137051,-7.872669395444193,-4.509565850263072,-4.064120662979515,5.638028371726048,-4.785881555109733,-4.829809927584857,-2.3858481833149803
39231,,-3.6410331493169417,-1.4718709169712516,-8.0857095841302,-6.985393198784299,-3.7157602804132472,-5.9082298733080165,-5.619248965173064,-8.965008176638024,-3.721917279283699,-3.5639299245039453,2.778676543484042,-7.250385331072856,-0.1441597347118464,-1.3925065668182408
39480,,-5.562892726650411,-1.5546349233293766,-7.993241401175677,-8.270169609007162,-7.320366781319595,-6.341252335546695,-6.266596256564649,-8.240718019549368,-1.7770100162224969,-4.950998034966416,0.4678191770905126,-7.68268520154135,-2.102503828435051,-0.2436443000887466
39730,,-6.197463587828096,-3.6569562464435057,-8.629877957493044,-5.896692030983568,-6.318818919796678,-8.665260884707878,-3.729469879182077,-7.9171704481280925,-3.462325022194464,-3.2461972379947635,0.2004479376341375,-8.731846276130387,-2.288869048541209,-3.4332353740710837
39980,,-4.202610352534314,-2.184944291869794,-13.881780428201193,-7.568891126812219,-5.088825589739487,-6.406340193925809,-2.782380538554396,-11.179981381377116,-3.502621317754875,-4.650763059744457,2.708361055815221,-7.29177688418329,-2.3244725039345027,-1.1953290624969282
40230,,0.2359838430328316,0.1676328931588344,-10.783216706682126,-7.549272776428591,-1.3075566754314696,-3.9480006549937783,-1.2292124048714892,-10.55439516479852,-2.807262670277215,-8.375411902808676,6.5645355923734,-4.148148732494877,-0.9618229227821258,-1.1885961958877254
40480,,1.2463640074173865,0.6040324873958646,-9.568383338525097,-9.332949652586912,-1.1433318680354303,-3.454115498010516,-3.436162355319972,-9.309737428074826,-3.160813934870144,-5.846107969179212,7.337814209551014,-3.356681025425466,-3.082017235295325,-4.13892395421888
40730,,-0.9203966428766484,-0.1197499372951692,-8.904272124641905,-9.707657077025017,-3.243515273322303,-5.37820718361071,-4.035167785972395,-8.418518729037757,-2.618966036108624,-3.684607528698709,5.199162174634489,-6.960243932439777,-1.7845492442415989,-3.890045419318344
40980,,-0.5790502345994897,-1.1002615890891003,-8.07819148920499,-7.292329164213895,-4.67517350744156,-7.359684863455493,-3.951137992461465,-5.167024770515346,-3.2906074979846056,-1.7193038753911325,5.595527197603763,-4.850736422873647,0.2957076347584622,-2.005458667278686
41230,,-0.2444845222189634,-0.0259575332862088,-7.393360559743742,-10.338010212065509,-1.4139118086209812,-4.187607941030679,-4.537640140379292,-3.840332909873561,-2.967490465717874,-2.5076430017922595,5.922513687391067,-2.094020817001061,-4.813621938382759,-6.57901823520088
41479,,-0.5475408512730877,-0.8591700091406872,-7.070354188019405,-9.164403455592852,-3.558011701650772,-3.3410824725818005,-5.94493984458626,-6.552114092235769,-3.135527888200509,-0.699494711799685,6.185258623075434,-3.1233500321324263,-5.330213864860129,-5.436493260902246
41729,,-1.9895744621713107,0.1903331700540415,-7.418343030046128,-6.19172214602354,-10.346873054853262,-6.474317161703987,-7.191849494534086,-7.977932358168308,-4.004059713831191,-2.783853056762648,5.307393780875,-6.145502634321107,-2.2819026370354534,-6.455316131412385
41979,,-2.869756966577496,-3.088389645314594,-9.42021189067839,-6.570299471143261,-6.641665770868546,-9.426977990371002,-2.6701650934443832,-8.96975737374993,-2.374864470974135,-0.8469790619334261,4.525801315493062,-5.777954578142816,-1.5760328918024802,-5.037096259414189
42229,,-1.0045236834959803,-7.354137093991186,-8.919492512851509,-5.79145607680116,-1.9630992768762543,-2.675074355269028,-1.7209825453015084,-7.401120605362268,-1.6312721504709524,0.6105631582384958,5.599493174738518,-3.678019138467656,-1.380534997247044,-4.860687432819407
42479,,-1.2209945317521174,-9.080174598704405,-8.542628911616578,-6.271968734474976,-3.683771572716175,-2.45275471602515,-5.867069604077548,-7.838714728448528,-1.9999644742707183,-1.2543508067494713,3.663323287200756,-6.270746532149484,-4.660363788723603,-5.130417457510188
42729,,-1.5791741997322537,-7.204841408941247,-7.490467160997949,-8.74362933100838,-5.486168611106489,-5.205889360526737,-10.214425534174236,-4.976443363410464,-9.010151315529274,-3.731162344175318,4.165812979483309,-6.42805047765012,-5.266740070103904,-2.4596137243533702
42979,,-0.5152271483993569,-0.544228330295999,-12.165369453033591,-12.985224042486848,-6.320260685747211,-6.257449854296315,-7.633164811729312,-6.004670377610535,-8.272139944688146,-2.223789783491604,5.705467069486996,-5.535566643734761,-2.321875593724698,-3.212046756140076
43229,,-4.973632510287218,-1.575640942458373,-13.047175623846588,-7.622434807079977,-3.665329092433165,-7.026526454428755,-6.414077172759645,-6.3968860988105725,-3.026736618797672,-1.7262582050952548,3.4750300046802445,-7.863147550234512,-4.898350178937296,-6.238838408929781
43478,,-3.1676401390174385,0.256982492404996,-11.28040935401842,-7.894401684637438,-3.4228607135023164,-2.74294341050706,-6.234111688960883,-1.762910660141427,0.4967116200246758,-3.525895604521583,3.98089850276174,-5.0136844634838855,-5.969580617369058,-3.225395080224091
43728,,-1.7423612876679384,2.396438376424607,-11.109371795165623,-6.943105425632885,-2.565714234177942,-1.4161535752863827,-7.630395424885579,-2.8659424308587624,-1.3951829185488591,-8.258672627455145,4.907216391220461,-2.8723399834916097,3.1535235675562423,3.5891427174956867
43978,,-3.793284162188968,-0.2751562044510489,-8.126213593323223,-4.41969159925873,-5.561101943427528,-4.730588982904704,-8.934806045551667,-6.128246861362915,-3.1248062415931885,-5.826866885720552,4.555876603364058,-1.2262310135263113,4.104847456091771,1.189362635564236
44228,,-2.82589116167507,-0.0305415969244264,-6.585810391862596,-9.65699766170664,-4.056026140186174,-3.169562726052636,-6.524578024006258,-4.9883535801254,-1.662636961674668,-2.654482578767147,5.391933774020068,-0.8740790586195907,-0.0004747239552472,-4.922314866893895
44478,,-4.250974320993056,-1.0622669045548356,-8.529638412469785,-9.478511117888369,-4.948866362927223,-3.494285988263377,-5.070882855617112,-8.07216775889004,-2.5245308936882784,-3.962216711997535,4.381272763773069,-4.956074441599484,-0.8988652454673557,-1.363373783060875
44728,,-1.589838461707753,-3.234113285558541,-11.585969867760776,-8.65256085567815,-6.320471957515195,-3.365491351565836,-3.705021767184368,-8.155712566875945,-0.6668432867322884,-3.5570300269592767,5.916001403158147,-1.3907126871473705,-1.862633416536532,-1.88428900732416
44978,,-0.1171987285454378,-0.024230265418473,-16.43252539983471,-8.035967033026454,-3.083699353957327,-3.750624110482401,-3.614245743842703,-5.985903839439039,-0.2425587866888834,0.8414934878599989,7.428935302158449,-1.5456444419244408,-1.321389794754722,-2.552370497964368
45228,,-2.990212973643424,-0.6946171019666159,-15.3859365416692,-7.114230787712229,-1.2111767994570029,-7.072135004903873,-4.599416451553774,-7.232229140267167,-4.571993056258324,-0.7338053607083788,5.063771548587233,-5.039296081578318,-1.865876699145404,-3.541231162896085
45477,,-2.045550438917513,-0.0153875626167465,-10.568018143302202,-8.9047405932252,-3.65842949746974,-4.899563636005065,-2.720495287153791,-8.975036961436551,-2.9720067651345388,-1.8784733090771095,5.0983577454392,-2.837548954650575,-2.3624882897114667,-0.3060406417380467
45727,,-1.76628224493267,2.070873917308514,-7.83193465148697,-11.307134260606102,-5.455419884834781,-5.903127497587526,-3.067825220524714,-8.294334533247202,-5.2957558647118095,-0.2362911873318762,4.915915055741978,-2.8428464529878283,1.641615546217351,-0.0473657272700333
45977,,-0.642265485440806,1.3731280809483133,-10.737247177647015,-6.758136319088272,-7.220531813973226,-5.045976822719681,-3.2637959016908247,-8.527233675495719,-7.072300278529884,-3.1967834572604383,5.306106325989488,-3.6535031799179754,0.1137522374722987,-3.531751313399001
46227,,-0.1724030469925159,1.2597430779800245,-10.18628202882534,-6.536917808440185,-3.3994947771943544,-3.10259155352783,-2.422185255641001,-8.083519153012782,-2.276729388906838,-4.20401343041955,5.9333485501659045,-2.210491687142731,-1.94604476570355,0.5475610849914482
46477,,1.9608852334389224,0.5669826714115589,-6.455498213048739,-9.879730035306885,-4.009430842172383,-1.768726022121345,-1.366856405555629,-3.3693329319124143,-0.2043505636595551,-4.120598631463416,8.00626238925917,0.1303299264658616,0.2551185717096263,1.520795285027095
46727,,-1.8118519772165944,-2.3458653543495505,-9.73209946758799,-8.373483221638514,-6.249454997175557,-5.960009105604586,-6.134448871685407,-5.2499986048251,-3.248893161580513,-6.680880710474614,3.9874077106194648,-5.318784827682311,-1.2496542791874874,0.1254722784112609
46977,,-2.2085431418003094,-2.8581458660463746,-12.931792128995385,-8.759326550985723,-0.985605430198484,-4.038991700022039,-9.216467523293684,-12.478715091196417,-4.996634828612426,-1.286607623662411,4.856219978953806,-6.965557758480735,-1.63902740504761,-2.851793465655131
47227,,-2.9602565807979864,-0.9621665822438786,-9.955247803960356,-7.697851719987073,-2.2593909394458027,-2.065853352356635,-5.43223843330361,-2.057890134413685,-4.226426096622907,-3.0793334710045905,4.887295259631849,-3.71225204059757,-3.2936150238013893,-2.5466594915305576
47477,,-1.4709139557081992,-1.5335737992299794,-9.287753023084145,-5.813707394248722,-3.673854763142845,-2.4353137642618656,-3.2210927312585227,4.7963339295851215,-3.4524500699149154,-4.30048680424086,6.630301547648355,-2.067134875948585,-1.8328248345118572,-2.564328334685629
47726,,-3.000133828028508,-4.571403879226089,-9.395592907841444,-6.767036991325749,-4.000811453826768,-4.189447442839785,-5.68254265399346,0.5319466902739005,-2.6272526685894397,-3.147389475850085,4.026268017072475,-5.335049280570622,-4.272975950056433,-6.187382333160075
47976,,-2.587763476072838,-4.186668907581028,-9.417812614031124,-6.149324309681888,-4.751196072183289,-2.051381982214773,-9.550797899289412,-5.510955481689153,-4.746527678931419,-4.913198474144291,2.5611379030197883,-5.440795194592011,-7.240410127817842,-8.191342821548012
48226,,-1.820216241166701,-3.5016203677809687,-10.269672478043216,-6.849574997270176,-6.146003178152175,-3.276223046301382,-7.7164935779647825,-5.357466028888764,-5.620247366375511,-2.903251102787877,3.664986836680447,-3.971359049027371,-5.932331412488391,-7.609110992556573
48476,,-1.6042511862874904,-2.617672463748434,-12.196466490063802,-7.95141259004413,-6.654943463858311,-5.675916478039199,-5.623511864056684,-7.892978169716208,-4.753726960951225,-0.5634138275013932,5.118062828259521,-5.156485372077131,-1.5550361178564287,-1.1182256046310828
48726,,-2.017263581316586,-2.474603462291898,-12.371993815421655,-10.453311770424332,-4.546133050422335,-4.348091917819192,-5.947857616938832,-7.972965296449147,-5.86630424226504,-0.6893322441175935,4.876289803177985,-4.0421526109410895,-0.8875751441235873,-2.5707234312935
48976,,1.6022458628252132,-2.710592661934897,-10.49326428071529,-7.523841960324673,-2.041613425954218,0.1752440476566573,-3.938750396131954,-5.6653791130339295,-4.287269517638372,-3.7575690635330976,7.793987309059917,-0.978754158126775,-3.62354822699686,-2.3580438702894697
49226,,0.8862929890154887,-2.731642915381238,-10.990809314718078,-7.549102308868183,-4.30911905198701,-0.4370803458516122,-5.351927661371443,-9.013845021934126,-6.64883197959028,-3.7151152459823655,6.272666903724165,-3.894423464660851,-6.012926162984439,-2.7219125963274022
49476,,-2.9454662528209505,-5.344596361871697,-14.552695098245126,-10.338939962128109,-6.391967593317027,-7.530315684278274,-6.555293934173367,-10.37281343393678,-5.922146374133048,-3.283801224940656,1.3141106464962935,-6.471075916528704,-7.464925614203906,-3.647028235565629
49725,,-4.170136449948511,-8.990137973420044,-10.93394061648578,-9.820465572126263,-4.556024263464648,-6.515758537608799,-6.557056432328747,-8.27006956280165,-4.218015411106868,-3.7605538002666106,2.874020369320003,-6.514377111181462,-7.425188235707809,-3.8950943597595096
49975,,-4.787952941649344,-8.74984236586084,-8.471176801321889,-7.237585522488326,-5.12942659076283,-4.929155969275168,-8.155055385533728,-4.889054210740074,-3.741819838168449,-3.0793218657236494,0.770779503418519,-8.950859344903538,-9.335770603992785,-3.0987600638313624
50225,,-2.3259617805479142,-4.13517225640924,-11.084294642647407,-4.898035668177835,-7.087726035943964,-3.929780559327012,-3.4315480556676645,-3.4871032536524664,-1.3634055892350607,-2.849790600615468,3.161789675859428,-6.096887933286862,-5.277538231756175,-4.126391279433475
50475,,-0.5946401999964787,-1.9359681511491624,-10.072471270205876,-5.24087743871209,-5.234847589962145,-6.105580331162296,-2.2399921376960146,-5.894791232097662,-1.6443011001586874,-2.0878937494337944,4.5819246044448905,-4.291355414416509,-4.6891750749734245,-2.183682191773978
50725,,-3.312927402964087,-1.3149307949111355,-6.427280909945331,-6.784156298481527,-6.763605533223266,-7.528609375030068,-6.065456812738113,-6.638463795911841,-2.9288601569725605,-1.434213048517968,2.509546938053107,-4.432733045933786,-3.0556769021015397,-0.4526720843136746
50975,,-3.6503495911688,-4.4465316829231565,-8.03068411625686,-11.471256986980595,-10.523228575673487,-8.769182630810343,-7.307892346137244,-5.905004532489111,-3.0883033724030238,-2.857681803285951,2.2137242770061283,-4.125781537868263,-1.8947549291591288,-2.0683029931310486
51225,,-3.339318190882521,-7.601710639916288,-9.738141388474467,-10.421184978341463,-7.784454729065318,-5.958588490805275,-5.698886941000398,-4.400665523005627,-3.072540904144491,-5.249691792500992,3.3124332265879035,-3.01437363867088,-3.8909966464449983,-2.832949395985517
51475,,-2.466073103641365,-13.14741431919929,-7.895156928564355,-9.193348069668804,-7.15644570004276,-5.072387006990552,-7.446966998633892,-7.309678648102155,-2.933150076328574,-10.820912465763929,3.414720970803886,-2.998536765900326,-8.117493664248931,-2.7643864902864026
51724,,-0.496979234876428,-4.9987276757655135,-9.154060685818129,-6.644186380194929,-6.522475722492222,-9.304271168756005,-3.3388190677605323,-7.881613527404426,-5.34648367050821,-9.558525848599354,6.724080081164625,-4.204291814811547,-5.592868806045374,-2.41302525546186
51974,,-1.8799196599719123,-2.692043192834139,-8.440273405325206,-3.915110617775533,-6.685515980439483,-7.605357376998594,-5.514241344262148,-7.996194945111764,-5.4807722335854026,-5.936761798084053,5.100005070134844,-4.423914804417253,-7.226332261708681,-2.009820395474497
52224,X,-0.9267942325545728,-0.3828999948568384,-6.43289542163814,-6.565749451606949,-5.617844585871909,-5.163727112050463,-3.8419288366677367,-6.185297715684868,-3.6798092945176633,-3.145228659180721,4.538761475124077,-3.691705225197536,-5.135575247938827,-1.0110755520960968
52474,,-3.127822647366613,-2.3327591136194767,-8.873668556346773,-9.484767392678592,-7.204949802820485,-8.109066986385953,-4.563940268748859,-5.818152939094441,-3.323122042354837,-3.961794907597121,1.8565514704834325,-7.147497958407129,-2.1306069277848136,-4.593625144910344
52724,,-2.943351886321961,-7.196678690315245,-11.44498561106376,-10.777934473508708,-4.188714593574952,-6.22783379073155,-3.175528276661445,-9.848952328653786,-5.532917864165871,-1.358767490755202,3.431737727456507,-4.699791020873379,-1.930914000793132,0.1930386897521198
52974,,-0.648323718479188,-6.354200259617642,-9.418913173043762,-7.922398462280623,-3.2460656035766404,-1.7340425256875591,-3.004822940290542,-11.908227767574848,-0.4088278678324387,-0.4353981963422622,5.098672488522272,-0.0758119691247919,1.155845587870605,6.913902779554865
53224,,-3.739704309210484,-2.988800761792201,-8.78305329110386,-6.512099360568131,-5.44491050228115,-5.043665869778811,-3.966229443807129,-7.644307888444408,3.057019906654856,-3.970484723393583,3.5653307555338816,-2.806567275601023,-0.5157679360460327,3.578825372268451
53474,,-5.81693167289906,-3.403686388119913,-10.26258396334477,-9.363342565065158,-10.153702931672466,-9.10378738376684,-8.053785313970566,-9.491959888791571,-3.2051396933786247,-9.3878479254457,3.001720170697157,-8.655591819466377,-7.233934212184653,-4.008775224586947
53723,,-7.179674229645613,-5.458600137378607,-12.249413625918256,-12.47322995018814,-11.621963397487406,-10.222101508378444,-11.134556969346614,-11.876077799531377,-9.015530855685066,-9.601551414679353,0.1782332097543312,-10.866150302681588,-12.933170560482296,-0.7467937787981445
53973,,-2.630433720972837,-6.1485055695543895,-13.245826451270457,-11.230500576091654,-5.138241972079863,-7.976357360199381,-6.486535575564512,-11.726116724360198,-10.014439167389444,-8.234455280465848,4.589634009230341,-6.588727885026336,-5.854538344014582,1.3062058731131696
54223,,-1.792338326704468,-9.299754901365423,-12.504107416776636,-16.30236207779924,-6.03550744112705,-8.05292131928425,-4.039352618856457,-12.099400033950133,-8.774372825803706,-11.673386291808097,3.615531469516733,-5.657962060212782,-3.0744593399538296,-1.5350744584082037
54473,,-1.3253887365965256,-5.719174982279126,-9.302779146418327,-12.329016163428754,-2.645732928041604,-7.011360786312714,-4.79911332295407,-7.105523674018404,-4.492643968524487,-7.914013718929259,3.6461933688908887,-5.87451630431088,-5.0120799248816015,-2.1848374776413144
54723,,-2.4367033581983426,-5.040486604312882,-9.980718573700628,-6.8816578779496655,-2.739442696329055,-6.151847563715982,-5.459522137334033,-4.18516918972862,-4.307902117712812,-7.323544437120441,3.19697356701421,-6.893216113731072,-4.934109019662486,-1.8370439416053823
54973,,-2.537921122686341,-5.904521867563522,-11.09135873080371,-8.039641521300481,-6.015338522556304,-5.84877987800748,-9.139357104522253,-6.760601385947521,-5.607335545196667,-8.026730817158715,1.0719870388824952,-9.585556531195476,-6.3286790395158725,-4.90044852714956
55223,,-2.024063815002204,-5.642575904310801,-11.217597361571364,-10.418544190611255,-3.665518633176135,-8.26020932716278,-6.736014247225227,-10.375444686089551,-9.798882315236312,-4.939011845355312,2.84168425550022,-3.884150157075247,-6.981373543825777,-6.075985156673727
55473,,-3.888370593812928,-9.095494091413698,-11.434012826569006,-11.868164579079648,-3.9481142628568193,-12.07295413656185,-5.2044834045278,-11.15242837986412,-12.079192002639363,-4.961747547748186,2.0724983475114063,-5.07716568003964,-8.266353892196811,-6.461468571457397
55722,,-2.1413006490672166,-10.901027801848793,-12.441370963935412,-12.094261342889824,-7.551890307076575,-10.759747667138754,-6.401278190077151,-9.223189213381458,-9.916197985663144,-9.030813921207134,2.9820877772109045,-7.489872810310061,-3.945447130738265,-7.280719719554018
55972,,-0.7698297079065026,-4.288532356942699,-6.350468120246338,-7.746214237330219,-9.61706551989638,-6.90988893699755,-6.582804839485955,-4.836188021762032,-5.603869223064496,-10.771414483089698,5.693996938375775,-1.1800349297073094,0.1457125172335664,-3.5415215761349805
56222,,1.4372895104195251,-2.558822764506454,-5.201596660457115,-8.136741493524214,-4.128635210676508,-5.491127398007225,-5.039755721001451,-5.661442314390262,-6.663164911018309,-9.563276560699103,7.86047722809725,-1.9835137362107436,-0.5271118364897962,-4.783873792176414
56472,,0.6722177396652482,-2.4553062884763155,-9.380777932321529,-8.234317200863753,-3.444112858142553,-4.416462085832002,-5.741275985209976,-8.62621793700282,-7.186774020836419,-4.148203548662635,6.856965149965521,-6.172733028294992,-3.6841697692374376,-4.825759027778412
56722,,-4.341481100335986,-1.7093163108795597,-8.605863466359132,-10.574496260856831,-8.019148259652468,-7.215107614901397,-4.6621795169745,-8.057124545163926,-7.634203618584944,-2.362174591955001,2.342995484169044,-10.53672005693855,-7.735157964687889,-3.4763544384172302
56972,,-0.9051933591556648,-1.2041997249348886,-5.568907674419848,-6.418028245520617,-4.898887211574781,-6.9165727759360855,-2.7098269381545155,-6.343203695754374,-2.790078579211526,-5.937971515119297,4.236459564466262,-6.244396280149615,-4.496869162897159,-1.5873869733046266
57222,,-4.113199914099743,-0.7103513437218325,-7.491586805766164,-6.47874939515991,-2.488655328413757,-7.231540713881527,-6.415312242064357,-5.686170706418679,-1.474183325040999,-0.1247050866479826,-0.3971355231109178,-6.766570898964956,-5.447941864476752,-1.7727392105266349
57472,,-2.803140809603254,-3.7500892783535535,-11.14938853154406,-6.952337226013609,-3.403957056516917,-7.931738475842342,-5.243342399014649,-7.979472429075411,-4.546043836922198,-0.4054656375539623,2.281965203045213,-3.9852558209867226,-5.018382859046882,-1.0384944511508736
57721,,-4.46428144672513,-6.169707581448883,-11.778400446798443,-7.778741504247154,-5.40434576909139,-8.93249710140939,-5.8728212649679605,-11.147103787840429,-4.840989297327029,-6.084446286915412,1.8046285455622768,-3.7344256067162114,-5.682917625162029,-2.599865245823912
57971,,-3.5645032939167107,-5.077234024536537,-9.801513460195729,-9.779114814419753,-7.285557585857889,-7.687956402251832,-4.976859650105354,-9.632517155420189,-5.425809968340989,-6.558066469299053,3.7879624189917047,-4.541042158577858,-4.675496951350499,-4.549053832303938
58221,,-5.771900368373278,-3.5293441808782786,-9.18450621999341,-9.866397815047907,-6.9813315919971695,-5.308559158262376,-4.364904134333509,-9.031046313255445,-7.397261800967706,-5.615016814605091,2.750450661907027,-5.822729550059515,-4.52804610400592,-4.5458744232278425
58471,,-4.328025621422404,-3.5655687163801755,-8.47968119402108,-9.3749175448096,-8.303962137050394,-1.8793748383810776,-3.027211012973299,-6.569482410681023,-4.367160423740999,-3.997395020569429,4.48115815486307,-5.310631323331842,-2.396893435904736,-2.5728245576213986
58721,,-1.4810264833686055,-2.622685936512428,-7.694406405415649,-9.68814960493016,-4.81461709972699,-1.847917633175853,-5.109021115694517,-4.8034553086541525,-1.8219123408200817,-2.92633617789496,4.790458893019405,-3.0384516749229795,-3.443444425579208,-3.382468660234993
58971,,1.039530377207633,-1.019717728590927,-6.7208495670423325,-8.040306725424283,-2.61218541373788,-1.5887619639791637,-4.14475370324355,-5.358656296379212,-2.987416518981634,-7.950127900477274,6.750213159542322,-1.5012673445433486,-1.6958898329233465,-1.571245877753173
59221,,1.500774420133078,0.1556064757170059,-9.039390804937756,-10.05609278400512,-0.7957698922409594,0.1803151474477252,-6.191321270126691,-4.848426110338639,-6.576693091356011,-7.5037284659693615,7.091757732105181,-2.067104014912762,-1.0491938972592774,-1.1411758970941597
59471,,0.2684416987522908,-2.5716966089071662,-9.780200332015369,-8.859945260198725,-2.032968189909216,-2.627079898634468,-5.208872306107494,-8.001724226526735,-6.7438290111955,-4.729050117948119,7.467610042623745,-3.862947362276392,-3.331024760220627,-4.138639038200339
59720,,0.6911634761829445,-7.732068667876718,-8.907058096226026,-7.043210397256785,-1.7283055247861907,-4.934799079358145,-3.6613044565367434,-4.753881056491422,-5.8563663139641084,-2.578644195128075,7.419149429141623,-3.421739896552944,-2.8187916470337173,-5.321638673103843
59970,,-1.057776044542312,-5.532620111919529,-5.440923474099341,-8.041300165648904,-3.7916691660747786,-3.2813908191185783,-4.482837202138374,-6.687799772441052,-5.478030131246464,-0.0735905449231836,6.055731437817324,-1.5524963045646762,-3.044162658249214,-4.555806113585529
60220,,0.7149934917305241,-3.808916819097044,-5.288857516347861,-9.363690480077024,-2.436138884485884,-3.964352716496149,-2.309204806717716,-10.45359864128121,-4.719382992559989,0.4540322602590038,7.783639113772942,-1.6132434193915444,-3.082793716487441,-1.617931724065069
60470,,-1.2866881634113727,-4.169425340340096,-7.979805875786448,-10.43953883623866,-5.409366250151299,-7.806767445299446,-4.294344737042901,-7.295169189036273,-5.562667772453595,-4.606830617428393,6.410721579991485,-6.0257591426256285,-5.673495170737088,-4.084707711496773
60720,,1.1615244245121938,-5.302607874338904,-10.754644923458777,-13.23628352946672,-9.10185404361142,-4.3552140719469525,-2.131700004404862,-5.721985960657046,-4.8324681816164885,-5.372544299519777,8.147744528802919,-2.443254293122293,-5.150757305740675,-2.67482039794054
60970,,0.1202438771967309,-6.94695314227145,-10.205250761171968,-10.60459663410018,-13.606790530952908,-1.7445865236389553,-4.011230741954506,-6.63347955839265,-4.9174170653974265,-4.369980904198006,6.242819054867532,-2.6791128976501573,-5.798683382600118,-3.1555315091223477
61220,,-3.149374965639113,-6.620947911399318,-11.917694583134743,-11.30655944585618,-7.818559407682908,-3.435789955511246,-7.0993573879986736,-5.537242360994956,-6.361904271414984,-5.084175473249248,2.7176188760867266,-6.820910005055236,-4.905931036772748,-4.602644278228682
61470,,-1.5189145681628196,-3.952854467427071,-10.238689001724548,-10.064246510211682,-4.183359648885366,-6.429644426159422,-6.86218375423411,-8.39439055590221,-7.856825936149592,-3.613960623589602,5.95750957238706,-4.882139943423712,-2.58476530205038,-2.14495769377051
61719,,-0.2509918499940548,-5.764106918579147,-12.437543785461028,-8.796322286868518,-5.682411754759048,-3.669903959704756,-7.260755073791918,-7.795426749634402,-4.7255531265701975,-1.4063232133264834,6.919404643566523,-2.97561479768371,-3.579291430839948,-1.7641436845230396
61969,,-5.656747475215719,-1.0997048989003873,-9.496136009933831,-9.470391020201316,-2.5448226952895525,-3.447953450373343,-7.903186194234206,-4.536735456836021,-3.0038227815448124,-2.9293465832710783,4.276393740785245,-5.808772386904301,-4.11957945819653,-6.343637895570403
62219,,-3.6284210127831167,-2.159899034316448,-10.07281281621349,-8.225158004190417,-2.7246929333552816,-5.514959527061913,-5.036400175419792,-5.524171372419257,-6.946419672369508,-6.928501894167849,4.560504625258154,-6.295429109289219,-4.160743269516846,-6.73256006677925
62469,,-1.1973424338176015,-3.9767464657724174,-8.438672069950602,-9.262249491947792,-5.727886790107614,-2.649504553269005,-6.755079925199075,-6.446026424799896,-7.579434368143289,-7.784096348613434,4.8154375888233405,-4.0325221090061545,-4.631884688135015,-5.221247110787946
62719,,0.1974485293413961,-3.994922591093968,-6.037816479932071,-9.67021761938438,-3.574262825815321,-2.200819340317733,-8.052601381349792,-5.478715258817662,-6.16164621716234,-2.725137984083714,6.72954422399636,-0.920264277647166,-2.036708703792527,-2.3522862523369668
62969,,-0.3086911000030163,-5.825994190864813,-7.556986646304235,-7.704074963087619,-3.026317834057448,-4.61782298318291,-3.946809344796386,-7.079355862090607,-8.205551044080353,-3.0053119297912243,7.555086550631258,-2.065009533577994,-1.881358875265247,-3.421148545753188
63219,,-0.2965617661908618,-6.82655328637455,-7.884027130232333,-6.506085656835056,-4.223333246214284,-4.30870351675684,-3.125438690465936,-8.407806372027197,-6.361209582755317,-6.849462680452047,7.2382405501994205,-2.0468521913629227,-2.2209612313535643,-5.865584220196073
63469,,0.4608245931820877,-10.44212212967718,-6.928250244629147,-6.305839221216544,-2.6222399851975684,-1.6030632943879886,-3.07847875736792,-8.863285308803778,-5.554865303509484,-5.171397009673589,7.999390762797204,-0.9994126999332762,-2.103802890717204,-2.212615263769078
63718,,2.229101587037241,-5.304019024299954,-4.184634226962312,-7.83296025271736,0.3590941867127195,-0.1293002209695529,-1.885354543857948,-7.59269041956149,-4.6003468545697945,-4.814583956992129,9.447882340631118,1.4615609833617091,0.4306907292808049,0.0368169463077803
63968,,0.6169741661502101,-2.901484904937484,-6.568471342252998,-12.249672413656558,-2.480888361625475,-2.565757008291928,-1.8389006382557536,-8.316711098447744,-3.874421718762837,-3.432292261064447,8.464484498120045,-0.0332016764856,-0.0615058506159859,-1.2792060154881937
64218,,0.0237836959480012,-4.267362573589317,-11.117033449223277,-8.061430882308091,-9.198082449872144,-4.637219088377302,-2.9214023411165475,-6.5360954566942,-6.856818559201457,-3.3440066698108364,7.876148788206649,-2.73124949140819,-2.746267812193656,-1.5482825125017674
64468,,-0.5180445745661223,-3.3681639101911243,-13.121777028004267,-8.21288493784799,-7.69212352386539,-6.484487650970738,-3.467724052027385,-9.961157053245326,-8.583092321640692,-3.3665433523699333,7.592302634865145,-4.682994277719254,-5.6548708691523855,-1.945270074233828
64718,,-1.0709814340083004,-5.5533928338445815,-13.47755948892534,-9.013556023469228,-2.815782390732016,-4.042469412479194,-3.39270133612641,-9.218137637501917,-8.883660815814094,-3.11016843403173,6.784880337142281,-4.1972361895696615,-4.731591317155797,-2.0217958776607508
64968,,0.7306852373700846,-6.658926569317714,-11.2079795755823,-12.075783313971108,-4.140638857932638,-3.802385808105635,-3.5824306216327964,-7.006006323328436,-5.783789503798832,-2.551296908060697,7.654799006052938,-2.703979449392357,-2.018961888011267,-0.3159062907321957
65218,,0.8722571424573501,-3.257798831823327,-5.306137660679172,-11.120849814188745,-6.202965160127796,-7.005487302049177,-0.4566584704874551,-4.080139508212328,-2.222935382332742,1.7568088909832216,8.46616554032904,-0.152804721294721,-0.4333553450952681,1.7776411094147158
65468,,1.1857626784183348,1.6595980561932808,-5.726798223962256,-5.205995802407976,-3.4154444142978964,-2.7042192159539,-0.6916145645496097,-2.786938827279096,-1.6328552392779885,1.0683583596850257,8.82767981631744,0.2129685348617417,-1.0631502130736186,0.8050943560961077
65717,,-1.4853272363472294,1.1963328117003067,-9.613567904740746,-4.284844778516693,-3.8858597250003313,-3.8868889809536777,-4.758075019736544,-6.131838078044703,-2.387261450968688,-3.0713660107916825,5.906606359446526,-2.945325303100652,-0.6789445046269735,-3.6014282094949923
65967,,-5.593180776018239,-3.485967175428077,-9.589817398367606,-7.436140899875703,-4.469879381997504,-6.156138470524992,-7.05486053086269,-7.177709259445742,-4.144990233416551,-2.8457505715922924,3.53815669394164,-5.843746705004836,-1.7118378257331583,-4.079663566629056
66217,,-1.9792820939772229,-5.585616109273451,-7.803685886392252,-10.077755783839477,-6.9243880508501245,-6.41796364191835,-5.037086145208377,-7.050647543841374,-3.067242499996081,-1.957593876802408,4.547274826108072,-7.378014574316146,-2.3930298441538715,-3.736181552557946
66467,,-1.0498543913987517,-3.28308841975236,-9.98956777129525,-6.731604263916122,-3.210720517352711,-6.701942146625598,-4.791151001001935,-8.492176018551852,-1.2772132054042022,-2.9020471629003914,5.665219256859601,-5.894198876875363,-2.6783553444233688,-3.50717844848021
66717,,-1.806092693833808,-1.7266805995748014,-8.775820497372935,-7.970903613854813,-3.524019848208236,-4.591196558592613,-4.303518491035277,-8.768625440528307,-2.036816447650412,-5.92184195866141,5.392257358607564,-3.326296058965666,-4.492775283306815,-7.303265958391178
66967,,-2.6675936156172235,-3.731699902338272,-7.43713494272796,-10.930203201054088,-5.029990965180952,-4.058083596711771,-6.638480650738105,-8.973721706972453,-3.664036727921245,-4.057407297594714,4.599250171657009,-4.888825616113149,-5.652624407947241,-5.787877832307276
67217,,-2.486099729137356,-4.648549162786764,-9.291089963421213,-10.111237990240909,-3.9146647461192794,-2.5475745076043985,-7.831137762559615,-9.081853972473098,-4.968140092786938,-4.36862239714179,4.539551506054988,-4.950200678813764,0.1015741076396327,-3.838142040564077
67467,,-1.6944628719341193,-5.348970669297644,-12.068050310696645,-9.524212069537745,-4.563366661298219,-2.513749482308112,-8.62413609497655,-7.1434411520606105,-2.8918356561923018,-4.865689692529468,3.649860543560343,-5.206867062976654,-2.410265966229023,-6.643508127773763
67716,,-1.6074409986175295,-5.179548001782406,-9.014579887125825,-11.617710657775346,-3.5433678331694622,-3.935046263787047,-10.0238201727909,-4.631499977386046,-0.5694237969580034,-4.479246589254318,4.039962887906673,-5.684371448753845,-6.735122824281902,-5.754654144609118
67966,,-1.1223932119971252,-5.845458059440065,-9.73747329222694,-10.991082727628855,-2.784021050809194,-5.627839990263382,-3.204166734537819,-6.946903878716251,-1.3607559132254594,-2.244962443807968,6.465989000065218,-3.78503826914341,-4.168495930053531,-4.259603876597371
68216,,1.5505394504939,-4.826692234555525,-9.412279442951116,-5.693917950526687,-2.60751534905718,-4.097048794221756,-3.231715090885452,-9.284283465802028,-5.180180584611169,-4.632325928425416,7.800078532695037,-3.152750916652476,-2.292306945489036,-5.525461394596448
68466,,0.7849414341991099,-7.127619144953088,-9.851925917331425,-8.356397651790447,-4.657319668826027,-4.850303918499832,-5.446367527271494,-8.521137743958416,-8.758992451992915,-6.025084996148941,6.099227534174652,-4.147572995990744,0.0479916034363171,-4.286084696569299
68716,,0.2119013342001223,-7.105042230901615,-10.245403612204829,-11.992280242222806,-3.8764061046308784,-7.382526858748858,-6.348891760139831,-6.188220482923934,-11.10571691492643,-3.263691079344504,6.13296612270214,-5.424098571805982,-3.38723062431918,-5.933265822232135
68966,,2.604151658347132,-7.704338850589895,-7.829355504721401,-7.981119517795983,-3.0884105162610536,-2.9853828739120285,-3.908387889014676,-7.392370701374946,-12.585086839784928,-1.3590773549661423,8.799692278747823,-0.5148827812631256,-1.9755118856215137,0.0099498072602643
69216,,3.529871193272472,-10.65883278364735,-7.678355096804345,-6.259094326518081,-4.945374788508167,-2.7511188809567955,-2.2192704499924085,-9.139921129264238,-7.476850824426823,-2.6844854499941686,9.957429744483816,0.8509927991249316,0.0189002348284922,2.276805604902672
69466,,-1.478505011122727,-8.614932563516128,-9.376853938593865,-9.90346397119348,-5.592626742338549,-9.227909162944671,-5.628542172639353,-8.097346429966999,-3.619645728770229,-5.024371846224575,6.242373400060358,-3.129842327400796,-3.598981316966973,4.808665701554883
69715,,-3.313551661582552,-7.535830688817587,-8.67161743232488,-9.404024760062216,-3.7550685717173193,-7.393714939176796,-7.139664672297496,-8.711952469016149,-4.385300220373133,-3.2585393247010934,5.425633299183323,-1.8966011670257463,-3.081110886600534,9.853582499260147
69965,,-2.50359295018579,-6.780826277075391,-12.923137670706852,-7.788770043800802,-4.553308746276883,-5.299621883306076,-5.468229901482554,-5.716577316354935,-6.862706367108244,-2.842427116490059,6.274753759319692,1.832433538945769,-1.13078622374954,3.971796068078103
70215,,-5.851099055165077,-5.7632813105413945,-11.596929590216012,-7.702190647453532,-7.223158719313178,-8.653333639364147,-6.72065682358274,-6.610221708420935,-5.465260456210962,-7.413608033746083,2.029108739082619,-2.25173156604747,-6.0672768005989415,-6.679972416881382
70465,,-2.097724386935425,-7.692967715474107,-10.077465951504276,-8.309701350008478,-11.165253770980076,-8.62693641162897,-6.888693492777148,-10.937860514059803,-5.199298672574059,-8.511138203408633,6.214922743914515,-7.9764047403710014,-6.875245518055594,-2.1307406888554365
70715,,0.7961626495988229,-2.883804497600484,-11.537116911880672,-7.44464227186986,-9.352873507748374,-3.5034892926092525,-4.699119192114422,-8.135711073826455,-6.340896907980102,-7.368129996975968,8.243123443030752,-6.602786828166288,-5.304476311424525,1.829532015556882
70965,,1.5258328080445902,-2.0361962675999306,-9.223093157398823,-6.536193300604271,-3.9668972190283625,-3.0382542236228827,-4.890556432724143,-6.255221850267144,-6.148522936723332,-8.217127513512398,7.972217475807,-2.4485817776255474,-4.318352432622693,1.3368775326085336
71215,,0.2608993201442111,-5.309809662056113,-9.257145229828764,-10.558866223131984,-6.941072176188935,-8.799622288985498,-5.423522354046352,-7.764197712167573,-5.9304215646130505,-8.888824346724812,6.129729575293613,-3.321928367083608,-4.732371419542031,-1.520978889754355
71465,,2.39181053552211,-1.211440088484791,-13.098109297252543,-11.572455154440544,-3.878137823904925,-2.9085875169877258,-5.358681234318904,-8.564509782218872,-8.377339744177556,-2.433367915013484,8.317371422871178,-1.6481926708491144,-1.2261995556287215,-0.1194992474486306
71715,,2.572627144647336,1.434467612047821,-11.809640812521192,-5.540440676333587,-2.769009404127289,0.054942720322307,-4.882203802592739,-5.14042909637841,-8.299454277302994,-1.4952109164175906,8.128616587266812,-0.3985970430184881,-0.0473479783587279,1.296537804976143
71964,X2,-0.3583252912326532,0.4816819023392891,-7.350227815145422,-6.516095190971426,-7.089012549219151,-4.095404650503003,-4.19523858446342,-4.34576730577628,-5.325628071262719,-5.65459029602554,5.99891150383433,-3.881818198473413,-1.88009255689974,-1.6534714911766903
72214,,-0.9094868619719692,-2.934099011266275,-7.835131427217046,-6.923916403508575,-5.825084769639447,-6.383178779181891,-7.413861940331796,-7.852906993387202,-5.40250296588893,-2.10813273251786,5.800203733775224,-5.057418206566906,-4.473828789726887,-6.691820310635163
72464,,0.7557874427105196,-3.4759046226930987,-7.846140260604959,-8.194786690034313,-3.1615424520890567,-6.608496560187716,-1.6361638376620415,-6.016253231360426,-3.070586478704434,-1.342261970997381,7.425331626965828,-4.598198325364757,-1.77917949564249,-3.2850771406476813
72714,,2.262268485864356,-1.7412656677346583,-8.190307671749862,-9.909679324456162,-3.908801199891294,-4.646382121897466,-2.328527678090211,-7.513313474600993,-3.1987524437563257,-2.8593864905903232,7.394769022965636,-3.5393467680165203,-2.545472104215716,-1.539851242871425
72964,,1.6072546912148562,-0.2084952925241319,-6.691868325738043,-8.716826060542392,-1.9378687509178745,-5.384517371267976,-4.337359335758283,-6.249536365455885,-7.263635313383345,-2.676782237454473,7.973982410876196,-1.9230283288064556,-1.4107049600994706,-3.6263348140810416
73214,,-4.108524556244613,-0.9221679190412186,-8.798995625459408,-7.676772895903241,-6.582554444833838,-8.69748697027815,-5.271450006527845,1.906006437413441,-7.097980576452271,-3.859331913620089,4.432420928095201,-3.74154801459401,1.5921678387223828,-3.3669319043900425
73464,,-8.796794855866729,0.8684242948901235,-11.55234743114831,-8.73480047118991,-3.4177729360222835,-7.024786095307919,-6.322970338034443,0.2880161776399105,-7.755824120932088,-1.2148228898398283,-1.2243518006880596,-6.872670136292141,-0.9246458409861068,-2.620367950354636
73714,,-2.1838279683962205,4.867356450452513,-9.315934967257178,-6.12165684167341,-0.8955669638647247,-4.356711139337398,-4.893096631743308,-5.419500434935348,-4.984201720631988,-0.9002326523209957,4.160463032438795,-1.9373021517845008,-3.537048714590548,-0.452630722887875
73963,,1.361808777097007,0.6147154617494887,-7.13935955621538,-8.616548757768879,-5.683771855071128,-2.463757545184379,-5.274246727669815,-5.403543607401822,-4.518812568545762,-0.9140836866279046,7.624770112539347,0.5677088383917064,-0.2443028878183472,-0.8185524422763933
74213,,-0.2162875069579347,-3.129617654347029,-8.528315274486479,-9.32996351841039,-4.654434627946108,-4.011588611521923,-7.192407217050314,-7.835495825557017,-6.907100633754912,-1.6633268880260244,5.6168466305106985,-3.833211700427495,-1.4126170943552334,-6.330516073104777
74463,,-2.2584172223880974,-2.79290474859684,-13.46906018527468,-10.753823858076412,-6.150492983820958,-4.18009393616416,-10.676590261393882,-9.332723475186995,-8.54950692923563,-7.75840952100435,1.4135863086763591,-10.127390498703582,-5.107364699523618,-4.448889576031104
74713,,1.5957172242097162,1.9249223574080212,-7.617651168353863,-12.078961331950408,-7.936917076769844,-2.4767004201582337,-6.331016748134806,-8.158250183579712,-5.1730077694100265,-6.891845189008084,6.539303780394273,-4.191331333593348,-1.0329696769723071,-1.0628023204102404
74963,,0.511798744059818,-0.5619141721166097,-6.64405151642443,-11.098706587633671,-7.230795340412998,-4.139749501443528,-5.592738348322052,-9.391422247932852,-4.797758230272626,-8.1413874147447,6.00916383089176,-3.888824838293094,-0.8181813770981972,-3.5750646940850785
75213,,-1.6674375945743258,-3.841390371254469,-8.46342048951724,-7.585760711779557,-3.010832190965456,-7.275232797463202,-6.923144981675468,-11.457214198985907,-7.887223397363287,-9.36092687347396,3.492412956266977,-8.091695315099738,-4.391568268425078,-3.29337960824161
75463,,-0.6388218819956061,0.3222284234989828,-9.719059368537334,-7.6154339391591535,-3.672528429038313,-3.468180473165071,-4.748377909399142,-12.38180216938478,-9.258727193590516,-6.931440951522838,4.642077275846752,-3.8266156241784346,-3.31637477708982,-3.825841279542803
75713,,-0.0758660565532111,1.3871012729122414,-7.333998267684045,-9.736772154556428,-6.789537445516018,-1.4632504947174854,-6.825287129502126,-6.949150065017088,-7.454874097059533,-3.8647362792625466,5.34164326639298,-3.1495059615752607,-4.380501994243456,-2.6442614412324854
75962,,0.4920146997120941,1.7700482659785195,-5.593267669126524,-3.497089676116532,-3.09257136871715,-0.3412118112597461,-7.316396209837734,-6.018917116126369,-5.051122062389144,-2.8306622566841,7.471968279241256,-2.5270435984886186,0.508916987377739,0.2032012919401143
76212,,-1.274620524097129,1.8152015328318825,-8.967597479558709,-6.458433316171517,-7.048687033310226,-3.086340400285088,-5.019914039331633,-5.776057535853702,-3.9791794889436543,-4.913062440079818,6.635228635507935,-1.3500893432932806,0.3424120768952652,0.0586507382465928
76462,,-3.311552717544033,-0.0370778779681523,-11.046571378177203,-7.895851738893245,-7.137906730069715,-5.876718741632772,-5.060335665669738,-5.189428654240489,-3.189719925542483,-4.239546522806581,3.8668123938315886,-4.483736093583443,-2.151169879745606,-0.3848274548127552
76712,,-0.1161308100793327,-0.28097838174259,-10.187119926476434,-7.735402419410365,-4.725971441757759,-2.942387240133667,-6.677361148072839,-6.009901135063429,-5.653996563187493,-3.57598567767972,5.662450830542893,-0.6615466959228029,0.0055161315744309,-0.9705858612817988
76962,,-4.020807555936649,1.1896679925906308,-9.67683940244322,-7.832665684751982,-3.866966064836373,-3.1047016085702044,-6.263162650642854,-6.1070282193637935,-4.913863428050892,-7.255718978526903,3.2879801721962694,-3.339747504854835,-2.1365332509795456,-1.991112927626017
77212,,-4.575529296271691,0.819263138883003,-9.617425048526515,-7.314955970713872,-6.111577964998533,-5.787950114061577,-7.538659206901588,-6.367320926907281,-5.422636667557254,-8.176978517847102,2.917451292501064,-5.179933810787345,-3.095238479505302,-2.318433537837508
77462,,-3.509374475556604,-1.180693516794845,-9.031397195167107,-9.054465900856169,-4.742445068205433,-5.664721906331359,-6.980685332972526,-7.540164540226646,-9.56390720598346,-3.746246088774713,3.68410902550706,-5.501283731843918,-4.218557522412764,-0.3914118708726293
77712,,-1.898810004623577,-2.125932719735376,-12.423036246594588,-11.034617518441738,-5.887492336479462,-5.857941458454706,-9.126878602450889,-7.545239489038462,-8.1430963405366,-1.4517761698672356,2.982802227204103,-5.801137040168478,-3.971584520537856,-1.301290368363435
77961,,-4.146779511411154,0.2097302143679069,-11.565855084909964,-7.645015472165739,-9.666624575877794,-6.057077359563051,-6.382585133253059,-6.186982420805491,-4.438086679196491,-2.309169055693258,2.2730465798534585,-4.05177209273074,-4.093758299457719,-0.8022280940293469
78211,,-5.373201904482986,-0.6891942604031897,-10.464930265541463,-7.403358764630186,-6.025711214241514,-4.428577003316074,-5.920743475847291,-5.577075461618652,-4.855894558123765,-3.076641815560836,2.9628749238138896,-2.7307012222623124,-0.0632570716178105,3.4630167098689477
78461,,-6.132389794147775,-2.5644573130363484,-12.355955484694332,-10.12455982662611,-5.455184671373527,-2.990982113642842,-6.425683429078823,-7.778740607256457,-5.458709775473881,-5.467151354794756,2.045356436849074,-5.063661946513047,-2.172478546330357,0.6711950188303832
78711,,-0.854965683999829,-1.5792928729998412,-10.599793148627157,-11.420017305723654,-6.744428826571403,-2.374564157370493,-4.325713792593314,-7.585273868343926,-5.341856957365843,-8.184633130278797,3.587527794198092,-3.128162440784532,-5.387829449383405,0.4891408166335013
78961,,0.0368124649425459,-2.39940696590529,-8.915038268103393,-8.593394586382948,-4.96970558703051,-3.9538035984605537,-4.447524366473746,-7.750591628804928,-6.289652433274519,-6.165009175473321,4.476348338343088,-3.924799981333983,-7.419158801202611,0.4537978193989689
79211,,1.0969907117970614,1.2964379036100926,-9.546136705454538,-6.897183093515135,-5.681909801325294,-2.217625978659183,-6.487237817931579,-4.668246362477035,-5.605333794664817,-7.036827427354474,6.423848342560211,-5.648604877948021,-5.027419528629885,1.0692735635394528
79461,,-2.15047986730305,1.869336555808989,-8.555711815405635,-4.256236211876657,-6.718551798850198,-3.733727134883699,-5.945283350804308,-4.782684007351106,-5.697953890407417,-5.466297073922664,4.955756978696523,-6.243314039048196,-1.0963720725527162,2.178333707848335
79711,,-4.552703629958197,-2.28734521304009,-13.021651196893346,-5.443203224915763,-7.172464360940262,-7.076778064950745,-7.277869798124339,-8.702151863319653,-7.19062339058929,-5.78978157961907,1.9925558431673909,-8.273620809300432,-2.747068729289878,-3.4927317708181755
79960,,-0.3509908478381856,-2.066296055905738,-9.120410649802546,-4.5137689279083535,-7.171485953634957,-5.949018330864351,-5.902375975594389,-10.5510026853169,-6.940686352177263,-0.6955278141905032,5.919383767726916,-3.3762647315296457,-4.796362652948253,-7.934823891860386
80210,,-1.887231242963585,-4.294311328660574,-8.710610752826488,-6.071791428744129,-3.792736661168436,-2.45708746428218,-4.420612095293337,-7.89422361616131,-7.486391371476804,-2.781633943104905,5.006105355136884,-3.009817049153376,-4.832425421437714,-3.211976784458048
80460,,0.1578150624933672,-2.366214008232346,-8.016029767067598,-5.010033220467129,-4.007741232257437,-2.8139397244867355,-3.149919812645956,-7.601346994698138,-6.069824001111517,-4.336797825090757,5.598308070870304,-3.066503171092555,-3.078154859239528,-1.6184208837997338
80710,,-0.9307926992934746,-0.717965012313803,-8.89465956768111,-6.381609581912433,-1.809008493190113,-4.987529625945035,-3.694733034078976,-7.988895190212823,-6.896339541609464,-3.293109003525363,4.727814027016847,-3.0214321774860786,-2.853536796433352,0.0179207215068898
80960,,-5.253991688802272,1.5963196225676053,-8.440349471279013,-7.149377688322519,-1.6970617415985347,-7.384367921823936,-5.317037056223974,-5.675113506089477,-7.59164344313162,-2.166601408574415,1.677185652066612,-3.915153693011775,-1.2617004425323552,-1.275943573524404
81210,,-2.932930850360478,-0.3534954638658637,-5.669325508321048,-4.879373275728637,-3.2589853740694337,-8.28545314931965,-3.808772525584926,-2.502723599120216,-6.838270928107111,0.5394890551337004,4.035946175065859,-3.3113677796961927,-0.0339464282502327,-2.485459607217991
81460,,-0.5910885928424657,-0.1785792570316384,-7.695276718384594,-6.219685223330136,-6.693966706950505,-7.900159573951605,-3.7329142061877247,-3.151129251224294,-4.225223246039954,0.98529163073838,5.819988221068796,-3.257467809076348,0.7095080303282983,-3.4858776288393214
81710,,-0.299600448730888,1.4495418107468154,-8.641019574456362,-7.368275659210982,-10.831405415497857,-4.971251436430103,-4.094173312258366,-3.150563736890385,-3.478132041271442,-2.0697435039855154,4.968075242370608,-3.7537418459036207,-0.7851810527816347,-2.4521599061903925
81959,,-3.4194777684036626,2.663628500716087,-9.684392644245763,-5.314842820074922,-5.036661078310933,-5.189761609850624,-5.817339976002222,-4.989820535683374,-6.148973881509861,-4.455691499426412,2.2120254326215147,-9.83251817489846,-3.903638753949611,-0.3561248305188739
82209,,-2.5910601311822963,1.5073850779948637,-8.535424939979453,-8.347351912503575,-4.686003036100358,-6.369975918992475,-9.356860959412762,-6.706896800724551,-4.532841648453082,-3.9206321967915554,3.917642193308067,-6.875234695517508,-1.1018667176767902,-2.4627874608321147
82459,,-0.7997178418603325,-1.0904327863039471,-8.904166851534972,-9.075946621159275,-6.21056136674221,-5.105615056000462,-10.34337794556894,-2.047902715354678,-2.697823430289348,-4.449152116276816,4.780607942915943,-3.642379277531456,-1.9647737112175745,-4.294840015482607
82709,,0.5504800812653442,-0.328740546602364,-10.675518462175951,1.285345518387751,-5.396760002879596,-7.9555187557583,-6.004589972976511,-4.117454633431094,-5.387138970488467,-6.461372271071015,5.503140756270001,-5.96707461317529,-4.337944478901771,-1.3075816035558427
82959,,-2.921010626422715,-0.2887812499886426,-11.7626635084901,1.2560605906335185,-4.850437947608484,-9.04461233185556,-4.804594937645333,-7.153730012109747,-9.5674507339129,-8.589825790152629,3.2500698569167588,-7.2798642274582,-2.060917195621424,-4.525137577687017
83209,,-1.0110277060992872,-6.070339558087819,-15.301592323560987,-8.808188282067182,-4.182809314500292,-6.552923448139646,-9.677172729473517,-10.116520333724983,-7.468218327458151,-9.803144535110215,3.3893100440176456,-6.481967360150507,-5.261674715755255,-5.654916274321272
83459,,-2.4842515057446297,-7.776781059868274,-15.35976632318052,-13.05897322648713,-6.842824006636828,-6.827361772504741,-12.27950254661562,-13.86138657620866,-8.941023664020975,-12.859980601672898,-0.8382281880669485,-8.351169093981488,-9.192468138808396,-6.037225459385539
83709,,-2.1500468266101738,1.2623089814743862,-11.949188937920658,-5.03566611808056,-6.7344292624097255,-8.076690369813132,-7.28438661058914,-10.084733762068716,-9.987290102048318,-11.426832009324883,1.9735791701186325,-5.671815578751146,-6.158486867262166,-1.112940963355271
83958,,1.5023439205710392,5.380583338713772,-10.973245543445769,-1.4008008620972845,-5.281465147401931,-6.401807079346026,-3.32387110908463,-6.84409678652162,-4.649446560184064,-6.139837399555542,5.499086536762442,-1.6791385017467262,-2.538190234549067,3.3496653845662405
84208,,0.5536436980018234,0.6166694838517081,-10.22728822583085,-5.127291179918368,-3.63080821809426,-4.983362720010881,-4.269473198061703,-7.450990727630339,-4.477054405671471,-5.350328380594971,5.831276991673487,-3.3883415264858296,-1.4809231676267542,2.226559893022789
84458,,0.7731410172957681,-7.171575317305651,-8.816087138309147,-12.890574871540954,-6.296979502888291,-6.679636336763601,-2.917287313491144,-8.637594303015511,-7.227053586532768,-10.357864940104587,7.122765290110211,-2.458416747707028,-0.6391822563509015,6.451928351333617
84708,,-2.1205325498531598,-7.294507661962292,-9.026107995644736,-12.250146658900158,-4.772973821721505,-7.563352001504679,-4.787821579563336,-8.72991640719361,-6.244364939665895,-8.93836667799597,5.163691402274262,-4.041570954606087,-3.5982356601947107,2.570819456243873
84958,,-1.946673969068905,-2.4705646350698345,-12.84794967000234,-9.380705737818335,-4.019386878107361,-6.274097874686574,-6.012798165946959,-7.6144458144923135,-6.826006494733702,-3.609623141560616,5.391603021477192,-5.3584624396868,-5.132076831070613,-3.447272224985322
85208,,0.1229846146062705,-1.920078043672579,-16.520414012449258,-8.894449825074455,-3.552629050920224,-5.518805658002196,-4.974556331055978,-7.14392788254934,-5.3567321842611655,-0.5888436845139933,7.306628884880166,-4.655679118298294,-1.9443056886001149,-2.129780197187344
85458,,0.8857858679152388,-1.7301094484132131,-15.389987200621624,-11.30554838107518,-5.576496682947721,-9.19309360664842,-3.306474969595632,-6.195809169770855,-3.0598717813996408,0.466561023302839,6.053493240969456,-2.4435838286249787,-4.278270314917908,-2.145998121126799
85708,,-1.4486224378896049,-2.6628394053621234,-10.23916932405916,-12.078872675049444,-4.294533002900504,-12.28097959885952,-3.4588302847010026,-5.285925225775754,-2.754433187898369,-2.073516763993074,5.495008541244379,-3.815010500690872,-3.547556596490204,-4.4318831345222005
85957,,1.7646486777922998,-5.527111247631657,-10.00938495017878,-8.479562237772587,-4.166923060880657,-5.4853546025739055,-2.5840745375332785,-6.100469682489652,-2.351295203713084,-5.553364323373731,8.88474215962512,-2.8694435271174834,-0.9447234087786378,-2.6798858349828136
86207,,-1.587254179676053,-5.233327665041406,-8.112623474105924,-6.416700611134946,-8.005878465310198,-7.344531475266044,-6.876891515711394,-10.35306136728449,-7.261990521346338,-8.370961612418224,3.736972832750002,-5.477741628583914,-4.741305735973914,-5.18806266658919
86457,,-4.749139391514249,-1.9526787202822604,-8.027082877135054,-5.269948755666604,-5.844089446337267,-9.222378113160367,-7.131821507226341,-5.429240029044147,-7.152391365406757,-7.577473055570172,3.2482901758640232,-5.903484638144829,-2.9874761386545656,-1.4340006904181837
86707,X,-2.5738390754269567,-3.5017588193225024,-5.54346391113328,-8.357155577837283,-4.977277659545329,-4.4884886818279845,-6.463545898950683,-3.872006882529496,-3.560189634452975,0.3424398920834022,5.88893174861293,-1.8565413421045025,-0.0586578417111663,-0.6405569905008384
86957,,-1.1296519123007556,-4.506804497511379,-9.051205155915284,-9.500186043543543,-7.1204532286352045,-5.497418361301691,-3.1546530398149946,-6.900212474010797,-5.265865542818253,1.226005616917384,5.0156079767464,-3.869995457975675,-2.096146619651444,-2.2126256425092743
87207,,-1.0475909171992548,-3.8476383173467688,-10.136012870090472,-13.334092724796786,-2.765302614611503,-4.1096037654174085,-4.01475419069842,-4.147455479289326,-6.034702300064875,-2.151832464728204,4.446981296408685,-4.375336647633631,-4.553902669563853,-5.799953267281594
87457,,-0.2067730000256386,-0.1086888542833467,-6.293218191162879,-5.443165000255966,-0.6149859342801617,-2.3285143387309577,-8.373380628435907,-1.0499300174524953,-0.7762870713144815,-3.0507641391735363,5.458418816588104,-2.2297846640168046,-7.198691005825913,-2.2618793972837343
87707,,-1.3668631545608676,0.1551192866624016,-7.336864253462274,-2.2038336231415245,-2.1770961106335824,-3.763765425905606,-9.895976445103008,-3.410253650730916,-2.1059802131581837,-2.926258334049,5.255526130340758,-1.864321603761125,-4.226893409755606,0.6454315393190386
87956,,-3.982263403340168,-0.5075554124248917,-12.712856901148877,-6.945343170919883,-4.729385466657173,-5.593675524415963,-8.261649163954287,-6.329385730464176,-4.543586439615326,-3.4906139246170698,3.546815299852457,-5.201396117636862,-2.346438180497818,-0.3137861491474153
88206,,-2.2979194560033074,-2.6478906286065547,-14.25071305753312,-8.243765470781325,-8.217740764710081,-5.233463531317099,-7.98909252843613,-8.616232608719486,-5.059812412704321,-1.7412670197518707,3.392743021756466,-6.411032043691924,-3.485390651523499,-2.771003576417928
88456,,0.108999924028074,-3.493830592333706,-10.615262393929918,-7.950191342564499,-4.712496322455891,-4.245858462460325,-8.470463970102124,-6.087705386008303,-3.542584655586505,-3.446854697106457,5.7146348741154815,-2.3152896663276428,-2.539052940179856,-3.5042704281871795
88706,,0.5759200780681821,1.5287981327304423,-8.184751320446876,-9.164855279691164,-2.817094724772049,-5.009991342539134,-8.52460988202821,-4.1973741661975135,-2.06407109204061,-5.897164353176985,6.500142052312748,-3.7302060099117487,-1.8522920496411823,-1.9382724083092036
88956,,-1.0995733344956586,4.221829788548904,-3.624693341930469,-6.98202605246105,-2.798514822142126,-4.853044256197637,-2.9854629471527465,-4.492366637293775,-2.913579202851528,-8.25372240304443,5.948627026439707,-1.5140558694488448,-2.478122723300324,2.0640659777004955
89206,,-4.185490656150104,-0.3093477020346601,-6.369745043618932,-4.1740548391470895,-4.333875528574821,-6.851237840195608,-3.928262202820521,-5.322285546599498,-6.389096500793404,-5.481538561638226,5.8190226911021234,-3.550067018906225,-3.5448451831875234,-2.050040450810667
89456,,-1.1823294192702696,0.7464758178435204,-10.69796629236752,-3.744025963432682,-2.935380877966731,-7.506878956149496,-4.334381881182525,-5.845857292725918,-6.603333620087536,-3.973441337008116,6.251661313436678,-4.478567325090651,-2.640028633886394,-5.525300856585887
89706,,2.535187362669553,2.4134174256459926,-10.510192618829272,-4.908030565096844,-0.5643792951908406,-7.373145699895691,-2.708849970131518,-7.391972078422432,-7.006952079343838,-5.940670992438425,8.353542583927657,-2.2741831572514704,-0.7200253530745246,-3.422850589683088
89955,,2.960586020747371,2.7737422936333407,-9.011547133458736,-7.085390622569724,-4.274957302590417,-10.40316551330415,-3.533731449792268,-6.1172665065813945,-8.489481805245104,0.0975231431047536,7.924552987476123,-1.6754996598007748,-2.6280214266121407,1.941819178933437
90205,,1.2286326892602677,-0.6656989804934248,-11.519661749964314,-8.72036402755785,-5.864471597463449,-9.088651423313562,-4.266426318072715,-8.443425885821473,-8.558484061148175,-1.2473776244000505,5.937331670000137,-2.451332081211981,-5.250829129923826,2.46419439372177
90455,,-1.44602143783122,-0.2708899879535739,-14.549912694628444,-7.623757787636563,-6.207198966522424,-5.633347026958148,-4.575627641384456,-10.245923093975176,-11.652531566424214,-6.880644326845751,4.780004164665671,-8.789482650150216,-4.801449308451521,-1.4169912210739046
90705,,2.099355809738334,1.1560343598107568,-9.291538262493855,-5.874834817923444,-2.3680548398432557,-3.8082028121871696,-3.8003758052550713,-9.786904586735108,-11.470544951861166,-5.130442591489135,7.609546221579998,-6.510157393691194,-1.5799119369896122,-1.382954721466888
90955,,-1.7303054472643062,2.108397014363436,-7.279615252697445,-4.90257276193176,-1.9706176316213075,-8.181327689355186,-3.43299644818382,-10.941671797055148,-10.096249462279314,-3.500966666060446,4.55737203657852,-2.8446306222304134,0.8958390008838989,1.683437456673091
91205,,-3.767522284579064,2.8710117886930338,-8.608155174266892,-1.1786019784584898,-5.908892994998748,-8.597451800746171,-6.106303870786811,-8.567454005286974,-5.951559753302279,-4.394576017685446,3.7857187063707327,-4.8932180661411016,-4.271724812751065,-2.1972216858863183
91455,,-3.279882547261734,2.962045243361832,-9.88795413021796,-3.611860258676114,-3.9431666141774646,-8.16103428190049,-6.5805150803487535,-5.324380316732468,-5.247138119247678,-5.457841320804931,3.027642941314472,-8.19571532213628,-5.474528355828545,-6.795295052747895
91705,,1.187301128752518,-1.0821805684955228,-8.69342413454256,-10.975751815422491,-2.798247645019214,-4.350284041143804,-3.414553437957737,-7.40890496017938,-6.710180479834512,-3.705293901060682,6.026669551771051,-4.849969571761912,-3.5762731015530287,-3.823710623693961
91954,,2.357037645146512,-2.162029510103129,-12.09511906970868,-7.92324542926231,-3.060470450871467,-4.027041575997789,-3.421202337151057,-9.404486776131344,-4.99877130276542,-5.433406240076756,7.17200717136749,-2.8620968820806096,-0.9570388898231642,0.430932278749065
92204,,-1.937176682426422,0.4805062405135313,-12.605179754723173,-5.524880380744968,-4.054662969904434,-7.141462592193553,-5.618200998305713,-8.296482692451743,-8.817383382491832,-5.094068831911308,2.572970224413578,-5.532442757261622,-3.132402534834911,0.782197335986597
92454,,-4.7613301768392615,2.4292787522974417,-14.7662003533613,-5.347762270911568,-6.787336451013775,-8.249530215962547,-4.652868631677453,-9.357323708100587,-10.547936150821076,-4.19256882731278,0.6142394826628051,-5.168495712338163,-2.972145466966284,1.33554862298915
92704,,-9.848948806998756,0.808820833025625,-10.076702438277763,-4.921004442424057,-4.739704946216427,-6.621453660601743,-5.162695499555515,-10.89767696281211,-10.385733388624214,-7.09325027813502,-2.584101602158573,-5.342043852371643,-3.002309464293233,-0.990038656208878
92954,,-5.483198991604992,-4.2565041391370055,-9.489373644279988,-8.602398390038266,-2.409492305231094,-6.0042057446171775,1.6860626007222237,-12.237933356109156,-10.421141164369065,-5.7853923669325615,-0.0280144726148315,-7.543394662632763,-4.314440664146879,-2.462117879473502
93204,,-2.9174395567084583,-4.124023310287145,-10.565351244908909,-7.29710991473719,-0.3503098787583306,-4.929220815145582,-0.747687564299429,-8.427412692655258,-8.972598285310943,-4.174206556405345,2.339845467628342,-6.51746088833991,-3.5471646305302285,0.0230385455549173
93454,,1.8934340418811524,-2.840298787560607,-6.822921996490062,-5.630909169536219,-2.2762190606528647,-4.3511268161412096,-6.108136339524971,-4.1303687614867695,-4.376837861287517,-0.4156262915750955,7.771303140193513,-1.160551488740684,-1.9943328067824693,2.3116440403419465
93704,,3.1161762843083456,1.3850289675750882,-7.542626477965506,-1.2959641792295304,-5.7830114723565,-5.245306455448739,-6.26432196450261,-4.412088039007218,-4.525288595289268,-0.0292568294729653,9.031670362579565,-0.4442706611568996,-3.04410478896978,2.7342850015168194
93953,,0.0364101698022382,0.5364576323746018,-7.377247873715442,-2.690143467805558,-3.9377815975157104,-10.369124100274432,-5.7181109939825,-5.4532510817726525,-4.249722816587079,-2.527196334856999,6.202956883250418,-4.267208668616051,-4.205338309456427,0.0116215361758295
94203,,1.4229460664737912,-0.5607575038357573,-8.4813911309965,-5.868196514058721,-3.293671662806438,-11.022997005678858,-2.958135836129459,-8.608146368865125,-7.829535446432562,-8.249829442464518,7.40026445198398,-4.264615259071361,-1.556826307892032,0.3709348725619941
94453,,2.370347795980065,1.1553137513733025,-10.760573117122531,-7.428087069690941,-3.11999668486365,-6.990013586055232,-2.8688981038949795,-12.99020231678673,-12.868956982477908,-2.782310025107915,8.700635152951113,-3.4699024463254142,0.7428850965378644,2.0120048886079784
94703,,-1.529999737028227,0.2149780685509658,-14.840681948321038,-10.655580058247931,-2.930526195739287,-7.582405374822946,-2.902654833415042,-9.155940827356904,-8.81601416596647,-0.4943110638401944,4.921968600886877,-6.43706282398321,-0.2270308047757423,1.9889275044282375
94953,,-1.4177919260184164,-0.680388863618861,-13.587127345223216,-14.599971847497724,-5.474952247532109,-7.929794264935719,-2.167096919335332,-9.290455449150013,-6.979717029882125,-5.590829925310333,4.077727306811884,-7.19399856115067,-3.882531913571449,-0.948551255467378
95203,,-3.6698353942898487,-4.110288805871294,-8.128400856981933,-12.842084781015377,-6.439399872612045,-7.701453715619518,-6.273732394528784,-9.937485748939226,-10.096033366476586,-7.971889035846934,2.189279117952849,-6.9676430960755065,-0.9504427216054456,-5.08427784274598
95453,,-2.402193616689217,-2.654148575875137,-5.207857841321926,-5.6902587178309325,-7.529941629692813,-7.732710752448519,-9.028791421669574,-7.698778757968184,-8.41356390698391,-7.538171511673668,4.331372728140272,-3.6438377017978745,-0.0344765884790336,-6.164456474537827
95703,,-0.6366411383793474,-1.7053072504950315,-7.295304593471852,-3.927522406192676,-3.478284552652664,-4.340633935076975,-3.4074457919056487,-7.607343723411319,-7.569347070400214,-5.591036262870954,6.453389586743972,-4.130052034661885,-2.1611974283776774,-6.577658953644051
95953,,2.5784100767144267,-1.572009245798745,-8.128542144333116,-4.374400034569269,-3.564410566967145,-5.00343353304157,-2.551852162299125,-6.586418716056725,-6.378959677919274,-6.1507273916552325,8.136514705217749,-3.831119574165136,-2.245042139510097,-3.489095125372349
96202,,4.672118637602111,-0.1583778779276312,-8.358863159699494,-4.482946463563776,-4.797150249892933,-5.674152930322642,-3.548262042252865,10.14006104759994,-7.042195836766627,-4.825312746824184,9.800853656648838,3.5625546677979694,-0.7782390393986285,0.6797707001080535
96452,,1.3193514219681393,-0.6443293553691819,-6.908808325273569,-6.144427782624527,-1.719261236344831,-3.3230780508751456,-3.87995750940457,12.818834471011602,-9.788304393235638,-1.395834782602638,7.114350713991494,5.355249617126785,0.0433825732681287,0.7605833895502685
96702,,0.7384040146620781,1.4520590703291358,-9.59447350218257,-6.664911911823088,0.5429957628541385,-3.614749390536305,-7.081330395905486,3.4653833903053584,-7.252775110308586,-0.9738805455780212,6.038534735414395,-0.0918093229284099,-1.8676567312903167,-0.1483947393195849
96952,,0.7999266143561606,-0.0555392933288808,-10.517807182422183,-8.164679500186692,-3.355479185614794,-5.502550972873626,-6.428698318222693,-4.635290628804746,-5.6896577580038326,-3.1175630135553045,5.83055295105876,-2.2801480514781374,-2.624535247512992,0.1144242009039844
97202,,0.0889195443550701,-0.0521051056678322,-11.35109398855013,-4.198997250764805,-8.068256782308051,-6.583660576309312,-6.337305971386252,-3.400126286267401,-4.921316016695792,-3.0293633554762027,5.858635539366036,-4.808130775921698,-4.8398753522853,-1.990348056523109
97452,,1.070835326427883,-2.724396111823777,-11.192808558789617,-6.1912439996204185,-6.087650161607245,-6.301221626637164,-5.005130073096987,-6.2911877505179215,-5.40954567456537,-4.403079085435048,7.546536859686892,-4.69130161772629,-5.181903734007754,-0.4263238570559619
97702,,3.043105290572576,-3.111689096714261,-7.637371344023326,-8.879572651319169,-1.2539382142013444,-2.281501386473272,-6.9700303157740855,-11.12638062642872,-7.220418718163598,-8.050685599884636,8.441929810271608,-6.550410318620806,-3.785585666001488,-1.0442941130618424
97952,,3.4240196326192,-2.2325489405906978,-7.920332299645926,-7.27933055312556,-0.3692163510214146,-0.4187112277548773,-8.301010020796536,-4.700904114898506,-6.497858468541989,-5.6386512132595215,9.015610890193212,-2.6818059119408435,-2.5005619162159465,-2.5984073558852376
98201,,0.5550712288500321,-3.237635725759049,-9.573855173565688,-7.351537975364314,-4.083334778900686,-5.618544807210438,-7.289272611841263,-4.1989035553162335,-6.429456711526063,-4.402103243593843,6.3307007916981135,-3.1261863837423034,-3.995101514848459,-3.839465988638936
98451,,1.997327972186319,-8.079445236936287,-10.407585352870177,-9.963325766423738,-6.623874639117516,-9.606659511418556,-1.5895113677564645,-9.761824134335482,-10.734393809120956,-6.333814045238252,7.869224860055541,-1.1653761141487915,-0.6758820390888622,-0.3640478984367996
98701,,1.304326984191457,-6.441749602505473,-13.264095972755507,-10.870573792428637,-4.864204461604363,-5.784907628276347,-2.7825345725851207,-6.879132680207306,-11.210367090461917,-4.982680724783497,6.590958218558506,-1.8227109734397495,-1.9762784802481648,-2.290950152012197
98951,,2.9444460776250203,-4.498631841817778,-9.753878650365085,-5.978474250673944,-5.004061206234304,-2.0059188729711206,-4.255713888187332,-7.575198082093139,-6.580122158342693,-3.894453751353982,7.478035462118586,-3.875182666087394,-1.632754494260963,-1.6952875280517488
99201,,3.6187239912806985,-4.54472341035115,-8.154728844234887,-6.459020074581646,-4.414055319068203,-2.9897328825744767,-5.671903539231364,-5.756371753891467,-3.0565516187823967,-4.016905782219113,8.826732304900537,-0.6950349645307169,-0.5122349960867821,-1.4694594133805094
99451,,3.0650432161554746,-2.386133931209228,-7.2455986513035135,-8.87893599998652,-1.7551843205065016,-4.652157892008043,-6.622940484461392,-6.280646138151823,-2.656441615744301,-6.24287943191288,8.424870695123127,-0.9574906151614724,-1.4376745090095355,-2.819657155443378
99701,,1.845725493200927,-2.8425941574948075,-8.727804033107017,-8.06891996857933,-1.8092771035107011,-1.746250713927787,-3.825945026166584,-9.096363889916246,-4.53988161535446,-5.347787496867108,6.6616496716081866,-1.8569810609941464,-1.9969700901299663,-2.1234237274893126
99951,,2.162035173822441,-3.736300043187504,-7.37531920480807,-7.165506452740855,-2.547621142048893,-1.683545028439396,-2.839594563174993,-6.238552891469631,-2.467096784100336,-6.135733641755058,7.518855625680276,-1.8275419338017056,-1.5594411602093194,-1.548922645274312
100200,,1.8895257241044887,-5.190240328326015,-7.298550589831189,-3.5002678678526062,-3.1889363641628488,-3.0777887861802804,-4.529430260424468,-9.562004505748869,-3.745092043967596,-6.343882252841193,6.7568120027597525,-5.738740078883974,-3.01359579520052,-3.8637634237225775
100450,,2.9713665089733468,2.877501142038294,-9.349788315845393,-2.798425825591726,-4.244463871316434,-2.0772873463272843,-5.021591493000338,-8.743113755608798,-7.791230235661064,-4.74784790921604,6.814270929324989,-5.255227686327072,-6.652950461865247,0.5987755356889732
100700,,3.729201037270291,3.175250595483485,-5.539582246624468,-3.126782007492137,-2.722370922009567,-0.854004987520506,-3.689553852366903,-2.819226618440463,-2.1123502989612035,-2.790925605174346,7.979419196826056,-3.9881236138227742,-10.232150832916885,-0.5386295932806511
100950,X,-0.1771456720976829,1.8069958435118292,-6.077194967475787,-8.83280115513514,-2.61839354969462,-2.422735760700599,-6.077217026034535,-4.629163617350277,-4.3630038367241655,-2.5320537960840044,4.823504286483495,-3.732273464172057,0.5123553781794009,0.4631874236785553
101200,,1.020382654791617,1.9073858246846864,-4.678250237190991,-9.754686694951612,-3.9189166865960416,-2.069116396041097,-2.377179424140052,-7.63335043737272,-5.528098594561631,-1.424658974979593,6.686371248603232,0.0545429129833786,3.706585537109716,3.2938321540880366
101450,,-0.9345475076835668,-0.3762840728551037,-6.673538667210931,-5.455167200727108,-7.192328836066518,-2.242445362675129,-3.549995751260499,-8.00230371955208,-3.5914441148822998,-4.702611305160262,4.055210940837259,-3.718837811044984,-2.0700100041395606,0.0340271793651548
101700,,-0.3273404114464093,-3.3144749468447903,-6.976499972095237,-4.9469097125505614,-6.6605884633058166,-1.702238390340747,-4.276027574278025,-8.924592105994318,-6.745946898226418,-5.183612874902428,4.76607206444518,-6.523124028789823,-6.568003702337748,-3.625704910550835
101950,,-0.3079530743481977,-2.771205935845669,-7.433148005013466,-8.44132956184071,-4.656488830748914,-1.5320837898669046,-4.943950856202527,-6.272755058187755,-6.386894663746496,-2.74171668160411,6.207038040645239,-5.493864069280284,-3.533040538653138,-3.804530405931255
102199,,0.7528244132253221,-0.8832146385580297,-8.28406832454775,-3.694888273970538,-3.877662346188468,-0.8158910846172089,-5.725829474269924,-4.198299990711792,-4.038153512095164,-1.122584741154811,6.780083973192279,-4.056688404035953,-1.7484725623815325,-0.6154872145417393
102449,,1.1627297425679466,1.0759354483638577,-6.5654638546954,-3.452652804711132,-5.047235553234522,-1.318960517389152,-7.619991114432651,-5.062692417110474,-3.928669371728119,-1.5541690461309343,7.431871815382195,-0.773003152939864,2.127105964122359,0.5201309943584758
102699,,0.1249363413736356,1.307639877297092,-6.9998153623131305,-5.3632876268333805,-1.1447389986830476,-5.60333344441907,-6.439712710055382,-5.609354963556635,-7.623126756808457,-4.398221557520063,5.50549444459722,-1.1383854123524908,0.4580078278808892,1.0518670213353207
102949,,4.989959073257186,3.20320344630602,-11.59336975600156,-3.741273750983838,0.0070380696747234,-3.317323171167329,-1.170096379702597,-4.061919641648333,-5.524502000986203,-3.5149601675952664,10.457078859687316,-0.5168417214206398,2.294281784613712,3.71608278621735
103199,,6.423567857696241,4.310088403551938,-11.224843393488872,-2.776062902040501,-2.4815812958196037,-1.3975108282711848,-2.0645239871357552,-1.4567832319655496,-3.754078422643363,0.2529625279143197,11.404347951245873,1.6106079881761668,2.243833273163625,3.437821861647665
103449,,1.7314918547946423,1.6129431045270746,-8.809833923232125,-7.235631961126838,-6.322572915408404,-3.982430189353329,-9.474216091208314,-5.827517305878812,-5.8763093204775,0.4037992046037764,6.220120146538996,-1.17200181275033,-3.7627049242113086,-1.6355181071261635
103699,,2.0349176324788725,-1.936208829229108,-9.687398258001169,-7.435894403272142,-6.651804056882594,-7.45787728010052,-4.089714105354906,-5.872356564303124,-2.5576916363540034,-3.0441165001098924,7.238326869164638,-6.286718446413483,-8.05702046051456,-3.8764514956753993
103949,,1.1316642686569285,-5.552292205120587,-11.329214916057229,-6.710330062728573,-5.623311661271496,-5.15758523846997,-3.038366492956864,-6.697890567794613,-4.401390957703455,-5.734808226011396,6.237240155920155,-6.344501716172749,-3.82881888353746,-4.539589780176313
104198,,-0.128547937074219,-0.3041157100856394,-11.37210622703605,7.944419867845759,-6.564884905594827,-6.413533270025834,-5.786593156685466,-11.09091277114025,-9.820526527920531,-6.740558529852225,4.376305674281731,-3.7735532537466,-2.2685559056093525,-3.55079942478824
104448,,1.8404842994046324,3.69280163034584,-9.30880793218151,9.06191238861391,-3.370698305142494,-5.712837908537608,-5.766848447099482,-9.777862824192391,-6.542130846799847,-4.9362723603175125,6.584795780618102,-1.665386559016385,-1.8073578010498736,0.285493285780638
104698,,-1.078988343810945,2.4677385084589973,-8.292323028152145,-1.337480274046297,-2.6550027661142064,-4.288538137539279,-8.850348944263434,-7.451363099969509,-3.3456106150612563,-2.588369655427384,4.57367818924739,-5.055708254622533,-4.787389862620282,-2.421732500793105
104948,,0.2315537397444537,-3.9303464674959705,-9.678756927391523,-6.792455492144044,-1.4785156980173246,-2.08025892348868,-10.273780660558025,-6.584008351310943,1.6661115260109616,-3.5098826443041005,6.000207103531396,-3.60681129140202,-1.2554744904441195,-5.13759006387776
105198,,0.6764557881236457,-2.480212017065257,-10.85330609190824,-7.85903868791981,-2.980357266502589,-2.755082780190303,-9.62272368851725,-6.403338183427799,6.745970766781053,-6.262483933650222,6.098002927482318,-3.136269172068049,-0.0506849159825214,-3.590948548233533
105448,,0.3045597701572115,-2.443172986934829,-10.968067410437683,-7.199303620373378,-6.096751487343361,-4.163416738381721,-8.808861315529699,-6.27021588577581,2.611836641760157,-3.09823764886937,6.8726773965042565,-7.02294702287877,-4.595102668619398,-0.674769878858978
105698,,0.8835678316202427,-2.3186169881267515,-10.557280945842717,-6.909313738261264,-9.640597738266086,-4.156193423173332,-7.487406930666741,-6.392152118849238,-5.116186463140346,-1.8364567762881177,7.268288383149893,-8.728734874935743,-7.054255640259002,-1.2152675572299805
105948,,1.5955598238305346,-6.026890133973964,-8.928233371798152,-3.2663275298412224,-5.908237498933237,-5.731845527308963,-5.587295916859355,-8.390835944389172,-9.839803157264273,-2.729993137157046,6.337084428039884,-4.806966200009172,-2.752476857924722,-2.178451235561959
106197,,3.4229520004395053,-3.556869663611237,-10.608214575581592,-3.6403686251590655,-4.084243253816051,-5.865742668666067,-5.156876184908135,-9.45966945072852,-9.383705071128322,-3.986943688078312,7.98179329603631,-3.4032790201908285,-1.3972358165165204,0.2735294552550109
106447,,-0.9372710732578248,-1.044759172034306,-10.400636296406311,-8.238315998808753,-8.745245663979693,-7.9207293056775985,-4.936545231084594,-9.230751935050378,-8.337286253399633,-7.857301937777823,4.4079708943614,-5.194019688923661,-5.785114638965132,1.8963181324911549
106697,,1.6537519926437327,-1.9072180774773035,-5.6472353580787535,-6.8897211936568405,-6.8064351543445625,-5.708867903762982,-4.266230851936218,-7.123218480506075,-7.864116762881928,-7.142327725576299,7.54517297444611,-1.773819122453607,-2.6997915234639565,3.4669962921001742
106947,,1.6581716554340016,-2.81711906161756,-5.260743906162668,-6.931473325462379,-3.236848155640959,-6.327965455298516,-2.271706804487788,-6.780264850451989,-7.512194594956765,-3.019081980211068,7.316393041212578,-1.935699770719176,0.2926988372550194,-0.7352731914065697
107197,,0.1207626034571302,1.485688746105184,-9.018602912227896,-7.569017113318318,-2.756386564390008,-3.956026135154536,-5.113978115809622,-8.815152511011927,-5.30469110000986,-4.585106905713995,6.116962455609974,-5.978371786840928,-0.4616778286656989,-3.1664032983537345
107447,,0.2188911897207758,3.3911750123614266,-12.097478392093247,-10.777850903770002,-2.5615165223684326,-7.169521878808094,-3.794289248434501,-12.396449796710954,-5.308932740133967,-3.840231128675621,5.806870098555326,-4.956582112789012,-5.22957529432586,-1.01804390299352
107697,,-0.0759683164673109,3.250934614971708,-11.391258542301255,-2.147160053933753,-4.449938173074479,-5.627750303581735,-5.516638761038637,-10.380746059831836,-7.806594339479883,-7.121173203150848,4.288842024080596,-5.561054242285896,-6.241925347214069,-4.496018734036919
107947,,-0.9636135400281872,0.3324350651706381,-12.451978628486724,2.4515751826341843,-1.912942463871496,-2.160720620722738,-9.211441210485296,-7.277140689049162,-7.935833524473229,-6.60916119641148,3.834180528987608,-7.194262100658265,-1.9881024788213095,-3.22695321448115
108196,,-2.1492888813243463,4.229715174996435,-9.27671896312363,-1.2468926327470642,-0.4958403199431909,-2.8011468872684158,-7.803994401286096,-6.229859877368221,-3.2363361894255656,-5.422127175658433,2.917340796259389,-4.657626938487935,-2.703627521037617,-0.409438207116442
108446,,0.48616215853491,4.728013427700038,-10.388737264225671,-5.797365568449109,-5.980916035298235,-4.914056890400813,-7.352358406329027,-7.521848646685795,-4.656511367726867,-4.7825581192131565,5.160286516955345,-5.443024783683836,-1.7018311221959386,-0.7860931506063311
108696,,-2.380932631458098,-0.2141959722091062,-14.658152124438228,-5.350577083731512,-8.950432564921627,-6.50816316970559,-7.576718534206939,-7.8677026750071235,-12.179833134943024,-5.128430674328907,2.0171129237312417,-6.824946661243141,-3.532306331990936,-2.4542691586115675
108946,,-1.168906969823083,-1.262246431315834,-9.501287103610752,-5.628553500797252,-6.137397443116023,-8.02925738313092,-6.481034844475024,-12.011186528215369,-9.827599497769494,-2.8938777781451424,2.5415647102647334,-5.052806378351498,-8.496038715681637,-2.940738189568721
