timecode,event,eeg.af3,eeg.f7,eeg.f3,eeg.fc5,eeg.t7,eeg.p7,eeg.o1,eeg.o2,eeg.p8,eeg.t8,eeg.fc6,eeg.f4,eeg.f8,eeg.af4
0,,-17.974603047797263,-6.495755505730749,-18.391618671970814,-14.9777177822031,-10.955008418068935,-11.964288092817648,-15.19540165671094,-14.525293589279746,-10.045803099271346,-12.263630981342118,-12.917400480563415,-15.036833330911342,-12.742999273728392,-13.972773132336904
250,,-17.96142936493531,-8.188329521420775,-17.571664641011623,-14.330582856413052,-12.72638007383277,-10.250417346498915,-15.751948079006972,-13.94513256684258,-7.327791449416948,-11.923679246244635,-12.716233431349416,-14.458938658187344,-11.33675589592273,-11.694343908692794
500,,-14.358317307941116,-7.591210937229883,-18.24405072484189,-10.99259730604997,-10.60404318123866,-14.945277175529808,-10.50211033173886,-16.12841815102463,-8.841039747489814,-9.204739954408332,-11.70351822442367,-12.110078815997776,-13.515569630396987,-9.795621407466744
750,,-15.679577376901568,-10.072163771730384,-19.279501153396627,-11.992890061337212,-14.253636030196384,-13.32995917545363,-11.052849085710063,-18.344665992332686,-10.247617896207217,-10.925915205081829,-11.637954144766036,-13.381047932332882,-11.788023258832732,-9.887117109696865
1000,,-19.599165620368208,-11.844887518216328,-18.471117518815696,-14.207790663526376,-14.709388877278332,-12.855102703427963,-16.23760820280018,-17.45982994876398,-12.317067824599254,-11.501328130594736,-12.089310795444,-13.93300558244498,-12.596624240608502,-12.783447627408185
1249,,-15.851997803265654,-9.89627152879938,-17.503604461719245,-15.302399774501817,-13.99393111751182,-12.171530343007582,-12.741626548071784,-13.621260371196197,-12.105610722081328,-11.662382746711646,-10.567453672968634,-12.735859810998402,-12.910257266342269,-15.63149997030042
1499,,-16.26544067174001,-10.819822167963896,-16.17884107470459,-14.184918693174495,-14.02137599181881,-12.696882582889478,-13.301630568707314,-14.68333696687149,-10.610137357410531,-10.158482967887076,-12.505510141015774,-13.85251946412556,-13.106069419260855,-14.514008190414936
1749,,-16.963735947211514,-12.093440092400227,-19.14382244553446,-14.417020965768286,-12.43950286056413,-11.951308778744544,-15.064634035678813,-13.112749624103255,-10.13273189686008,-10.418873448746997,-13.498334769434106,-14.943662069273689,-12.467764047746464,-12.677392900508352
1999,,-15.927947375514073,-10.94156859922388,-20.728109425762185,-15.438276264614425,-12.265909136258117,-16.005885059964015,-15.073325887374851,-14.204304882216777,-10.309925209016562,-9.30673291919219,-12.534134334597011,-16.245731633641796,-16.229511675182337,-10.885137610683229
2249,,-18.44018923776718,-10.837260667217231,-21.91411868912601,-13.258094590926476,-14.024100692061849,-16.386813875769814,-13.460137704480715,-15.221665576781016,-10.13340087642656,-9.73169896787365,-10.690019124512586,-16.960707593839558,-14.906601596099556,-9.819708386480109
2499,,-18.72605057875228,-7.680556972896029,-18.433777911304794,-10.277436379043642,-10.735042740635816,-11.49880622023003,-13.686163872024444,-13.137709738838767,-10.993215394313328,-8.895833056017523,-11.923851946628512,-14.51226109837988,-14.563775463956873,-10.051104135673851
2749,,-17.687798514741306,-6.953979850540957,-18.033445495207296,-12.706443129586797,-9.166816609497715,-9.542004163619792,-14.400531803217726,-13.258104954706294,-8.601686304912501,-10.05456430768356,-10.487998537507298,-13.885588323749388,-15.754432326670882,-10.859443888157294
2999,,-17.541075368404908,-9.427546149610569,-17.663370331567243,-13.464849148210847,-10.3848265836329,-11.487409219687407,-15.290788655314598,-15.090904750025889,-9.414044008336225,-12.988255956617689,-10.40259757776332,-16.642272985744427,-14.586613046812252,-11.21344256556352
3248,,-15.933130740524224,-9.382239956680126,-17.23552926299639,-12.918972759361186,-12.52122577540554,-14.073287445931552,-16.8153274456424,-15.393978361674517,-11.65109474920736,-13.485295780658236,-10.488108026222744,-15.500259188624316,-11.07144511279188,-6.740258566054253
3498,,-12.90845595487224,-9.44325374983839,-16.803494808053355,-9.215729187917498,-16.323225896831328,-17.367404033558987,-14.529035883454998,-16.13962552125369,-10.237936567080848,-13.999668484805069,-10.455874647517566,-12.65323981612944,-9.832438626928557,-6.841476700222843
3748,,-12.065629703578317,-8.615328073179993,-16.041927520223954,-7.220306250712878,-18.99883631707133,-13.88591501268885,-12.296270889668858,-15.0179650965502,-7.994411042163836,-9.54299867367532,-8.853783198596354,-12.078373661001864,-8.596758015649431,-8.347809631009373
3998,,-14.93145147181967,-7.698312671956199,-16.585183424974062,-11.40810340000658,-13.001852911043786,-12.798608973458151,-11.241108522260449,-13.819655821323844,-10.65462962561637,-10.855708702619893,-7.879635789518062,-13.875458545262006,-8.132103793011463,-11.502145559022384
4248,,-14.876522833728234,-8.016089630888182,-16.023885951625918,-10.96532287499734,-9.669104886212269,-15.561157359235274,-13.171502988831696,-15.64208667684798,-13.315045796131262,-11.554977476783945,-10.49939752165904,-16.059518209707353,-13.26884013154963,-11.179054025364223
4498,,-13.71625121386915,-10.530518232743685,-15.077433336237894,-13.207346753792091,-9.1803849497994,-14.70792001306549,-13.307940095064914,-17.185582948154842,-14.447215726253976,-8.94741670532909,-11.178768866016709,-14.95381021625892,-13.02000921086806,-10.625203559050377
4748,,-15.344182126489406,-7.264389502734502,-16.39751570352573,-13.218293541909238,-11.300666645846174,-12.914998457602966,-16.239909800961215,-17.95657935071043,-15.782038269092148,-9.742733308110449,-9.217132501394444,-14.639803016966,-11.568442137776168,-13.37226494289396
4998,,-13.70113500796565,-8.839493763208399,-18.024064700189008,-10.179008688954347,-13.417280720446325,-14.277062435940666,-15.529291303334292,-17.432852865464096,-14.675231974757375,-9.8600233921476,-7.221352220944997,-14.983601165409237,-8.996955931549927,-12.062946276934186
5247,,-15.683652824889782,-10.569417784451469,-16.080368786116743,-10.05262610138839,-12.937420237809922,-13.490989533493076,-16.77153939850515,-16.147965406239297,-14.713509808112546,-7.738199903753858,-7.973414088383308,-13.754219577198713,-10.45553756187192,-11.420466253335102
5497,,-15.58972482295458,-10.198983131170303,-15.32385469520065,-14.516265886862044,-11.882733138458224,-15.054200657159736,-15.571151347642733,-16.460311423436185,-14.751216683006897,-7.104213713102558,-11.157091034887186,-15.077823920899387,-14.621155239888912,-13.863132144061408
5747,,-16.110231576313296,-11.337548438680724,-17.0030199425099,-16.688929142673675,-10.817245008824576,-15.658663929356011,-14.555912034229705,-17.748425486658668,-15.314392350518066,-8.17914900387668,-9.684616296775165,-14.419748523124316,-13.058812510450847,-12.465659583002772
5997,,-14.849670916279385,-12.693444880699632,-22.381569362953208,-16.750149522008698,-12.921100163973694,-16.47335424543869,-13.079546279331216,-17.09618502478618,-12.992940943737812,-8.94148333981844,-7.69189477974522,-11.944144943597394,-9.198605032894672,-11.745653551367186
6247,,-14.767400176811572,-10.70958372551232,-22.418586464392902,-15.58066954334346,-14.350364594718696,-16.5107495197315,-13.372579280829386,-13.900129306157702,-10.806510620088876,-10.982078296361555,-8.870145302174384,-10.766150346505936,-7.972601173779896,-10.598106102013018
6497,,-15.77185487899391,-8.966706181947547,-20.762077358353984,-16.977527597282382,-12.61061669629284,-15.534281840080062,-14.81475549923316,-12.960204125788891,-11.007042436210174,-10.95601419826372,-10.75691493884298,-13.188387080422878,-12.461616579432429,-13.201651356374132
6747,,-13.03304243529627,-7.148842328504298,-18.290855067377773,-18.07089982775508,-14.754126956980802,-14.2985508249293,-15.093238579905345,-13.43684324537717,-8.945900323420478,-9.715073452797936,-8.676449828784488,-12.533300178139724,-13.04060458397129,-13.026485211758311
6997,,-10.629391587878732,-8.204688450547344,-18.909812652924177,-17.093821549436594,-16.756796255414557,-15.021712043605728,-11.491788431280806,-14.75694955193373,-8.805490832350625,-11.755451203930471,-6.775197726356352,-14.991745555353342,-11.622233721859503,-9.223779400868036
7246,,-12.964342021162144,-9.31207596023141,-16.40514277499507,-20.31571978197136,-17.87893220199655,-15.084836764403848,-11.980668294559852,-19.104142960092208,-11.630129892620191,-12.497527284859654,-6.1852334635735895,-14.33833480095647,-10.390278065620135,-7.154894403385624
7496,,-15.45232238984921,-11.330729394525513,-17.177475974812594,-20.353173769570105,-15.956415193521211,-17.056553183140974,-16.51128298642382,-18.306051796358613,-10.362350032901391,-10.172642973127996,-7.669700930421206,-13.80183696653794,-10.69528498521147,-10.08824098986205
7746,,-16.919889912557604,-8.599995484414926,-14.99293975413148,-19.775419446403287,-11.590357921286197,-15.26754091456903,-16.04361777472558,-19.470974610972025,-9.686598853168686,-10.48508945760583,-6.891030198517215,-12.2801010752712,-11.936887521799289,-9.556374792340328
7996,,-16.886749843021203,-7.00922048359609,-15.62411221988684,-15.953028219861732,-10.63343526222724,-12.224886651882718,-14.58247001243415,-17.699444713156595,-9.697540030248014,-10.132226961931766,-9.899026560279276,-11.611360618625003,-13.272293161449047,-12.873126729810718
8246,,-14.432562006930064,-8.924196240767309,-14.631166723369295,-14.735205770510616,-11.47125227331701,-12.90458115851525,-13.3354486881439,-18.475358067063045,-10.706173411619568,-9.255872400402431,-13.254599264593638,-12.05207082496223,-11.318814347306867,-15.585425460578596
8496,,-12.115209809049066,-9.635687852061595,-14.980662773613718,-16.608780081511846,-12.798779301472734,-13.556071164746724,-14.842284810593512,-16.41524254551183,-12.607438474017908,-13.038926487059822,-10.975263687568384,-12.0687706504961,-14.10486422914433,-13.099591373485984
8746,,-12.438000797310876,-10.50329483667726,-16.11595006615816,-16.286119754399486,-12.479630064663494,-14.58591448779205,-12.218381625770508,-15.409753212661265,-12.29010900489552,-9.976181172234304,-10.42349152821227,-13.041990627770051,-15.25035413234473,-13.6951079690361
8996,,-12.552965397076264,-9.728299670694222,-18.528952919842503,-15.570496969244312,-12.948000913277424,-14.661948471380546,-11.115282270717014,-17.03438192792199,-15.751891537250188,-9.193934008222165,-9.722639013733737,-14.783380825560712,-13.79821924890088,-13.62027679641943
9245,,-15.160814713660969,-10.908902752399923,-16.481673674622716,-12.456812898438605,-11.555587255845992,-13.865058545314112,-15.03662453741905,-16.074924626060657,-17.57340426841817,-13.53497683129354,-9.509484598740814,-14.894116714924122,-15.024054494839548,-13.18256315266874
9495,,-17.11480441189949,-11.921801941621034,-16.526631531710393,-16.258036205719776,-15.628365220016562,-13.3421980311999,-13.60112527087585,-16.877475610216663,-15.61417682212367,-11.80082430433161,-9.273826802436185,-13.82627440751724,-13.95608067688399,-13.441399178545613
9745,,-16.679586846159715,-11.029321437738236,-18.47797370508589,-19.261278838573546,-19.330072667059,-13.572783983575334,-12.921789053185472,-15.884388146627613,-13.095413876220782,-10.358624760848578,-12.15349683523946,-13.11777464671717,-13.114626365370942,-11.315693113642824
9995,,-15.33685069908602,-8.616204944125384,-17.07426799124017,-16.162040557919692,-15.853927522198436,-15.205280286887326,-13.237960991339715,-15.062783765645332,-11.950700002404565,-10.003604784320876,-12.527760158152883,-13.245373712118752,-11.088278463860814,-8.949853099672081
10245,,-14.349493199434436,-6.077556162314252,-16.259258265609496,-15.985776583296552,-14.339074206131404,-13.100045041831953,-15.615782298694269,-14.572276784073928,-10.033960566339823,-11.582724481006764,-13.86674415819497,-12.353897940212503,-10.126142864436927,-8.892319774937974
10495,,-15.74229979653732,-8.550335356542298,-16.224095407419266,-15.853932960209692,-15.077743984034786,-11.421221364436358,-15.823568287120173,-14.58257512861656,-9.587029269169884,-10.239782172488214,-13.647471337749648,-11.90978384778066,-13.822314869062142,-13.801528311012826
10745,,-14.31406799774278,-9.85548345204918,-14.960125679303758,-16.569541617186555,-15.698943888722134,-13.483874242685484,-14.109605819993336,-17.476815608830492,-10.277815602850891,-9.759340828851329,-12.3133085748872,-11.168783535714423,-12.811280576965052,-11.166793004404145
10995,,-11.340979780270963,-8.723476159888417,-16.050567329242238,-18.3159593528189,-15.751998964896924,-14.029876575440683,-14.774279043488116,-17.661226723561427,-10.95817012835482,-12.269957576706886,-9.874172627653149,-14.400587561186706,-11.569928402372016,-9.662854519071455
11244,,-12.32561054742673,-8.407534345244045,-18.902082178509552,-16.08619829197838,-17.468722407132226,-15.43127777731562,-16.515151335397682,-14.45098312887006,-10.823571178109342,-13.206424597298822,-10.005444762592186,-15.512462040328266,-15.002724836179375,-11.573085930442076
11494,,-13.474777053761075,-12.359600009522577,-18.27304456442743,-14.961600662881844,-17.687787441265886,-15.644883214037918,-17.35969755448984,-13.100052476630657,-7.887909138846387,-13.11365669182014,-10.321688218914217,-14.7650198147047,-15.068763127369532,-16.182828644849415
11744,,-15.322350040795868,-11.223112751644733,-19.920828748158,-14.349968855538762,-14.920619370536215,-16.112511992676353,-15.283219996504217,-15.30023744168666,-9.81381176850745,-13.687751473023969,-10.792917912231454,-15.381145575739858,-13.347264287751228,-12.768303757655373
11994,,-16.188681962124626,-9.057988612973327,-18.977913039233968,-13.679110123819196,-12.863245745715206,-13.511196336679834,-15.126949314590432,-16.81685971998604,-14.349826909221695,-15.478099779270524,-9.20088384305171,-14.292571357904722,-13.0009543658985,-10.674433811951394
12244,,-13.674676095976572,-4.158964495123572,-15.618300997548785,-10.93625859430912,-11.965027296493489,-11.861535158136444,-15.993450198279502,-14.739762919013303,-14.835348368228976,-12.63985170734739,-6.7375395726350975,-13.181046145409034,-13.308261780039816,-10.126991940693202
12494,,-10.502922702279449,-6.6620465320134015,-18.638508297887046,-11.679870400090808,-9.971241653292603,-11.31192426540828,-12.83773363218701,-14.765027638226728,-11.594508351488686,-11.530030569592464,-5.730891128351803,-12.31257163230186,-13.58246822747308,-12.760163403125963
12744,,-12.116061468524196,-11.482334379343724,-20.48326564208054,-15.697924068627458,-12.205641935505916,-11.90478876412965,-12.475809633244875,-15.394368499999862,-11.24013119954932,-9.786488834594577,-6.323455184136105,-13.12222040851612,-11.620229789349075,-14.80276213177153
12994,,-13.518490413037476,-9.884813515464527,-17.734955513066414,-17.06526564286875,-14.310001811284272,-15.151914444371188,-15.154571869267624,-16.678909363842955,-12.199404132714124,-12.61576814522318,-6.350948461472072,-12.090385958725411,-7.548511292898219,-12.325052038038216
13243,,-12.639567609663656,-7.219675905672274,-17.532360944804406,-17.275616861371553,-12.909073213428526,-13.71926080462208,-14.083393164613032,-17.309829336348937,-13.101090473628968,-12.281276534678074,-6.164642115128064,-11.140806863088194,-7.429493893242068,-10.668062798801
13493,,-10.290056094878848,-8.823639634516677,-16.92929907235468,-18.781357781501505,-13.338886270493848,-13.624934740806276,-13.962397276808376,-15.783535289683446,-12.053402703906931,-11.071943928674877,-1.972102944738907,-12.846051208551806,-10.03509577072701,-9.246624792536124
13743,,-10.013870182238902,-10.272960043373743,-17.158279491768308,-15.52664545865002,-13.309877304080567,-13.649883745221969,-13.505250440787645,-15.496761406022944,-14.963183633201496,-11.419260924360298,-1.7257291888233797,-14.990177734189686,-5.837650165341285,-10.787813462449062
13993,,-11.825024258394556,-9.77451992622676,-19.209190456399487,-13.48573155276777,-15.62235296456197,-16.728077713947687,-14.438885409481138,-15.241281608342833,-16.667083121913006,-12.09200877565224,-5.885962415773582,-14.346141251977722,-5.548566606656617,-14.563165665117523
14243,,-9.46129670119878,-10.810940598678782,-18.004022236098415,-15.061806747774709,-15.075883902187083,-19.236535754820213,-10.361665432828296,-13.331899072160398,-12.219700614248088,-10.600576930247414,-2.3124443470750795,-11.991848943160564,-10.200131387558866,-13.629400260453526
14493,,-8.100281274769163,-12.10516828083285,-17.095930028193905,-15.089160890837524,-12.675416043567632,-15.306315123122635,-11.71135257699727,-15.418604174406136,-12.625608551171188,-9.268560618740626,-1.165203151587682,-11.773893046217118,-11.5954343780706,-11.849795242742154
14743,,-10.669877404176033,-9.279482304421656,-14.871734759181544,-15.715421307096689,-11.490002526545895,-13.521023478793808,-12.501093516702884,-17.177931966445286,-13.17272891769289,-6.608369311317507,-3.5430669953100398,-13.341520718001172,-11.613162181355133,-7.861574438213869
14993,,-11.959248379520083,-9.624537722987082,-15.063702586167809,-16.721879972272916,-10.176413373111028,-15.466990198349905,-12.549793245376827,-14.98830631083893,-11.38272789886846,-7.363431453211292,-6.361567977363865,-14.908572774225595,-11.441435893114482,-9.821750266925934
15242,,-9.997505659001732,-11.458012898180671,-18.328472876750254,-16.57121855032982,-10.672419378849874,-15.041633131088314,-12.88011938509159,-15.515349915184014,-13.478376632372054,-11.277991678225357,-4.102142826138554,-13.898888460369768,-12.000860656868523,-11.389563959316542
15492,,-9.810775023294044,-10.23134512215262,-18.24997840486227,-15.460210268120102,-8.432161389544138,-16.979425168253716,-12.042737619966182,-14.389713667821146,-15.328475175803865,-10.50017067769294,-5.071594286364986,-11.90506997404259,-9.893131714988703,-9.2979541348681
15742,,-10.309143336689331,-11.377814626556535,-19.94665925314884,-16.367348573978393,-10.488355397954184,-13.9570226083578,-10.454322659652306,-15.901556526105969,-14.61208245891874,-8.72115303798152,-3.421117829286098,-11.417473966141692,-8.526854543086149,-12.204636892045928
15992,,-9.30212906833068,-13.265773867965365,-19.54463376860221,-17.36433912450235,-12.093103750197107,-11.093337629298963,-10.470106761211104,-19.443942187200445,-11.713990213192847,-11.445696953103276,-1.9316015220577143,-11.502617428374666,-7.698218734691835,-13.85818295363977
16242,,-9.99396627328099,-13.061384878897986,-21.24143389048008,-18.85153867930085,-13.865024610788891,-15.431533167720064,-9.270401203827918,-20.01967066009353,-11.875802221844117,-12.118041004755923,-1.647155610932742,-11.090595922101592,-12.076847769034682,-13.878775202615142
16492,,-9.957859134458277,-11.383802818338582,-20.279438508979865,-16.83257503396283,-11.63604474528315,-15.236961499467526,-9.42149055452729,-16.212918478118294,-13.07852027516255,-13.591657834012016,-2.0093808662193444,-9.49793138423163,-14.009742128096148,-14.022939896929309
16742,,-12.93199454390962,-13.515072265172702,-17.381337910764064,-13.939062729432884,-10.09087041969046,-14.85415207133472,-14.807808887792673,-16.493420316560023,-12.040327796383428,-12.516869077774912,-5.825128789611327,-13.801107468389546,-14.428180555410954,-14.988349821495143
16992,,-13.057432639626857,-8.809881509962736,-14.43054860577481,-13.733345918353434,-12.188182581966029,-14.265882526691591,-13.81750672828564,-17.315530239761593,-10.667706888511209,-10.63446941279005,-7.631357447643867,-13.591706952921784,-9.98075568831693,-13.793606138716008
17241,,-11.838441409532908,-5.809925430394962,-13.26660093530009,-12.480204028732796,-11.532668894372753,-14.762279210935311,-13.398817815987565,-16.159908874958134,-10.873731861743844,-11.95745211134934,-5.502697130781345,-11.473736745951236,-9.56128777094907,-12.420482063430809
17491,,-12.563024121606691,-5.0254833411482185,-15.994737394960248,-10.358448413867407,-10.275320072180383,-14.72987914160301,-14.421933712022131,-15.131781905759002,-12.377498054291308,-12.346072424604133,-4.114626691323839,-13.326673846075003,-9.237064492906336,-7.800775202353172
17741,,-13.425971598978322,-2.7403795951021337,-17.035733137691448,-7.719961253733373,-11.795142035438012,-15.105752197059278,-13.256019879504445,-11.158958477371666,-12.455701532717784,-12.564000433608513,-6.09327664850799,-12.278211469900278,-7.923861430930974,-3.7965781457323846
17991,,-10.924406438124477,-5.387344482841083,-19.05395040258637,-10.936161333727856,-12.183025195425303,-11.065781390406435,-12.165316411630974,-14.19634357904978,-13.843443646729355,-10.436334588840737,-4.438739126400017,-11.117550918632894,-5.3094317609015205,-6.686298317249771
18241,,-12.402618962917364,-10.832992641090115,-18.01179067050001,-17.190893335338895,-12.786120117964105,-12.783056803044136,-11.409194685261998,-15.34964564115172,-14.695573354305278,-12.20888959284784,-3.892619719649258,-12.195500501484604,-6.086557718295696,-6.622367147016384
18491,,-13.376095476696095,-8.395121915374485,-17.326131600148422,-18.05711540102337,-13.040243863008662,-17.47097027839227,-10.93303140257191,-15.10595229396552,-10.661606345596567,-11.739426012607804,-4.09534594851311,-14.681455947421796,-10.511763485878348,-5.640196692787956
18741,,-13.721208320304068,-9.939314995607017,-18.041250037930357,-16.245984774270468,-11.896246010147626,-18.83481376773236,-9.692037334910584,-16.087643136194764,-10.376204865311404,-13.37227356836418,-3.495965548400086,-14.65403885669549,-11.69392911755681,-5.906857110749744
18991,,-11.737038488623126,-7.570029242185479,-19.378447554752317,-13.169786749685564,-15.811179266227189,-17.23844420500037,-10.898557536246326,-14.172852792519285,-11.85175611706856,-10.677169900015455,-3.0656595396335478,-12.622637578161935,-11.713773522546424,-9.035544470877342
19240,,-10.779513026654747,-8.54326721829206,-19.172749274169977,-13.220920438021038,-16.913173638346297,-13.808317780789965,-14.740740745606116,-15.0735605512646,-9.7383226664649,-9.319170996065072,-3.9274782165225086,-11.207677818835856,-11.080772587368632,-9.766868906349208
19490,,-12.391851875511795,-13.601352408705944,-19.36814020664212,-12.358316645587507,-17.476368427956952,-14.57530530189155,-15.474644357575258,-17.936906505624997,-9.777306958535853,-10.866021625037876,-6.517201591492071,-11.16159925255256,-8.266777006962595,-9.918575001081727
19740,,-11.938781423643132,-10.766493914622066,-19.50538507490623,-10.249839184215356,-17.258935683905484,-16.288442402504494,-17.30566298042387,-17.839575361443348,-8.14849848375983,-11.412260613515691,-5.986806083090781,-12.965452353053806,-8.957159793895547,-7.571188384959289
19990,,-11.127743252939483,-10.164949448968104,-18.48813901101601,-13.272763414745748,-16.095392267369707,-13.334389984799948,-15.872307579759031,-15.535922059272467,-5.621682551939137,-12.589820578407124,-4.840396331801797,-13.691661977924936,-11.008010637800254,-10.020102865774692
20240,,-11.28667184843262,-9.34751260578375,-18.787508614943235,-12.749780241472644,-10.460486463678649,-12.58050090675028,-14.444308540069388,-14.685230705724148,-8.081273477053067,-8.88417722506565,-5.6985926989175,-11.59768402178332,-10.215364474562891,-12.767565534712627
20490,,-11.962612779751757,-9.037077820983448,-15.867223185821803,-11.807936511253294,-10.31692409098843,-14.434763452685331,-11.619687568392107,-13.770264310421387,-8.422642937347808,-12.677375404069974,-4.84317878297311,-10.062414712935654,-9.241475789088126,-12.64299898635959
20740,,-14.711410734846035,-9.954906166295622,-17.126916705669494,-12.897959325242232,-12.972622312611067,-15.157309839355538,-11.942175268507484,-16.763917701629893,-7.87894378039061,-11.646165057758154,-6.891457899413799,-12.184616863671106,-10.340386541868344,-10.392335246827251
20990,,-17.577432316171596,-11.202186506746054,-22.14945726351145,-12.115897795405973,-15.279871009492378,-14.522788787062382,-13.307970592474604,-17.393429047839145,-6.737928910896591,-9.12688084791938,-8.181898011326282,-14.521783167794345,-9.849075546366247,-8.261905588365982
21239,,-15.050549448556628,-10.704259480896477,-18.53520257623466,-14.952964274325003,-13.712451998694732,-13.215811980665226,-12.891134014214527,-18.38523056685545,-7.903918674778322,-7.949828596736161,-6.426019462043071,-12.06776382495286,-11.519099318735352,-9.67980162488439
21489,,-12.187680690075496,-10.327366990976206,-18.63221033191532,-16.236507954404257,-11.351204940443504,-11.12177339498928,-13.945154118120245,-13.710218472256132,-8.005996138961814,-10.258650735747228,-5.21699964030458,-11.010096346319944,-14.69630316300944,-12.809356537269586
21739,,-13.06401918773076,-11.157687173901849,-21.346580841677373,-16.290846358945213,-13.781602475120351,-14.219909769975668,-14.055119775328944,-14.88071909029166,-11.1812924531309,-11.795666662269532,-5.947240414842634,-12.461177584699252,-12.115261205597433,-16.312874977169702
21989,,-12.14327355797498,-15.26501253131774,-18.526848590294527,-15.80505265260455,-12.599709235816963,-17.140342655087476,-14.698184183210255,-17.24701886292784,-11.481901478194064,-10.40854418505679,-5.210273458710887,-11.728437855293189,-10.392824689685586,-13.739924205155702
22239,,-11.455075300909254,-10.04309257892283,-16.96544731708858,-13.4556848727554,-10.009676425470383,-17.272765535838147,-15.421493387138224,-19.317540995012298,-12.03604567470891,-11.708215760427947,-5.171732118563045,-12.451064653706576,-11.123796504040223,-9.548471145116345
22489,,-11.887547459353236,-6.273547583711748,-17.770694890572457,-12.371373591738909,-9.671834856181835,-15.86646963653519,-14.608055863051696,-18.98070099533112,-14.580619517037965,-11.755454625974552,-5.207888756314663,-11.59864761834952,-12.974769515253437,-6.934330023854408
22739,,-13.376345164749535,-7.752494617518291,-20.193293756167627,-13.426579760476676,-9.843525282086532,-13.288393111224035,-14.432315457069658,-15.855966845847291,-15.024578560358544,-13.091187612015297,-6.4737941477583005,-10.254714844249444,-14.245600449786432,-9.525382820668888
22989,,-11.020716272378856,-7.494171415459966,-18.12322766778314,-11.776604978673175,-11.971254670599816,-12.299741550624736,-12.266195017089936,-15.924859716527036,-11.538113709902657,-10.69966091488785,-3.9102700193175983,-12.168757021178962,-13.17211381315715,-12.126859113908496
23238,,-11.136663893601233,-7.924458156474103,-16.448669267769166,-13.288031894577214,-13.585669466534018,-12.551706907941568,-10.343470551454091,-16.345999583302984,-12.191235511792602,-10.592363651200069,-3.8183481566030713,-12.404935332477088,-11.69895454020292,-10.899599585273336
23488,,-14.272451204853462,-8.621043194535144,-14.930257112486116,-14.443433745339174,-14.204972650236758,-17.15854962531818,-11.976004569292789,-14.897720283875948,-13.317159703559682,-11.773230259173118,-5.876915006990928,-11.146732459135308,-9.03249022583308,-8.50937890765928
23738,,-13.120378089245756,-14.961720211662154,-15.648067871137672,-13.990700997706124,-12.63527401583691,-15.183834949055225,-10.88854020202991,-17.463134690473314,-12.517215902635767,-14.843002205802708,-5.862666396205816,-11.282256750052849,-10.775263710187255,-11.557227546385215
23988,,-15.692392247952444,-13.613667362137496,-16.824044545051656,-13.748773052391902,-12.465898691633498,-14.416923413869348,-9.83105396777894,-18.20893645687923,-12.693995543666263,-14.802345063038672,-6.455710755587351,-12.10993424355222,-10.520466060694332,-13.413883004587264
24238,,-15.83705023284131,-11.88240359569399,-16.65672204420361,-15.199505017709656,-11.858758743702182,-18.71334747208356,-10.49660146476755,-18.77184679299227,-12.344748958492266,-11.797950983718504,-5.22552541487363,-11.991485236346486,-12.276122254646154,-12.603028446609647
24488,,-13.919783403852076,-13.258943376485467,-16.750627231608377,-18.258739355964774,-14.490557294324208,-15.85869542690987,-14.069289559018776,-18.54543613453415,-11.56234560367649,-9.278950651640072,-5.8554189500608,-11.71675207630683,-11.753811718241,-12.511849156748877
24738,,-11.785096994587894,-15.81607850730476,-20.05648384147384,-17.013646751242405,-16.87973581548922,-12.57951319923131,-15.683058923662028,-17.76415711922239,-10.514453677710216,-8.234726358371287,-3.9545889885933274,-12.987717676326804,-11.819764030432513,-10.709404746257238
24988,,-11.03602362596066,-7.046176846234072,-18.950783304093765,-15.637044789651204,-13.503043714847983,-11.877590342578335,-15.364197656983992,-16.900823470388314,-10.437810681785905,-10.689132299450344,-3.8227867378187153,-13.182330233288855,-9.336257170349612,-12.180368425777845
25238,,-11.50750475348218,-5.752178110199996,-16.77694936999601,-15.326520524109768,-13.222018083764638,-10.823119657452375,-16.687567319239903,-17.019035953837392,-10.414673835541892,-10.79093742202546,-6.888836043292915,-13.603179593645663,-9.098158467509602,-12.071788247705438
25487,,-11.63169866572552,-9.720503996503416,-19.26141316390732,-15.46845809801331,-16.564796806843667,-14.387995125321172,-14.87068668329633,-15.70083565897579,-8.873579314728138,-12.561061593022076,-5.952327982797274,-12.505289735921078,-10.106193389395584,-10.381868643137055
25737,,-10.494717803041862,-12.566456173353268,-17.477826496311792,-14.48477557648815,-17.512617105397823,-15.579394643167124,-11.06934035587795,-16.079222553405607,-9.221194511446836,-8.283899018694111,-6.571650352832595,-10.271895878550245,-10.284628552495583,-10.01987260443448
25987,,-13.093623374917524,-14.449801398558328,-15.392355845441886,-14.34238383779316,-15.185812931913096,-15.346051088650189,-14.597490212142958,-16.102908328793028,-9.796358430547494,-8.385237517961015,-8.043436024321151,-12.447409850459197,-12.713784264304415,-10.819344800587078
26237,,-13.386587161285393,-14.243218081665145,-17.271333641545553,-15.753614424408472,-14.862619376422906,-15.693405569793107,-14.621566134383768,-15.333509372137168,-13.065147372072852,-11.61539623771044,-7.479392194449337,-14.583553198396624,-12.14277143711681,-12.631933285190184
26487,,-12.20543338248802,-13.693173705524991,-17.133598769207154,-15.208414159562354,-15.011634251476666,-16.217362002938426,-15.27683455732122,-15.212610504326143,-14.348699493093006,-15.70776330171257,-6.9143564927152665,-12.286133712189793,-12.16240845390909,-13.012288752604782
26737,,-8.626919888618849,-15.196231660675211,-18.90655490145145,-17.17644871702508,-11.667226068567707,-14.533022390663763,-11.359364993466146,-15.095665254373973,-10.43434241674666,-13.301524870304542,-2.121724853649595,-10.769985542591956,-9.30162357728726,-15.65534821321409
26987,,-7.763950982567858,-12.458550185012404,-18.94514453030989,-15.795097066233192,-11.765786033969912,-13.526273907212488,-9.558546473414673,-16.6909593894853,-11.13612623058124,-10.230546228492813,-1.688919973201113,-10.439796609887736,-10.404811360182656,-13.258562543837764
27237,,-12.282440912410022,-6.387239269437455,-18.78694166977584,-14.362505591844943,-15.72887603896964,-13.870220182081503,-12.49072882801413,-16.51699057235708,-14.86417503098124,-12.365880378164784,-3.972379868261644,-14.326027232538186,-13.765618132933648,-10.075681371869948
27486,,-11.64134856280412,-8.54139198171438,-17.469695029360064,-15.53741727254928,-13.96371332751424,-15.039546436130005,-11.904670315735617,-16.970834022566482,-14.201952138479111,-14.075823973196746,-3.5101759055234814,-12.79659371509199,-11.615365723101425,-11.597914267037089
27736,,-12.561229174659994,-13.628777670053992,-18.98028473274514,-16.853027102234407,-13.69336043046384,-17.8782743144745,-14.367649820732352,-15.49094438703375,-14.023836694327478,-13.844815582832998,-6.2785876022414575,-14.406366190668695,-13.860160202700287,-16.190151049311353
27986,,-11.984029534062811,-12.08861218063624,-20.672340453642303,-15.97197978780369,-17.015979454185867,-15.864196433955367,-14.674980027343556,-16.323598629185106,-13.634784910465164,-12.883548272302503,-6.79267991750764,-13.584789790312945,-15.458041023581286,-13.539439362220458
28236,,-7.9990003117108515,-11.34085137087376,-20.471536056246205,-14.548435673495186,-15.055386036917833,-13.346446560043905,-9.58122288848447,-17.955545930301426,-14.41914872146752,-14.86757009607214,-1.8552748931491347,-9.123641623703904,-11.014582985355874,-9.151555310366636
28486,,-7.337733398859319,-13.403905309657722,-20.298681853293093,-13.513722084585664,-13.842127246946434,-15.44817010735625,-9.461782718993812,-17.215610130815556,-16.398118887482546,-15.291006933191085,-1.4901112141697703,-9.193382938119498,-9.944061249575457,-11.055524563956546
28736,,-6.874082061125806,-11.666184050621204,-20.56571910801353,-13.460533930133025,-11.739739694644967,-15.541846816220737,-10.48072484622856,-16.21495097726147,-14.074735926110716,-15.49588605467806,-1.205612770089884,-10.1280402523549,-10.594828443355729,-10.587201160987954
28986,,-11.140048165761591,-12.281124661768354,-19.126420930874357,-12.679124344543249,-10.841828635010222,-14.001303347007156,-10.796626771068494,-16.783924624478775,-12.416189129449169,-14.373453090880943,-4.111682263666853,-12.040427353522285,-13.083789412782435,-12.58640611286777
29236,,-10.87880517856,-13.855872634639494,-18.21635796890686,-15.602547657612568,-11.754232366981956,-12.58703853911418,-13.986195494190907,-16.767678239930493,-14.857108565939503,-14.507633124325771,-5.393965884150466,-12.046173113347646,-11.227622624814968,-12.74485302376328
29485,,-8.591698115390244,-15.020765520613336,-17.47835222379763,-14.321793491308773,-10.449469650998914,-11.883691197427815,-11.492402164543732,-15.489119490353149,-17.467385897122206,-14.564282451257244,-3.695833777625496,-12.1260953682742,-11.835006313140786,-11.153979269160548
29735,,-8.071939391292126,-9.56680455807639,-15.943547093438522,-14.9281377286479,-11.263710035964326,-13.570402518475916,-9.755287047132288,-14.418456942402695,-15.866735134664802,-12.521088222901952,-2.058204507495012,-11.925894721400471,-5.91294162669172,-7.403847098209417
29985,,-9.755473723388718,-8.195427385938022,-14.703518229834671,-13.54547393989961,-12.27783945317746,-14.770196255902867,-9.917754117016232,-13.701096476620226,-10.411608614952282,-12.638124593056723,-2.089035868225936,-7.883043953143081,-4.417381189643552,-5.75344329180756
30235,,-10.992173723278164,-9.499811149347089,-13.363155047725964,-15.383171971243051,-12.94663167519744,-12.129967989630495,-11.51005807506172,-16.47162669202138,-8.48743743717609,-11.263358985283888,-3.8382934300132026,-9.744809934133404,-5.880509407310049,-6.655590161304
30485,,-9.639225447220154,-8.205303445668267,-15.004108409136634,-16.439831659496097,-11.60592851454516,-11.94463400387529,-15.106338292303567,-15.445716334505269,-10.448471053800574,-12.135171405565677,-4.065498050622991,-11.567285562680867,-6.821891947496432,-5.163554988018104
30735,,-11.703050312601526,-10.321076736634671,-18.459060443258743,-16.644595503601202,-12.49223178970776,-12.131659900544554,-16.15912201136764,-13.877294514072156,-12.7787946869659,-7.872300151559777,-4.234912746172414,-11.132694880606431,-9.548533036622352,-9.214657460380772
30985,,-10.56477225063838,-12.646982723935036,-17.890036761731718,-16.63641026734387,-13.352414577732413,-11.662876151937787,-12.704412076329268,-14.49460369681882,-10.890649932997432,-9.986326009293888,-4.05007515604368,-12.520562140955612,-11.278659372414555,-10.86287674321866
31235,,-6.5155861149755525,-11.61821910241021,-21.017326657285587,-16.321680773093632,-10.537227372337409,-10.67508859549065,-10.037429473370318,-13.301598143486588,-12.446923715758864,-12.899648220868418,-2.1825348442676398,-12.166993917834606,-11.96648459396014,-13.15994521963228
31484,,-8.434313824959213,-10.78738310637692,-23.86944330364937,-15.32781268038178,-12.112880920827294,-12.022066674382485,-9.830031457561583,-16.44769567505736,-13.895006434621312,-11.003525503016869,-1.901545506963892,-14.243283865677318,-11.883915160106088,-12.362853172652372
31734,,-11.71626678466906,-11.384494696186124,-21.601469550264014,-15.046180016836477,-14.26216495514112,-15.446224135919069,-12.765747260225226,-18.20312953817414,-13.961163503986304,-10.58575549151161,-4.964706357224619,-16.989623423566506,-13.382439320903924,-13.004124747467582
31984,,-12.447052037680276,-9.214148500248468,-21.8437521155709,-12.863842291017807,-11.41561025928205,-13.845652772512969,-12.933012476750092,-16.4859598482655,-11.525896406115086,-7.054506648906448,-5.98262590673626,-13.533660560489942,-10.5346580513325,-11.009250275575225
32234,,-8.625187666836219,-10.189532600020977,-20.30855659263536,-16.705574796557844,-8.69357579355279,-11.212635852196229,-12.300025861873811,-18.641458366226683,-9.953229953972222,-9.14558075192882,-3.38230570347166,-11.671090439172682,-9.461625951275035,-11.53612258453331
32484,,-7.18961091395872,-10.899345917249228,-18.722981204335184,-16.94437122199096,-10.742821860204126,-12.192260783037243,-12.67600067626734,-19.42554180965252,-11.52178502699456,-13.673622997608373,-2.7849110190422977,-14.720653211966866,-9.192998698679736,-10.346053705497976
32734,IR,-10.1543343627651,-8.696429602873042,-19.607291112062462,-15.849908993314,-10.122074577725051,-13.355608138997887,-16.23377663363701,-14.9114621442912,-10.226690308204912,-13.250742284169355,-5.625462275391818,-14.73619515247131,-10.67104389384766,-8.338926171123395
32984,,-12.38020106371711,-11.682075177716005,-19.97046317711169,-15.977911153844737,-11.405027432814547,-16.215640108447722,-15.389676514845265,-15.740003690532111,-9.626418916432003,-10.153224104435232,-5.97719344322784,-14.12296847125184,-13.77728292760577,-11.651710994801602
33234,,-8.295845187128627,-11.444845336695902,-18.610947268595144,-14.051610798099444,-14.553218125161298,-16.919976480551696,-13.648542373958044,-15.227929297276413,-11.51370393377288,-8.92891118700766,-3.17471628074545,-11.132565032889843,-14.33719782180302,-11.505925359562648
33483,,-9.62740461367047,-10.448425148973165,-19.6197748355835,-13.26133345325571,-13.249417605110242,-13.716007876119372,-12.74012410515261,-15.666312788398717,-12.822414398240634,-9.202781755533053,-3.408277415512156,-10.458428127127924,-11.012910911725,-11.174726740753918
33733,,-10.828689764636836,-6.477247766753742,-19.529600043903017,-12.10573115642242,-13.524963518212358,-13.584643012366474,-12.168846332396072,-19.296191883916496,-12.35010584825609,-8.769196068516257,-3.359313873033157,-10.092142479996763,-8.750291192118354,-8.123983231573991
33983,,-8.808665153254271,-5.098423035647823,-18.975614040770445,-12.871767008608735,-13.641853671390782,-14.098918157084592,-13.103188221384809,-18.48889998328604,-12.096856216821516,-9.724281477649988,-1.0971432668428225,-9.744351943239444,-9.18726022498523,-7.766509813354307
34233,,-9.458384251016172,-7.647665613986792,-17.256853583612376,-15.31754288322832,-16.28932029298663,-13.528131949672542,-12.989077916513342,-16.794520498316526,-12.929887757652216,-11.25134204955003,-2.622815469187593,-12.554917515843329,-12.91433011368046,-10.920069100922076
34483,,-9.918840973374612,-14.59722848384304,-16.560993095214606,-18.237440257251315,-14.85500001228026,-15.328596303769114,-10.896064479325188,-13.641552994153944,-12.742203089855938,-11.06137555197054,-2.12563060982801,-12.67644581164403,-14.513417699513296,-12.98896884438879
34733,,-10.055884002727677,-17.34473668203393,-16.668972451795565,-16.20173010816956,-15.168626167503556,-16.38211313130529,-11.68992889395554,-11.640700736769148,-9.96712236438919,-12.64765239435422,-2.324776798071708,-11.136945663931318,-12.197371470646305,-14.061071684667567
34983,,-9.915862735730371,-16.991003264782755,-19.68835200352853,-16.897843900603654,-14.16699162793902,-11.72406032154264,-9.906355791607922,-15.805242822028353,-11.42300743296125,-14.917160251891524,-2.046058964173157,-11.513592154911816,-10.073295939108435,-14.89633029578956
35233,,-10.896517333653543,-14.840682670613266,-19.91926801609856,-14.346221342984345,-13.923634017056283,-14.419395934510677,-13.198959012012988,-15.697599107263605,-12.5028964158173,-11.548645147869305,-4.98937094367729,-15.378453070510377,-9.051182646322305,-14.917263934461458
35482,,-11.23697225313067,-11.793388693232934,-17.58504440562385,-14.481603936835471,-15.05305484979054,-14.784587065096574,-15.47431621867414,-14.717940766110132,-12.704924664169264,-12.070900770965956,-5.591459874303011,-14.578015140384338,-8.993839342284234,-14.095013880938604
35732,,-12.721437827035222,-11.988296606614012,-16.98781534932327,-19.90931576595084,-14.574114825205404,-15.659274276991765,-13.128369714378676,-17.961088307259935,-10.435728911613666,-13.224331831527456,-4.512465722579257,-13.783592849038897,-12.020020532395684,-16.83090589548161
35982,,-14.036727804530445,-12.657423862644148,-22.091037511071843,-18.808588667096792,-14.634520672535263,-17.673244695426607,-13.94182811047431,-17.279209307712442,-12.079582072398438,-11.953662700374595,-6.346328488977301,-15.665611699418529,-14.06349057994174,-14.473386155513912
36232,,-13.655142306518233,-12.543526270611478,-22.773328769195786,-17.246166956816484,-13.154328553122353,-16.613311205595323,-13.951118281748457,-17.223372653939325,-11.718066178240482,-10.61765398558276,-6.015564905662922,-17.213010423940375,-13.016099123367296,-11.158830935509783
36482,,-14.09444671263556,-10.480090194305816,-17.051374266590564,-16.933969507619935,-13.69546483165612,-14.438949561068087,-15.167364383347024,-17.524302300468623,-12.827122628479614,-13.162355743832846,-7.391833979132695,-14.0819154028236,-12.357024039469904,-8.873175871826756
36732,R,-13.632668322237777,-7.084750708379835,-16.60033387448936,-15.772206334289802,-15.458357664564751,-13.73570497360024,-15.129162494536478,-15.094847397880926,-15.699333438234436,-12.437793712554983,-5.124844430749035,-12.10225235706391,-10.324449941221982,-8.926025820161641
36982,,-11.911683999710649,-8.363172765644848,-19.326765738544577,-16.17086055112467,-13.953769466898422,-16.733440263390428,-13.616555536705766,-16.314068523452413,-14.74614796471378,-12.20540687638408,-5.006017053183763,-12.34798134150238,-9.693378761995133,-11.717917355926662
37232,,-9.327478990663383,-12.83275982574434,-17.65830815543297,-16.14735778767884,-10.741240470348714,-13.708312107491205,-15.323855827884143,-15.977712608033926,-11.125652855359364,-14.619813456917608,-2.655985969253849,-11.184214568210784,-7.780845206147705,-10.268069094523431
37481,,-11.987814802410618,-9.980327831545006,-14.660135769856977,-16.008245989359605,-8.481805547193364,-10.0265656084422,-14.45388328795188,-12.105921459673327,-11.018292229478323,-14.685011343056802,-4.16602441039167,-9.316580993188282,-6.529401585861282,-11.102757267970356
37731,,-12.45408591965568,-9.764402993813642,-17.59085567841776,-16.162515883389094,-10.828299287479997,-12.12953912006167,-15.3795515776345,-12.518284924330075,-13.275128481149483,-16.31756877471413,-6.170411218836769,-11.1688263954777,-9.324602983548331,-10.778176353337214
37981,,-13.237667062337184,-9.309168211006646,-18.843963704328225,-16.912361657210585,-11.712744080661096,-16.549197861554763,-13.936145833403412,-17.783225588262866,-16.258012244653738,-13.62140577753154,-4.699384699962544,-13.127978739987336,-12.673020773345344,-12.862741115101162
38231,,-11.119871303924564,-9.187930490628911,-17.884817126822767,-14.700500786401385,-14.158599979371756,-12.073891518636657,-12.872492700822477,-18.4836405974917,-17.064290452555575,-12.546991099410407,-2.8497007447148803,-11.76964562990747,-13.369544568625471,-13.617908269627511
38481,,-9.511391258138264,-11.292924807773872,-19.691325993847418,-6.272726554659082,-15.556823840816032,-11.58640760814912,-13.3269126023206,-17.047068315057036,-15.243567656085713,-11.560535852384351,-3.6169434640801135,-10.698583714517024,-12.765174560512534,-11.995154477503082
38731,,-11.012782986981584,-11.935301349225414,-20.66115330447965,-6.438457435428276,-14.432803232419836,-14.669687135288417,-13.073385493102965,-17.152197927267874,-12.250875082804598,-13.338020861682958,-4.274920175411152,-12.459309823945988,-11.9887127741348,-11.307992856005075
38981,,-10.909642257327782,-14.557816233818864,-17.54001428069316,-10.695744522795431,-10.159362163321983,-17.339108705052283,-12.276261051351003,-16.105713285447717,-11.333651801523745,-14.499224418779871,-3.228506010269721,-13.498811700421832,-14.046282195338367,-13.069529409612969
39231,,-10.127775201739482,-9.731617593385414,-16.46967890853965,-12.193760713114951,-9.54325461438685,-15.73586039238984,-11.81087015422575,-16.4563760413022,-10.23443675617202,-11.083631631792496,-3.373718594485786,-12.463891630850066,-10.578894081514695,-11.779256873654
39480,,-11.36291854340843,-7.779249589658617,-15.279679023822377,-14.625964967100122,-12.432357996384791,-13.22169102258691,-13.867829409352888,-16.726711109412474,-12.511551586153049,-11.2759107896051,-4.488395488424935,-12.622278019900794,-9.519691677667302,-9.5513273485455
39730,,-8.359865729990752,-8.995561248739183,-16.605001401904975,-16.758662262834164,-15.164912499112472,-13.111748424321268,-11.013011673431087,-16.559192917679894,-11.612648273337744,-11.20545412776843,-1.772561157943588,-12.31235578828189,-11.663272635653524,-9.943793046003345
39980,,-10.53525860875129,-11.49708156263413,-19.112690819794885,-14.96857908838368,-18.03461940091389,-14.43337490125447,-13.410298620006314,-17.279578945353325,-12.35003569533733,-12.197733656126749,-4.79527770336316,-15.003104474888111,-10.201478797423745,-14.906818547357366
40230,,-11.694424501741365,-10.014773417245603,-18.26792567054539,-13.289393056450688,-17.394201242747258,-12.167613106394912,-11.89083489404224,-15.872912159581798,-11.842203026444448,-15.074465715293456,-7.128890219999692,-12.663943288656547,-9.358868775923993,-14.028146480300771
40480,,-8.711461609084202,-7.433309085547844,-17.7568276065086,-16.237862208598305,-16.044548567729183,-11.439855888749191,-9.037520518403392,-17.000584798701432,-11.529957585294374,-13.441033033461531,-2.8154976239424103,-11.28579267059704,-10.27519026489143,-10.246486387530313
40730,,-9.237608286255652,-9.72549559453517,-17.53328584112194,-17.695528532314768,-11.287975619387051,-12.45579519111055,-10.849126774735256,-15.288965247965532,-10.230397015874503,-11.32266805626048,-2.492661347585007,-10.99769739512789,-13.430931699097998,-11.812608621485712
40980,,-9.029012299077149,-12.449497314389776,-15.559074437604608,-14.861890747025813,-10.773676904857323,-12.1827196131232,-14.766469941334988,-15.021882027194032,-9.644799761864135,-11.39670177598336,-2.429472402146427,-9.190145313860535,-11.8632356403025,-11.906456330008218
41230,,-9.49602503330614,-11.347416343978772,-15.237458452157878,-15.799899578492688,-12.121513589208462,-13.033245661217292,-11.513266913437397,-15.72965291859654,-10.838201293294391,-10.97738242820605,-2.912687387021573,-11.29808040456654,-10.454180146720844,-9.756737229526562
41479,,-8.119094288610507,-11.15338002067691,-18.11167174466946,-17.634732642801254,-11.764678959237273,-14.404867917303456,-9.166293224588578,-17.366307389252107,-13.15425648240349,-11.75330035429626,-0.5735307742435549,-12.279708606795058,-8.771704402951515,-10.654611034475243
41729,,-6.108912459616405,-11.225932365115218,-19.792404203381963,-16.454520150376652,-13.551961789396737,-13.258628337393574,-9.058946222065172,-17.19713251597442,-9.90835453539863,-11.87307640055182,1.1700384000961956,-12.451553205229134,-9.941829047460308,-10.120926352213758
41979,,-7.686911041317076,-11.503457889742222,-17.868413303343274,-12.524752941873189,-14.237269999573904,-14.0217473101976,-10.901555516774774,-18.10957892022228,-12.131082901053054,-13.514355414889966,-0.9432348467447226,-12.828876526150934,-14.137148076652796,-11.755656967559286
42229,,-8.751595427417698,-7.7877464712650735,-17.855470725254087,-14.06970989374728,-13.00461380334382,-15.197481752864332,-12.903907885419292,-17.025781251205345,-14.353457627772862,-18.49103341619945,-3.192865205362926,-13.263112204765624,-13.594803207413936,-12.6448046091895
42479,,-8.886488714657663,-7.679084512552415,-20.01643566250508,-17.76072683721742,-13.26147789518608,-13.317765174514482,-16.00513608452818,-17.08174851042577,-15.877341756778597,-14.214690032420112,-4.827287024980375,-12.12989208727243,-10.386638739982889,-11.812234392607984
42729,,-9.671246458949316,-11.299485086338626,-20.36273287150847,-18.19525697766615,-14.917359292723596,-15.151184471603807,-12.261962090507495,-16.48626666311236,-11.652975613685728,-11.848829253655582,-2.595432841585265,-12.83204234459532,-7.485685908370874,-12.120657707295155
42979,,-9.395848763721336,-13.17901786861745,-18.748729084696954,-16.73355097741267,-10.906310588604724,-13.436545887642392,-10.265462968486665,-14.778364356091371,-9.64421237653886,-7.579177782207398,-2.2700560307977384,-11.093124424142776,-9.90375433680956,-15.799909082789338
43229,,-10.543286302360526,-11.431896183343746,-17.067822566661153,-17.876273545546873,-12.906303582308649,-11.892013397221437,-10.520235522608752,-14.578797770538271,-8.455022523795058,-8.53390760830812,-1.3790047988790175,-11.264575501481255,-12.036501680594435,-10.679625262012651
43478,,-12.29898863412298,-8.32729778779808,-15.72462415259973,-15.451002488863132,-14.411340744095003,-10.325102625348643,-12.488585252871417,-15.07584626795076,-8.825943104696067,-8.938703855471566,-2.1738058828477373,-9.439804907876288,-8.215295855728815,-7.528512289060702
43728,,-10.931481425618818,-7.244059778025625,-16.15562949794509,-13.962284995077187,-13.076813283676822,-9.58800696238467,-11.833732019633985,-15.931216417295012,-8.323024746509757,-12.389235720041633,-4.742283841114131,-10.932248520151395,-7.180597783716685,-9.0287894465038
43978,,-9.928766012444662,-8.469701574271468,-16.59405201514002,-13.565193845641623,-13.88722660622436,-11.074811794747824,-10.125742885031608,-13.733527673044954,-8.876670148600535,-11.158119074330584,-3.356681046870022,-11.127894404191558,-7.011166584026821,-9.35016962118947
44228,,-11.21906446394756,-7.255702700128177,-18.194247841496672,-13.506296351270366,-16.48980069023684,-14.597020811384676,-10.76045289852378,-15.674790408424204,-11.251472794132976,-12.098156121268604,-3.087765105710849,-11.213806448834507,-8.305864016391913,-9.26181598475361
44478,,-11.683820494404138,-9.150595691687156,-18.95466710446583,-13.311142787464885,-12.693020468525424,-15.593116120448764,-11.59137998657808,-20.25705381961965,-9.386662961903273,-14.937610594876698,-2.8834186139338702,-13.5916656992334,-13.037620385746717,-10.653390360822597
44728,,-9.357872367501288,-8.257629914416402,-17.82169650545622,-14.86471238066718,-10.468704543601518,-14.209796884303538,-12.1370407369272,-20.881794291641064,-10.619805715625157,-17.691528763874803,-2.5173357340165863,-14.126288786599885,-14.180941300197969,-13.798343841124524
44978,,-10.641433388912771,-9.721263400423608,-18.16522310820932,-16.447825622758348,-11.911770076327713,-12.5366843565172,-12.325562357983396,-18.970345111535934,-12.92380180874731,-14.615573777308713,-4.128735228073604,-12.253114920459316,-10.655428262066216,-13.109510204567057
45228,,-7.772075941989005,-9.07714062062082,-16.855814746486693,-16.717598185494833,-10.393007196048478,-10.411432537179394,-11.820833098876616,-18.81341982027657,-10.7530244266652,-9.893219255383377,-2.7584323589638227,-9.578002414187871,-7.273565047736445,-12.820061301263753
45477,,-7.827417269577261,-8.158352802414813,-16.107639338072943,-14.41448009079187,-9.91228789433124,-11.98898378440405,-10.90424011971229,-16.079300955312046,-10.314995626133715,-9.982958792984272,-2.2686576359742547,-11.44465945132134,-9.017775194673014,-12.5319185524958
45727,,-8.575014114393717,-7.678009631580362,-17.175210064653072,-13.322732339260828,-10.79941947050626,-12.9914538067339,-13.00291225284128,-13.301755847050996,-11.44479275404132,-12.52584408518116,-2.2709617252414604,-10.561377003411058,-11.489322405866762,-10.367118231613905
45977,,-8.68138086998842,-7.6844194921233395,-19.26297809302481,-12.955386915386253,-11.44431566109982,-12.954222233423067,-14.6720156270877,-14.312846377843936,-12.185567007245934,-12.906076486362949,-3.1039024755379256,-10.874713283502617,-11.90733932647536,-11.295256248155654
46227,,-12.413674530380383,-8.610187759649337,-20.436701116615865,-12.489077303274524,-9.873630265249387,-13.832758144588231,-15.83037860508429,-15.917158286349952,-15.35538111803626,-12.620386594718036,-5.308050066702885,-12.771536567315495,-10.995881798050632,-11.89426714098948
46477,,-13.904923653724405,-12.199846184488331,-19.094803079673863,-13.66624671996647,-8.842668333729799,-16.42737211869627,-15.146666906887924,-17.352800845061388,-14.32385900621876,-14.120241876182746,-7.916127692321694,-13.617676182083695,-8.869473010207109,-12.066393421362012
46727,,-13.459103110526776,-13.576695613167765,-17.169473492341783,-14.745768123178609,-10.1035786208711,-14.674229478245556,-13.669647526572708,-15.994119155256044,-14.110535523133494,-15.532112979766335,-6.457701525380034,-13.818743633239867,-10.393142762334456,-10.093851034183462
46977,,-11.310144186326564,-11.77610466800834,-16.960642308797045,-15.181922762669451,-12.806363127713064,-12.656032548161964,-12.374478048902668,-14.454086020769774,-12.82240004502591,-14.392158215654366,-4.068564896404892,-10.582226903699778,-9.260872470403164,-7.218450520717655
47227,,-10.00215616489217,-9.84379525188224,-16.426762782579427,-13.797295279629896,-13.49784798149028,-11.419993579452967,-12.247085356261431,-13.488141427264956,-12.39547132646223,-12.786650544433044,-3.35761372164923,-10.933625825581696,-10.665684036049402,-8.573142545315237
47477,,-7.088262099061358,-10.424005011657416,-16.9926930747185,-13.919123568664414,-12.494336529422135,-11.770017254214356,-11.299410912534684,-11.763101247494916,-12.345249316073776,-9.415648529357975,-1.5527602371244638,-11.686419114800518,-11.513027666763884,-10.387302462783374
47726,,-8.780597327410844,-10.739508084757244,-17.760701640896958,-14.853399101677754,-11.720117621887184,-12.084721929292604,-11.088735240622814,-13.096383753320788,-9.894940122359143,-8.47053127043704,-2.928987133178187,-9.956321099498997,-11.879231291522876,-12.688093155516423
47976,,-9.637574930722131,-12.223485034368512,-16.700900834204806,-15.339059695603844,-9.753365223857427,-15.5627065101909,-13.665110304708657,-16.053773593349728,-8.989206655680828,-9.146555519516385,-4.5907554035671545,-11.13373412926638,-12.684848105026983,-14.018958646214838
48226,,-9.952867562835008,-13.7866997731305,-17.910575032483848,-16.691741849659984,-13.505930515670569,-16.118817606215764,-12.239659758016588,-14.24389800554133,-9.934478501358935,-12.191916988808382,-3.5658716730661943,-11.403271626769309,-12.219322290244854,-12.524163604028589
48476,,-8.506898182903752,-15.13493497841418,-17.170327813695202,-16.099137143805514,-13.605355067806691,-11.128401869778155,-9.301587426623296,-15.880414530908304,-10.418844490501842,-10.37568759733427,-0.1410005750097001,-8.702407941614233,-10.673936559907652,-13.099944114884313
48726,,-7.815321524150608,-17.00352244411128,-17.58748049543444,-13.909004810689805,-11.816443029948996,-11.651184215047364,-10.413529809925285,-17.24807542175492,-11.358514207278716,-8.490611199257632,-0.0193823783464606,-10.499556071529204,-12.2376003996072,-9.887722549438829
48976,,-8.500328126258575,-16.322582315646162,-18.525794543669548,-14.491917733904106,-10.671055510824631,-14.951822504898317,-13.873122333659012,-15.267056234599949,-9.769970802004265,-8.362318027341443,-2.412719205710937,-11.890325241186275,-15.678321456380337,-8.523306333065165
49226,,-8.04543364135074,-14.547630875147924,-17.324631830812834,-16.175982002927178,-11.064389726337346,-14.98388373548253,-15.424011611415851,-15.66161207430629,-10.481698610779622,-10.435309266468206,-2.165634565898596,-10.227102827589324,-16.08376197600592,-9.541072847743315
49476,,-7.398053807484065,-12.651485335043244,-18.302373463452263,-19.200380949673374,-12.694363514799232,-15.140940530383803,-12.04758922095274,-17.33908243868965,-14.525677203377674,-12.66419071392113,-0.6596203788333843,-10.3000949124729,-15.137382960709584,-14.392841189725528
49725,,-7.603515396423539,-13.98278741870991,-17.95309276156714,-15.248364867476624,-12.264945592949578,-14.469861786933444,-11.449844652546018,-17.454302694313846,-12.644299187237548,-9.749095715558294,-1.0133502582519407,-11.282527119630076,-12.093726333067629,-16.337952889549676
49975,,-7.503192339195586,-13.725789999834966,-19.17717198766229,-15.078834156141118,-12.745506504507471,-11.209423945661722,-11.825434413753271,-17.266339122870438,-10.645165068627858,-8.738017486372389,-2.496904945540165,-12.95760351441881,-10.797812257913629,-16.369984830090154
50225,,-6.987814140866241,-11.99562068999549,-19.297889361148837,-18.0364804085814,-15.637192189514494,-12.337661949740044,-10.993428700232837,-14.859801071554095,-11.40300271781494,-10.85023910449223,-1.1917410297978916,-12.48054195388246,-9.053368549601812,-15.395786071484617
50475,,-11.620411320958068,-9.359516666025332,-20.359053831016585,-19.25754061646469,-18.44080158532968,-13.977274752023709,-12.635612191540137,-15.441469775048004,-9.884133630995075,-11.057129642329503,-4.445672139770741,-13.443333595234083,-12.063847599769016,-15.209834837122257
50725,,-9.97647520192333,-11.381841321676996,-17.268630271774796,-18.910058189083102,-12.205668759800613,-11.642703264484158,-9.242983254640828,-16.649881276238684,-9.00178332699616,-12.208898333376712,-1.770897297661695,-9.14950681429849,-10.837958307035455,-14.213583032215968
50975,,-7.512684183656296,-15.045550294322137,-15.54253098561366,-16.36680107806644,-9.67440032708614,-11.312080592032284,-11.067962588018874,-13.513949138351064,-9.580362937631524,-12.957971481516577,-0.2212337704635625,-9.292005037851654,-10.157635241688466,-11.661660866174806
51225,,-6.84265769446745,-16.16333637589192,-15.19880596971156,-15.447134604135911,-10.610845472954056,-11.51336966391835,-13.149189300397117,-12.90709095080787,-10.634897852756072,-15.1500121341442,-0.9214713658339426,-10.266708987262616,-11.91770060893554,-11.499517136379117
51475,,-7.114944090160169,-14.77863346945741,-15.560962791283316,-15.825478502034034,-14.287235631544725,-13.24778937898227,-10.490453454226564,-13.758210771601073,-11.15791619246239,-13.250795763219326,-1.3127564213317495,-10.658866278842812,-12.122184198202524,-10.501594622639065
51724,,-10.503945636388938,-13.636047519947962,-16.75180634698438,-14.115587824200803,-14.116796263559554,-14.491259636308772,-12.869947674341386,-16.787630732441563,-12.838485367622628,-12.933536400884629,-5.29642780674198,-13.727096514008837,-13.33499183620248,-12.096773814052304
51974,,-9.865392435109712,-12.391448044552348,-17.77264920507524,-14.564701336674128,-11.718532796549304,-13.829869994521676,-13.38497549744272,-16.91147571517775,-14.474683272967246,-14.650136696548138,-3.4908546920125265,-12.278370652095006,-9.24915262102666,-11.530488889082967
52224,X,-8.69980166826858,-8.42186896761618,-18.28116378202201,-14.252990918779222,-11.09085831532601,-14.755292733344644,-11.90654540612124,-18.241842196020933,-14.186585339349303,-8.989399344138056,-2.292767199586158,-12.59830851664198,-7.907806063226511,-10.037610299321225
52474,,-10.936840714003754,-10.912182751379298,-16.725272166986755,-15.863098830515236,-12.20082486247935,-12.790282179324697,-16.703099698437278,-18.316119618934263,-12.729021477439884,-6.780845604826297,-3.778452226003159,-13.409982409702168,-12.643230855587568,-12.376891235960446
52724,,-13.604882671435092,-12.45230883551026,-17.450847752117596,-17.440647494580727,-11.278457784765047,-13.17207984448176,-20.245973218823394,-17.714006514148803,-12.291212060695075,-9.816892445029886,-5.618392339466375,-12.362742345451789,-13.09094312102491,-12.496176399921223
52974,,-15.115367503790797,-9.231718716324876,-18.55436907991052,-18.106572178192785,-11.43375148793087,-16.165587848626444,-16.5863523813984,-18.234882710047756,-13.20526802222784,-12.209222262523047,-6.844016662046331,-13.595036609370432,-13.361392394395464,-8.480451544178173
53224,,-11.15051902895602,-11.560698506973834,-19.34437963350781,-18.85213324708837,-11.230699611854922,-12.62894362232348,-9.499050185947914,-13.90779977192136,-9.6208922901634,-14.67801420279396,-2.45429194658112,-11.906842169304683,-11.053953074967604,-10.868225952150995
53474,,-10.80758312998772,-12.197170323601012,-18.95668271777083,-19.129272048522203,-10.97318347612418,-10.390543857112664,-8.019203129566872,-11.812982249817829,-9.46521711520806,-15.287299046698404,-2.180529069056488,-12.347232489169343,-11.778125716712577,-10.72379457254496
53723,,-12.391102898755712,-13.391623556458311,-20.81431385856119,-19.747374671797758,-11.675818641267304,-12.09061321844235,-10.995065171620537,-12.87710492496952,-12.050195292482943,-18.362352609043747,-3.8234637578001256,-14.44710824887892,-13.946270142936829,-11.409189233457464
53973,,-10.596841472468428,-14.153841153407852,-21.759943127929784,-17.382100252843017,-11.614068565162391,-15.478333960129644,-13.354684962129983,-14.791774192603835,-11.667606411151198,-17.039731110022,-1.2415548857083225,-13.961808021739625,-14.805973445050476,-11.902906062592772
54223,,-9.686460531585942,-13.494249271925668,-21.72008557073724,-16.357353272775203,-9.545263903420537,-16.20312873621995,-10.903267104582351,-14.069153779716816,-11.36086242833476,-14.47471038589902,-0.6099281873888559,-13.35304003200424,-14.224018719688134,-14.579988524746962
54473,,-8.37265721533921,-11.233753369193458,-18.72539096772273,-15.952459403362695,-11.93997697662226,-13.874866682582883,-12.39356967853231,-15.79776711335035,-13.218561765662155,-12.042354640961763,-2.145637256380943,-13.844775937932695,-17.97959199236901,-13.586501339785697
54723,,-9.278872755397732,-11.673058059160446,-18.322626334688078,-18.60121457787652,-9.562874908428189,-12.331863690776714,-13.096392661743437,-15.781534251672277,-14.008654543663244,-12.911913946666012,-2.0803239940473888,-11.75668081745506,-17.307033879497368,-11.427213620801057
54973,,-8.21445141921022,-13.529812857786885,-18.137943259024613,-21.30175028709566,-7.834472771023861,-13.150771908827378,-12.836810875909707,-16.205445815615555,-13.24224299530131,-15.766279247914598,-1.6030699550007683,-10.041075101778734,-12.220754162126276,-13.79098104799042
55223,,-7.527210976300473,-15.651899501824316,-21.122962268692568,-21.275709781819675,-10.338353275057315,-14.020331429762289,-11.076756090566276,-16.66949940958596,-12.714939396078629,-16.105618773377017,-0.1388355722413537,-11.744587733691754,-12.44406005102206,-13.865087531430031
55473,,-9.651362193438365,-17.316223586239445,-22.543685712217,-19.86017796478,-11.126602367004343,-15.216347349966997,-8.558500208113049,-16.28609524058918,-13.46930697934296,-15.78812708375305,-0.2045095009621751,-15.12791270541406,-13.12991367758962,-12.670312782717954
55722,,-8.941120528483285,-16.705053672342153,-21.72199856219635,-17.78713415286483,-11.058394335419488,-15.63853307916354,-10.194792279515676,-16.854030412119037,-14.501252455054834,-16.048562678655184,-1.9328610403169728,-15.222248468567354,-13.13167732226801,-14.970004038399804
55972,,-7.415077819198408,-13.021333378725934,-18.24891341684785,-15.280983775883554,-13.864150121579552,-15.507239304574227,-12.30543103052122,-18.62420729082008,-15.971439066813195,-14.722458156521586,-1.967604022364117,-13.423125105060649,-12.408464538402525,-14.887692482173762
56222,,-10.018830072020783,-13.49638698024242,-17.439387109879657,-16.76177816695638,-13.915461763455925,-15.1935207455489,-12.477182627912644,-15.789673480517695,-15.19878257316666,-15.645248977585736,-3.567329495718468,-12.767664050356966,-11.402294011205324,-12.561553140898464
56472,,-11.101547254333749,-14.788970079356895,-17.635538106780395,-15.15035831047583,-13.843356016428151,-13.860545209608516,-14.94091198250197,-15.59718692016682,-11.171198546513557,-12.338448349226171,-4.275600829090712,-12.746367855662278,-11.051056753549648,-11.885988229634291
56722,,-10.477588954305975,-10.29725989732098,-16.986892726523774,-17.907760965645615,-13.387516538482398,-14.002846675868131,-14.35117493121087,-14.707993912392244,-8.384687987800998,-11.342701125294196,-2.705401073074345,-12.024070312712729,-12.306634109058155,-13.060705304592393
56972,,-11.054281665354155,-9.743082060729945,-18.54396172179008,-14.439229892624292,-14.228808669463488,-13.46856334675351,-12.908736635115254,-14.984183271665264,-9.936961363502345,-12.455467059101563,-4.825235564383256,-13.682774219175416,-13.658429112455453,-13.268021059060164
57222,,-10.831847925400666,-10.39975586454953,-19.121505444695416,-12.549120232852664,-10.463789552340456,-10.866610549564165,-10.552198248758977,-15.004326353609406,-10.072874032223494,-14.886688959731442,-5.77455534360235,-12.975653596877512,-11.99602663676435,-10.218010358325042
57472,,-10.46922968248418,-7.493505148892416,-19.77606113519827,-13.569858967547075,-11.06476242822751,-13.174423741872308,-10.815204914084056,-14.267620696893468,-10.894483821807322,-14.239501751795638,-4.302797668188163,-12.220898888876764,-10.843781827209868,-7.006861980049427
57721,,-10.93361647448808,-8.588684190520153,-18.1993130143679,-13.641000258109386,-13.272105880602911,-15.292828777497917,-15.576789098690789,-15.968428944677724,-14.869031018199156,-12.338480648046913,-4.365467150926564,-13.536178658032211,-13.945700461714402,-9.782597555447532
57971,,-10.164917011329086,-8.296965080335239,-16.27080771094314,-15.3528258637656,-10.982317554170368,-14.554710112983669,-16.59819054441922,-18.351148640454813,-10.577105653030006,-12.903609709287029,-3.2277591021892613,-11.69885396689992,-14.049599877971966,-12.657914190101849
58221,,-12.094354282284757,-10.518505289257886,-15.420830488916195,-18.29814068986005,-12.541196299547789,-13.04811558247087,-16.458857797507264,-17.0745383212939,-8.933714369394618,-12.506311409944818,-3.056846340405327,-10.94782358171463,-15.16212197077753,-13.946984604657665
58471,,-8.86867865223831,-15.92784715644472,-15.1247827499039,-19.28006395370101,-10.992760948282918,-13.331188565068835,-11.842716951658524,-13.781557888796748,-9.988228478731576,-12.298067440961924,-0.944322241473144,-9.171919265208247,-14.650998061344527,-11.377954691688055
58721,,-8.314125944066763,-12.319149447402378,-15.735253995890492,-16.773107744519923,-11.609670412866048,-13.114258787910195,-11.330598882819617,-12.912166561690816,-9.197424902829493,-10.219691373155053,-0.6744868971052141,-10.798179402149747,-10.910136180588054,-8.816963909662404
58971,,-10.046988456587007,-11.0363433500094,-16.291230755111364,-15.10833275376771,-14.046768708670369,-13.591295422889369,-13.480484704932405,-16.232986750989923,-12.605059714361303,-9.875890229695615,-2.927922750513965,-12.93110900529388,-10.595275588318724,-10.828775336597037
59221,,-9.777431171415513,-9.59896213941502,-14.46068820058105,-11.4598855894487,-15.706716296201378,-13.04040482257145,-13.1891669260977,-15.74671106705174,-11.196999250226042,-8.9036398554355,-3.124549978084949,-10.87078789740886,-10.089624441339245,-10.493653868005586
59471,,-8.099242252268638,-8.946502153188847,-14.112176193836309,-11.49951336841772,-13.932670826316365,-10.616524739384444,-12.790391413312577,-13.650228226364566,-10.752953082218273,-11.558103399226331,-2.020969154472744,-10.985110095815427,-9.39840542169144,-11.990350079972924
59720,,-10.156243299741288,-10.33884552350226,-17.34939508142126,-16.597622980426895,-13.506305009396115,-14.224557325427918,-12.665533423273196,-14.926242697043824,-10.34075145766462,-11.82347713991224,-4.064091701934346,-13.526851039791731,-12.281356874845468,-12.1986971067067
59970,,-8.12142086228677,-11.51924030242424,-18.640495847906053,-16.84135981639014,-12.702400269601,-13.103733092011804,-12.221898326162918,-13.561451497454474,-10.075937960830167,-10.618150227037589,-1.429598597744612,-11.316890282691478,-12.578333668794071,-12.330390431279373
60220,,-10.213102981126504,-16.254077675764304,-19.73729869918338,-15.678108242619954,-14.571991234328838,-10.328147648597447,-13.485074634265334,-13.54933151748,-10.061646760669843,-11.994668207041448,-3.3260541583220222,-13.6210172345238,-15.85891694252597,-14.254332935845955
60470,,-7.192971559680267,-13.138235155812705,-18.539590309202307,-18.787277391327542,-11.7073150323892,-8.704838884880795,-9.92105495631876,-16.55741421455357,-8.346389978916283,-15.896284348666612,0.2757837722434807,-9.747890284925404,-10.704767720982897,-14.375571057050465
60720,,-7.022704263238346,-13.43671726259172,-16.0548888770229,-17.123490831941815,-10.60433727441433,-10.519691781175355,-8.688200752889925,-14.55815293042817,-9.769221911292886,-14.618864213212913,0.1818915083498659,-10.881111783094518,-8.294878458450327,-12.562248315030288
60970,,-8.26154103163034,-12.69700977933718,-18.219224599240945,-12.883889808785906,-9.623614563806653,-9.686197633224715,-10.722244274777935,-14.737841331209044,-9.83494643922294,-11.294706030759178,-2.1041887258850216,-15.093344150813312,-10.41939803479639,-9.136386785288352
61220,,-8.941660834380642,-12.229802716888932,-16.47041687493149,-14.46376703064166,-10.693613058459649,-11.292673808116565,-10.695180572798655,-17.715506593298368,-9.086186596181625,-12.97420316300945,-2.38050690042464,-12.1986011932455,-13.388861569005218,-8.384396869016076
61470,,-11.76785987744366,-12.530061260926663,-16.369861232414,-15.09320329214071,-12.313369849011671,-14.193164728754237,-13.701771288709262,-16.9148717345382,-9.894522319619202,-11.05254714151222,-5.07710419741278,-13.245916484937316,-17.57191169670247,-10.564241065697368
61719,,-14.477468393116215,-13.860914186556478,-19.461334593624684,-16.660233802924807,-14.335473180855963,-13.101644573396465,-16.447378525489707,-19.15147496903793,-11.566121257856285,-11.018476695280109,-7.299518695047031,-15.291068244360916,-16.43420829465183,-13.50837958182174
61969,,-11.715820028290915,-13.657726211342773,-18.777006687406637,-15.60369801781384,-13.63060525129046,-14.319555911579764,-15.5305079573244,-20.74418525467774,-13.375924421411652,-10.114528706858003,-4.749905541410277,-13.820301430384225,-13.923324925000314,-14.273751502708636
62219,,-9.092145456064683,-13.391273524822816,-17.341777571097555,-17.808373247835156,-12.83095879430445,-12.52015329839317,-13.75288031711987,-19.07378912395072,-13.911748752971285,-10.914410978094274,-2.2725274084765843,-14.487522869338523,-13.64556587504933,-14.447561191233538
62469,,-9.642685432681787,-11.439440084262326,-15.820996733338657,-19.345139095031456,-11.45697435757774,-11.66463572828639,-13.350872845104432,-18.359111896449207,-12.06414419705144,-16.59706222991659,-2.846130062314214,-13.438859266073768,-11.73260029286969,-11.094499930288862
62719,,-13.278779681828038,-12.382063254733415,-15.019010474997284,-19.238050379545356,-12.84070304106277,-15.042252379527543,-14.91344722262012,-17.34901024926055,-15.494076318239305,-14.753912087459977,-5.279676220144687,-15.503033889587243,-12.844817180456818,-11.667519352757743
62969,,-12.025143186705876,-14.38609537231992,-17.820856600708183,-17.800151133393175,-12.887312329185011,-13.46796775787996,-12.400324725808838,-17.910384688910174,-14.391490822286414,-13.24773928296921,-6.254277099853047,-16.51554896815176,-14.971410038880412,-14.14365966457623
63219,,-7.26143713255932,-17.427262137311462,-18.82870426188476,-17.236412202959887,-13.52178811372063,-9.80445095981979,-11.170640472979478,-17.69860280115989,-11.599408376705997,-13.77506714655764,-1.1187262650922645,-13.25961111457445,-11.598150994800298,-11.758260296556276
63469,,-8.37812701775911,-13.212925045916354,-19.79150819787442,-14.323366913032752,-11.638428692955213,-12.155629888118725,-11.293289682145565,-18.072851670438133,-12.274189809543616,-14.1546193304604,-2.7040661748401726,-12.78256600298022,-11.92153332506532,-12.117512132440664
63718,,-12.82211687615082,-14.714512047278127,-20.09881976038312,-14.74416820040224,-10.873404119569,-13.332005442229944,-15.011008633861744,-17.47267978564501,-11.76470036150709,-15.75911127328439,-6.79596163171595,-11.993290908179665,-15.462504627364895,-12.43790462041699
63968,,-12.113626744897578,-15.25289558679011,-18.01579507956512,-16.013659363880507,-9.860029926123774,-13.708191576413803,-17.58323347613517,-15.532891050391047,-11.055861394313675,-13.053700007537593,-6.498882754777997,-14.07305419789537,-16.631304288486344,-12.59174398523025
64218,,-10.879539404667868,-12.941441753228112,-18.894765340524454,-18.514104660149076,-10.596860009248209,-13.33283878239044,-17.07363866769028,-16.975885417876825,-12.347886269439025,-13.263922588634982,-4.7064435979157935,-13.873391851684282,-14.64068223181146,-12.228047700238582
64468,,-8.919485206674226,-13.699920622851089,-18.265148562635503,-17.813112811681815,-14.94570106724543,-13.293096910262596,-12.43198240054804,-20.277218457526278,-14.593692446590689,-14.09875793089018,-1.8840361792683116,-12.837340370075578,-12.293639792184209,-14.001795896759976
64718,,-9.624684790018444,-12.767854327718592,-18.54120606607547,-15.499422606061088,-12.746306942866012,-14.614146286499746,-11.602756241898032,-19.90780819672844,-13.366879592498073,-15.71406750425122,-1.7818950705722891,-14.406934257868858,-14.750861386528635,-12.275962065428873
64968,,-10.278113159560272,-14.1275119213852,-19.95800867888785,-16.582433948575343,-10.360929755443504,-15.106763041951329,-12.948915360734354,-15.623765929973274,-9.851527303730906,-15.683940144866478,-3.2860410862967986,-13.081979657153664,-13.470942303016956,-10.62080292401536
65218,,-11.456061651236764,-9.526994608343038,-17.79365712678568,-14.908016933644053,-11.641839755073116,-12.646792038007847,-12.696867875396642,-15.218129492899491,-10.14591215900202,-13.141299311881996,-4.775331630476515,-11.78712575148058,-13.391817302680751,-10.804281036370034
65468,,-11.66562316002889,-8.333126464867087,-17.573640289282896,-14.651677783738428,-11.87565322496426,-12.549022197860868,-16.948303235776258,-16.709895825626514,-12.940491821014728,-14.001708806796394,-4.033245347740113,-11.740501533717907,-13.015886829586602,-13.37406652262677
65717,,-14.29938758670974,-10.177704970281384,-16.02718201346464,-14.28898556229943,-12.201288737441743,-15.179928763582089,-17.052332230158193,-17.231571278454826,-10.542277652571922,-11.201908620192526,-6.235267325275002,-13.3772984696567,-11.8457038357333,-15.557500178850251
65967,,-10.99749951982666,-10.655568749801724,-16.625995598269604,-15.768959100737842,-15.408546278794102,-14.182471602934593,-13.387611754428612,-18.03864750926486,-12.587902260404642,-11.903586269566414,-3.2936134247311752,-12.650178257879274,-11.574471222934694,-13.081584348676284
66217,,-9.842952582798002,-13.032376174856582,-17.163467376131226,-17.571611152692295,-13.880168752545668,-15.210749047022327,-12.919574801961431,-17.88601028826044,-13.506056568545056,-10.902257457980284,-3.372160620071541,-13.644840385276478,-13.503774211941192,-10.630762188938466
66467,,-8.684699831887984,-11.824657809652164,-17.82622589821542,-15.5501327645953,-12.29165750020356,-16.75277129509509,-13.032659726375966,-12.385514024052682,-13.596307237477422,-10.042794922470598,-3.547680856187183,-14.09832821423512,-11.236069465303611,-10.08539981297545
66717,,-8.554214144198331,-11.11834918409431,-20.865394397118138,-14.154427142200625,-12.111755778601225,-15.46212832858137,-15.035130074067908,-13.93667515371536,-15.378464811205642,-9.93217948307554,-3.201329729512347,-13.302104221676528,-11.825033427243977,-11.43271521166632
66967,,-9.727937630158564,-12.79825017534688,-20.058246154570725,-15.06231267420831,-13.528101826611358,-16.09664810021002,-11.651832724652431,-17.17734261314512,-17.39336531144702,-11.200642435595984,-3.716967384333627,-14.501598940137512,-13.513593121881945,-11.00657266584272
67217,,-12.61999702153214,-16.472124484810173,-17.281837789606175,-18.652867841479047,-11.065004727800716,-16.589531134872,-13.098626428441234,-14.668361357813604,-13.453106810427313,-11.54748354123952,-6.557978705040066,-13.709913330634992,-16.192227813624548,-12.824231700995997
67467,,-11.660158951636632,-12.471906033944798,-16.12737136387763,-16.754153850183098,-11.109624417204088,-15.243229326911012,-14.718467629452077,-13.458005936779095,-10.642210473748417,-10.975992260585649,-5.214524433152849,-11.10811184953685,-13.468947894886018,-12.412084290477816
67716,,-10.307818406464794,-8.592019126375906,-16.279354900306018,-13.308626790344606,-11.011364570174717,-12.402202048770976,-15.572538303631676,-15.03011983399375,-11.460528444165696,-9.07775104918887,-4.128754766762601,-10.544482478949291,-11.858809424932732,-12.10082432510137
67966,,-8.94942005018308,-11.880713957010387,-16.85828169579291,-15.156532633034146,-13.242641788726395,-12.599696230387774,-14.357248150512165,-16.745815913764915,-12.29990201677868,-10.773260731913762,-3.0091579518086355,-11.137782471624382,-12.175408002100127,-10.340647020447587
68216,,-7.616438831003398,-17.14819282812672,-15.932462047844174,-20.604049132505217,-13.128458361801286,-14.223633518762108,-12.717479345597413,-15.87040172303838,-12.252452169296872,-10.966368945356788,-1.0355856081628425,-10.12684545553234,-12.68811683347428,-10.738468253891412
68466,,-7.948114429976343,-19.60680337309085,-17.16942536720687,-22.44291735436328,-11.842278789707516,-14.69046927279128,-11.46800978817657,-14.559370759987283,-12.63509450122542,-10.959241032061293,-0.3894477417679812,-12.75466530099979,-13.24565987647571,-13.404808977490674
68716,,-8.539753205384422,-16.189470750632125,-17.503834988595102,-18.587227794095963,-13.513859384983428,-16.121124216576806,-9.832789531102604,-14.739717603307456,-15.324269098163434,-10.484774645416088,-0.7541242464276532,-12.697071411212848,-11.803924091570336,-13.25202601821566
68966,,-9.408973248849314,-13.872761366708596,-17.810867304429824,-19.37171434435875,-15.43160169902478,-16.066197114396584,-12.425507323948825,-15.685083165493449,-14.887929999519375,-14.549544556931036,-1.824752891620085,-14.37534143746364,-12.329203279445512,-13.932975336546724
69216,,-11.644160808034009,-15.69133853412853,-19.61532831254361,-21.091930528118496,-15.784630788043712,-15.306280777011397,-15.699820055258575,-16.052337875813187,-14.660098464292396,-14.421070904515608,-4.639287978562782,-14.343787562036656,-13.989574517837475,-14.640194762276106
69466,,-7.907428502491243,-14.359956460045646,-18.72252103012594,-17.60462798092322,-14.672460328192653,-11.35272861739795,-10.2166948540378,-16.212797175988946,-17.060086311821195,-13.05156468404634,-1.2164341579797648,-11.92207075309633,-12.541545243297715,-5.849210061073869
69715,,-6.499533078622283,-13.544195470573047,-19.519318316136555,-17.092013233551175,-13.769821466449477,-10.886630505632686,-9.535492776396511,-15.846594599574413,-12.41843120505035,-12.416589198025967,-0.218741927931984,-11.160583578337777,-10.619538115517472,-1.311548163201269
69965,,-8.36630549301293,-14.615906229870657,-15.91742374125845,-16.857039977730256,-10.800465745679004,-14.087629084217824,-15.32827984167399,-14.171585634487482,-13.383213141333083,-11.57566243406604,-2.591592082333741,-13.767384419757668,-13.094370462104076,-6.654702753489272
70215,,-9.557609757302588,-15.472492983324337,-14.996940149992437,-15.703899351305957,-9.041127886188022,-10.84287901002413,-17.440946702429088,-17.079008850785353,-15.810022861294977,-12.631881454318885,-2.6917289214134947,-11.07143238537958,-12.752657657104916,-10.242022306176615
70465,,-9.82608796614026,-14.518544606056489,-15.66930306532254,-19.161136449430465,-10.335364780239637,-11.46822053684297,-14.604229324205845,-18.693725222307208,-17.56915429377886,-13.83912297712728,-2.6085258568886136,-10.506944401179911,-12.07110342125052,-8.445343617301832
70715,,-10.578683275295164,-14.310515035926915,-19.51521165533696,-21.903414995998503,-14.269798566284134,-14.60748170766931,-14.306582058181425,-18.705952211468023,-14.576757174531226,-16.10997510982119,-2.1078211251622765,-12.82514416572651,-13.675533826355185,-8.79142972823671
70965,,-11.385680925128348,-12.77939335992264,-20.394801749518862,-19.22665633138101,-16.331512960562353,-14.766074677515869,-12.437159973259458,-16.916564322017486,-13.555397686827336,-13.633782976570348,-1.9209351310709903,-14.140934540101767,-14.619659802420736,-11.225201742765572
71215,,-10.647992217225507,-13.69264476668662,-20.03812975777788,-17.613374062711237,-13.218562094959044,-14.782206925242363,-10.395430138886212,-18.012047087675917,-15.894497010675066,-13.928427915289753,-1.508291283646701,-13.539779309605589,-15.809039107667484,-11.288077079608687
71465,,-9.956630811367711,-15.415731484068855,-19.124539165969807,-18.18821881290979,-12.470435982230608,-14.47828507887128,-12.501368064788368,-15.535130890984725,-15.374699390998114,-13.604728374130154,-2.828739311580425,-13.103062579930542,-13.135242156824008,-10.823533735377286
71715,,-9.99598283390394,-14.700077551983632,-16.564339082586105,-16.63423344594545,-9.847880947297227,-12.341687176440985,-13.650251712730768,-14.25449893265532,-13.060089497252994,-10.70025773558259,-3.008853742519749,-11.986648601149286,-9.001052063159662,-8.792096005420762
71964,X2,-8.929694727658923,-13.343329986075757,-17.43219303713011,-15.06443834264083,-7.544952262029662,-12.034913300628547,-13.935563676568917,-12.89139313790619,-12.39676146336581,-11.35531530864082,-0.3950889585493939,-12.19748568704338,-9.895956992477648,-11.026393093252407
72214,,-7.95554757867782,-11.617011126469489,-19.512648617184453,-15.302012528538452,-9.57098928867724,-14.656574224818268,-13.928152349778864,-15.135763966699011,-13.117538539101332,-10.853192316156688,-0.0316127941838463,-13.786934227643904,-9.639691241982792,-11.8503432019062
72464,,-9.706850690043265,-10.495662826471134,-18.274536769443287,-14.198206219668531,-12.398593669309946,-14.4581651180285,-15.854636767957942,-14.837817124522337,-14.76789876824158,-10.559682742137843,-1.6560091995515052,-13.284009523221403,-9.023504810445845,-10.689997499208044
72714,,-9.866783575364684,-8.212334460836558,-17.8697260887474,-13.08825378168667,-15.605422147276546,-13.988335904921632,-16.549408641484177,-14.788368554860948,-15.3981214547904,-12.029963105194614,-3.530466796480758,-13.195530326714447,-10.009481660647936,-9.200736742387166
72964,,-8.571657479868692,-6.984800486207661,-17.55735528806055,-12.212403420558198,-15.155160185229896,-16.050301112994475,-13.82118100134038,-14.32067532357726,-15.824782049341303,-13.23199313683892,-3.4771816141520384,-13.126260579323716,-10.23102388076444,-10.327504268101588
73214,,-12.283881024601351,-8.565238166530714,-15.778355835783078,-13.691857689782154,-13.078941531590331,-15.77502874418692,-13.436509135096522,-13.50828760509316,-17.93127932788257,-15.000409782659387,-6.620767051715508,-12.836519551806662,-12.086964153422624,-11.172364598340804
73464,,-15.7918973072582,-9.210086328741358,-16.80183560236285,-13.432392973383063,-11.205747628932976,-12.689525838145272,-16.095027118111645,-15.268617630334358,-16.436076866451867,-16.336009184960545,-6.988710743797903,-14.397265988616969,-11.632646692476348,-12.986639747848102
73714,,-13.67395580885044,-8.854186775591693,-17.322405237339193,-12.376042623259051,-10.508760824221277,-12.850188129899944,-14.240488203683938,-15.268998106195957,-15.619704068625236,-11.603164095501027,-5.704706113514727,-14.451458558964855,-7.884904692838779,-8.798091532218507
73963,,-10.943395628119658,-6.284160568617507,-18.008165764521202,-14.343878871891423,-13.891881662601168,-12.361676178839202,-12.013115239428574,-15.09228896183978,-12.648338394256449,-11.797590144020436,-3.7015717410936255,-11.574180728825548,-9.479924492365187,-7.036568385432862
74213,,-10.59198812957578,-5.691827624117623,-18.38687875164438,-14.52993010305909,-15.918214643285298,-12.06293832514563,-12.139759327279704,-15.695141969960602,-13.535790517090538,-12.445952246994056,-3.722570657978082,-10.899131723206146,-10.598119234589763,-8.111964136264408
74463,,-11.663199767855987,-9.269678430585722,-17.841421403338863,-15.621318519226469,-15.02939570125049,-11.735571380856118,-13.617643963653505,-15.729744179217796,-14.851914676778676,-12.00329509695499,-4.642267479455086,-14.165775312203856,-9.229605901097615,-11.222608736355497
74713,,-9.34533451858338,-9.674522186447668,-18.85300808156857,-16.86002546866827,-12.308026193605246,-12.227494738490122,-11.872554462219483,-17.246962394112565,-12.944296181351415,-12.988937017980946,-2.356002027715892,-12.732845155440549,-11.162648743322842,-10.566874836619164
74963,,-9.80521747641503,-8.435990482875567,-19.259409699495787,-16.655549754015006,-8.970401500975695,-11.48187455613792,-12.132259871426683,-16.089263127344328,-15.21874576834784,-13.173937693981062,-2.729769374964313,-10.275443698009886,-15.020268176233468,-10.025911540866469
75213,,-10.176901653475996,-8.975019131634946,-17.39666159318749,-15.687236984898604,-8.660981454325178,-11.94062413606747,-12.880054749593548,-15.256280791337232,-14.252958887591706,-13.704196267051952,-3.439982717121812,-10.285183282075948,-13.834709327527722,-9.760340273109335
75463,,-10.585881304779504,-8.344404545835065,-16.373601546523343,-13.414701213814972,-11.22127112061668,-11.79592656145567,-13.177461385407918,-17.707661078033937,-12.524806756548152,-14.596087855346385,-3.514963712135568,-10.837839199894136,-11.363019959016478,-11.68339505761952
75713,,-10.15138028378481,-7.059276622502089,-17.04314210972794,-14.65068119876312,-14.571157750218353,-10.61892553865727,-12.599247840536863,-16.982300236905978,-13.256120122882065,-18.04127516285889,-3.021241593713876,-10.638988674159062,-10.90259637056125,-10.633409939418964
75962,,-11.74062767367227,-7.699314742826911,-14.200623686320428,-15.646432101565768,-11.551510543973611,-11.744400915642956,-11.896775359901198,-14.213976097416024,-17.266227748186683,-14.271089081828832,-3.5739725891154417,-10.355131555024986,-10.586734255882789,-8.415542975756294
76212,,-11.496171962344476,-11.603176472303511,-16.138131893893604,-17.790058792569802,-12.40770732530721,-14.293989193215804,-14.430241762408071,-16.460154880452265,-16.02728096288978,-11.56154645589021,-4.666707301797491,-13.496627742236116,-9.523229137233049,-9.21784198492569
76462,,-8.883840706988138,-10.929589254727674,-17.209047846140702,-18.190613955873857,-12.396686058063818,-12.10568555895459,-13.374233329914604,-18.50028034605844,-14.618675752110112,-14.351995534951609,-4.061716683262289,-12.09245381376174,-10.87473861359528,-13.460756990855302
76712,,-10.7790385720455,-9.393291132010502,-19.95157047475447,-18.745893431704324,-12.700203027425596,-12.110266823043233,-15.800299195067057,-17.24319178460885,-17.671363441325788,-15.768231342184674,-6.031511740121064,-13.613715139481478,-11.154431095879987,-13.53235157841954
76962,,-9.916855831165591,-8.466932218933115,-17.32825728586616,-14.776159183505047,-15.51940923274146,-11.846900624166006,-17.23300130064676,-18.54002603893268,-14.90375202618376,-12.98562120796426,-4.833111994924363,-12.95063858313286,-9.21055692103041,-9.082122370814684
77212,,-9.007904712650738,-10.299517478616307,-16.062685167936127,-13.907801134191622,-14.410683753959354,-11.89029909187057,-14.527632027421689,-18.67908173143761,-14.87522344256953,-12.633252654647851,-1.9321278170457024,-10.8299107703744,-12.95417693460581,-7.224927575294025
77462,,-11.92420663999584,-8.480998567154254,-16.69071636997337,-13.216297769299938,-12.480676712715631,-15.67120070331695,-14.16450651387006,-17.785697902178214,-13.796301224001082,-13.417453210481147,-2.726283699957362,-12.62712602444708,-15.325196971458736,-9.413680749958804
77712,,-10.996874891730624,-7.466690519500151,-15.329492069181878,-14.712096560572828,-12.671205080711935,-17.33021355932082,-16.919181649460416,-15.145375628851845,-13.452276916104452,-14.452418153582418,-2.54616240897045,-10.974298694645377,-12.41761878308073,-13.609004405166177
77961,,-9.807521716639188,-7.561795712353271,-17.395181354491424,-16.178653409524458,-12.521898056001412,-14.38398034841918,-13.353939913463336,-12.838774581019418,-11.644280748579405,-16.208628964722585,-3.147883071992998,-9.96347754283457,-9.60258816416515,-8.501280615728732
78211,,-9.408466458957534,-7.237103803291308,-18.768455038581727,-14.82857569016013,-12.137559471303234,-12.551049385824031,-13.92044265995434,-11.863544945127105,-12.686447886458144,-15.946420482205005,-3.3066664129271373,-11.81655151848284,-9.986859395113882,-2.890552456815059
78461,,-6.976570200357296,-10.168449495839411,-18.53236138690668,-14.75338025369377,-9.99111152432594,-12.107852741965566,-12.084587443603104,-12.249631119953357,-16.869437316433388,-13.346314352438483,-0.8590851290806358,-10.311976944392873,-9.150539278921793,-5.087468862609451
78711,,-7.969154797984286,-10.990965585861634,-19.55404674952282,-16.747539279322293,-10.420944244826169,-13.027015242018802,-12.60898151201566,-16.900409514976694,-14.978802263820096,-12.30900641000674,-1.967345105520384,-12.840838657331632,-7.687189322068876,-5.8762432364794295
78961,,-9.22427125019632,-7.925777702090664,-17.175526947034783,-16.68951253036022,-12.21223958555344,-13.486633545521403,-13.491002907866037,-19.091189883943755,-12.008289858077555,-12.892902298004074,-3.6419590550304335,-14.91348733714294,-8.937862342852213,-7.294828284415181
79211,,-6.676663941254199,-3.10604414776609,-14.80496660857896,-11.631528497587738,-9.057027480435552,-14.32551524905416,-13.199730743759394,-13.038163869304062,-11.560480161698262,-15.318079291670628,-1.279560702691093,-9.75435788329008,-10.655996400797015,-12.143393722890924
79461,,-6.501024943248925,-4.191361266933635,-13.84406196704397,-11.953675845948252,-8.951078871008317,-14.13306418046009,-12.39048542907235,-13.247846864122293,-12.443826614668886,-14.05394200037238,-0.5883114042406375,-9.044870273292505,-10.654061848979437,-11.461434170853176
79711,,-8.53398883964856,-12.5602171643254,-17.36286706277483,-15.747080525954566,-14.069167835368576,-15.228559103866,-12.6593628766438,-18.06356054568577,-16.07180200376908,-15.764259198291546,-2.074063748502159,-13.407125121826262,-11.227861282927815,-10.250297236276094
79960,,-10.06342476066883,-12.246592867492438,-21.52212021985129,-16.589703257152898,-13.254551184954424,-16.685213311699194,-12.601097154011478,-19.0518792184388,-15.309563492444466,-15.896126391817376,-2.3618317448288155,-15.792199635311984,-13.030776727311633,-12.079960313157674
80210,,-9.91238999825944,-9.658054784494944,-22.178222837162977,-15.498338223167051,-14.275677399549185,-15.03439361594624,-12.332050609415433,-17.967398151919156,-11.38400398583056,-13.589815198808664,-3.659004355896824,-13.656293114746614,-12.98378803152024,-9.020376061664573
80460,,-7.380515158002607,-8.685907864854173,-20.008424793725723,-13.439275187612274,-13.96620319532586,-13.139011051560365,-13.337961238650358,-16.295676489725206,-12.064702445528306,-11.165311566180131,-2.537750509735649,-11.155621289092988,-11.024422450003184,-7.200601939068354
80710,,-7.277323177529378,-9.278090213222162,-18.13230704183462,-12.32414139232943,-13.485759503715542,-12.629707828080434,-14.23614213564405,-13.113799213319323,-14.032380505197787,-13.25452285209746,-2.529977915106079,-10.408710835498615,-13.438845928151617,-10.35221501677652
80960,,-7.822568665927778,-6.038720654999233,-20.15404825214583,-10.366094209487567,-10.662401998920275,-11.6984900191604,-14.234243901918838,-12.71475574016326,-15.75552749853046,-14.347392503611298,-3.269127380375876,-9.01005113718967,-10.906314881567642,-9.09478492828652
81210,,-9.352218232014614,-5.121727522106817,-19.507734445010435,-9.400388234924312,-9.7341529136039,-12.145334863776284,-13.095600856620369,-13.884690871448443,-17.197364369075952,-13.955733179237328,-4.168995629774544,-10.21616802394687,-9.420930010872208,-9.90181919801166
81460,,-8.114026636862965,-8.581223781044926,-18.28562939435431,-12.542883238199678,-11.231994991127475,-13.438601409651412,-13.313798138955198,-11.640205350048523,-14.733338155152634,-14.137681266485238,-2.077382611112405,-12.558763017239198,-11.508423532333229,-10.500500592963022
81710,,-7.854144088495946,-9.35028709017836,-18.48704720850426,-14.302167112957164,-9.934150907584716,-11.515833973753884,-14.97077676998048,-13.511716805279928,-15.383123275257692,-12.290493646510088,-1.7803872783177557,-12.79661830845171,-8.515234358741319,-7.87228491898258
81959,,-9.581315041306247,-8.112980201743532,-16.409695443679947,-17.044771216878654,-12.46088534846253,-11.353148378894682,-13.733862381391504,-16.364530375716495,-15.14524641071105,-13.11212614722404,-2.183526999502769,-11.10685980340233,-9.505149620236002,-9.22849845750541
82209,,-8.95136808123422,-7.738677257579866,-15.958407143352408,-13.976621519972598,-12.87965230121149,-14.7510412729539,-13.1578407479123,-15.13516063696783,-15.6242193876145,-13.569688955253262,-4.010770564923851,-11.85415463273642,-12.710111819084531,-11.61357039423577
82459,,-11.180592682014684,-9.813022509038596,-15.983002003992215,-12.466194288050607,-12.001650546495403,-14.93051105756184,-13.810080681387069,-16.510157513887084,-15.3558814163962,-11.973879712894057,-6.62037986598264,-13.655412254341645,-11.797506715723436,-11.266442741950843
82709,,-8.273255653071283,-11.68859065982988,-16.91879844224697,-11.2960845483695,-13.39510088958444,-14.74133985386782,-13.995813128548258,-15.699355954228285,-13.937815505000655,-11.334097639615097,-2.163547175076617,-11.558860982558429,-12.810287082718007,-11.57261992444283
82959,,-9.633307656648071,-13.480147533901016,-20.634826856686832,-13.15155173864381,-16.510304111277264,-12.726850032280703,-15.027586477867327,-17.121463009435615,-16.08300143260824,-12.222983678273662,-2.892654581010328,-13.132977368392307,-13.756817350754186,-10.812303308541098
83209,,-8.388571800467817,-16.480794243724205,-21.096091154401098,-17.836686434310735,-14.051180239907977,-12.781533711976374,-14.605185147421022,-18.759983105156145,-14.672488434172966,-13.614720503777209,-2.914154185960779,-14.667017740482338,-14.357270174926622,-13.396795305541549
83459,,-7.01362886116354,-13.107490807693914,-20.637628083257937,-17.783042571093688,-14.014549028286057,-15.709279490007388,-13.7234368721231,-16.347736359976118,-15.06721200288789,-15.248262874702714,-0.4265123843068252,-12.25150478526147,-13.174115195942768,-15.516153362865328
83709,,-5.344460752451557,-9.0703847173669,-16.483649236383116,-17.18593624963127,-10.314802075337449,-11.505841450762771,-9.715198656813556,-16.584766937659357,-12.956366102426747,-16.35289421603235,0.0629278885587546,-9.82708506182557,-11.933304238122256,-11.978589605052994
83958,,-6.642828917213942,-8.815911741118166,-15.48873770868072,-17.46532505352165,-8.745809141578118,-11.671671081913615,-10.17632055381464,-16.744887943974156,-13.256494471158026,-16.60167062593184,-1.611774549441352,-10.23347351526862,-11.199484653450009,-11.435771772695606
84208,,-6.20533647912311,-12.18932406555592,-14.028898829971851,-17.485209128025456,-7.523217238017268,-12.240736811309942,-11.63215516870206,-17.387061359187292,-14.315295299730142,-15.301304808900085,-0.5718863165202757,-9.15010279797889,-9.625921069863669,-10.485904957549364
84458,,-6.728260708189496,-13.37467420245992,-15.047335121027777,-17.34226834969324,-9.651805671199812,-13.68795167230928,-12.200100271949864,-18.681933558617757,-13.608286350507123,-14.67945047302949,-0.9761328370249902,-10.89027896767596,-10.74953151382394,-10.464326434433197
84708,,-10.193257731745636,-14.444568050613707,-20.937751534608505,-15.805732803887556,-13.662994550053227,-14.165149490430714,-15.673993088688643,-17.537696541644983,-14.586223998106826,-14.826661243552508,-3.0235149455465344,-14.867282860914228,-14.316361198151704,-13.087428104364289
84958,,-9.28112142856348,-13.572306023291098,-22.382072566131747,-17.457120282918613,-14.033388589829446,-13.589860410738956,-13.684338547487812,-18.43463518770623,-16.21359392051724,-14.079202187376678,-1.316629727046922,-16.625805680144072,-15.700084040404947,-14.775790390854418
85208,,-6.341706520301878,-13.174570907071894,-18.71122782206933,-18.21723979347124,-12.045637562208835,-12.488143030539746,-11.897074140180765,-18.185037970630503,-17.091704105849526,-13.859455674002138,-0.2754751239092554,-12.535588526693113,-15.572110586141136,-12.04961507738172
85458,,-7.030685357051205,-15.151000631654725,-15.296901268823708,-17.375558123165224,-12.350788436039688,-11.418448025790513,-12.257625917109817,-17.47748923521824,-18.995454537840207,-13.610204953275002,-0.6506664460207705,-11.465232285128362,-11.73675151086514,-11.380070356929227
85708,,-8.23418048456734,-14.695879522022162,-15.73827979049163,-16.821754674112295,-12.708692154852892,-11.6540046843504,-11.929903347117785,-13.52073325551487,-17.359255952296277,-16.89644195596393,0.0146007533244091,-11.498960810179504,-11.507300253718514,-10.485523996836976
85957,,-8.980268355197289,-17.01660337749246,-17.98626912826547,-19.08542535710152,-14.536471631641104,-13.030454634374426,-13.328571197895736,-13.245006626930202,-16.46532029959884,-12.914016062682515,-1.206655514144789,-15.1757153507915,-15.01405131858137,-14.380735493166815
86207,,-8.38200298482046,-14.6902275215292,-20.869230484666662,-18.44862187801089,-12.320222453482216,-14.438003240893844,-12.357690139058196,-14.482774880988954,-15.156885590176763,-12.052528843068862,-0.7652192343070563,-13.938201628030557,-12.713617278870322,-15.817820282646329
86457,,-7.378869176855529,-9.39081742949668,-16.719445275058533,-15.294327555606603,-12.28324559801381,-11.985615769903877,-14.57839917765038,-14.048517819108143,-12.924551302009426,-13.159766515152906,-0.7362684955186396,-10.933503155777128,-12.609174323615717,-14.48861801115738
86707,X,-7.932074468123869,-8.823763342330956,-16.913285212027912,-15.36852570482638,-12.936199392866357,-12.21588071693633,-15.056442159070963,-16.45525375536142,-13.54081379125858,-12.673427335179865,-2.0488501126239536,-10.65268453411477,-11.878812449962396,-13.703034475869352
86957,,-4.994316490951546,-8.08846430621278,-18.741882482383645,-17.607588222046864,-12.87157856691181,-10.293782289299454,-13.768767541151083,-15.844216981937546,-13.7300219268604,-13.180903206336907,0.9378129948189288,-10.17516478580156,-10.440612911198375,-9.073495814680332
87207,,-7.137202625019176,-8.75121810387791,-17.34269683627379,-18.892004396406545,-11.827071972402646,-14.262110290515526,-13.282595802195525,-15.098049625173768,-12.658426038207446,-14.516950417359167,-1.3835147789475737,-11.070895181673537,-12.873739016451582,-8.319571826002946
87457,,-11.05052497381249,-8.902951921904375,-17.289774029331667,-17.807620526403106,-10.47018677313056,-17.01740028659764,-13.795828338766114,-18.88773152203972,-14.56805061941045,-13.05582649286697,-5.093451767842288,-10.739301084344408,-11.701905289810776,-10.169276294360015
87707,,-9.72768248269482,-4.423744736513462,-15.422613880711346,-13.49184308567682,-11.467670154352554,-14.414481537018691,-15.56323735147349,-15.376263480920557,-13.11093504387931,-12.377774691507655,-2.7359563176527857,-11.31296052319643,-11.441398542860018,-8.059066863898948
87956,,-6.19486475815831,-8.7048654168823,-15.67920736797258,-11.787831809278998,-10.605484816939049,-11.863136400164509,-14.870185216103218,-14.190502019096918,-14.662012352672075,-10.99318007430594,-0.4517613982956415,-10.27545058828393,-11.789345022107064,-9.82298760531637
88206,,-7.286111443850579,-11.040692038583826,-15.610066456373868,-10.046825072866309,-12.395090647252404,-12.861177835665622,-14.915608114665522,-14.804550125331575,-16.970815428302753,-10.5140241094227,-3.151673863693939,-12.853211975671046,-11.158062507572923,-11.47188098132925
88456,,-8.370898241592705,-9.004740592176175,-15.433430446859088,-14.465276113326178,-14.111766541835635,-12.166070873894192,-14.460401269881,-17.202182663679725,-17.934816306709763,-10.764105592933804,-3.8665150875802152,-14.501634273919608,-11.954095811464406,-12.504346923708052
88706,,-8.393541650086053,-8.40498497198175,-16.814511331809353,-12.901898289386352,-11.671466639889974,-13.676729186230531,-13.22416535131155,-19.83312572205242,-18.06829751483366,-11.022976952049524,-2.526297969960458,-11.16487052267816,-11.508475841145852,-12.289235770446822
88956,,-10.67748183906119,-7.478031045219026,-19.925730896893363,-11.388962651405796,-10.622469141100504,-16.540304244835045,-11.923717900410406,-20.394283734507447,-16.425523714458173,-9.432742290074035,-5.097325496653713,-11.82474791478844,-10.301832826044704,-7.633161386236798
89206,,-9.58611363096381,-6.707134503939152,-17.76921676553965,-14.130109166966363,-12.435607158647446,-15.463190822259754,-11.670566023233892,-18.52270551194035,-16.42348627078098,-11.601301069794284,-3.5439307389322767,-10.794547820136998,-9.768842423528316,-9.026013957535165
89456,,-9.07521470141521,-5.055475492225599,-17.42838248634162,-12.68223153674291,-11.750063499385613,-13.92424287375174,-9.594366492156295,-17.488318439322267,-13.66496770069821,-12.08698076108739,-3.1929421588194917,-10.225351685338104,-9.467944110360246,-7.145737826753239
89706,,-9.577155225837949,-6.31665310756196,-16.537523008224863,-13.064643221181337,-12.001970472748155,-13.937427895270908,-10.87294116387227,-16.515403447741743,-13.52078792168927,-11.091128721120992,-4.591469116386098,-13.057115928054612,-13.63637952521935,-7.74717560984854
89955,,-7.962325625044365,-8.897974473515575,-16.96597974339976,-15.888377089929286,-11.345329089466023,-12.933158469636512,-12.79956241112982,-17.34366848563601,-15.326290537687278,-11.36388652379675,-2.732445197048869,-12.280048076386077,-13.384905420205753,-10.796205066073885
90205,,-6.291437061520899,-5.58126269987479,-17.02625001358108,-15.34186168124486,-8.915263803557675,-11.787665685412833,-12.348181594153848,-14.998799024625098,-15.769828331486316,-15.109485143536595,0.0098511909984065,-11.147444867140868,-10.346517211680489,-7.720552224210751
90455,,-7.526792550239784,-6.847716056398594,-17.139828052603097,-14.800059784911197,-10.895403762663548,-13.919704691300833,-13.202092172649104,-17.152112239299893,-14.82793327240126,-16.640984661254443,-1.9978051795062488,-11.72749558590703,-9.083517504484222,-9.125408180712927
90705,,-5.905467978160521,-8.96698826968366,-15.75613772118238,-15.51166774689244,-13.475465307751657,-13.843912093439506,-12.36205637988041,-15.652133590283643,-12.858545856684993,-16.4192235543496,-1.1635141944897445,-10.137686798429732,-9.841296810794043,-7.683494687280424
90955,,-6.136376439064451,-7.001545754145307,-14.246216444282233,-14.64518082476688,-9.655555682956225,-10.463797047868596,-11.619471688179502,-13.54343235826382,-14.189846955383867,-15.42774489895207,0.204765726962456,-8.647679272346995,-10.65603431371146,-8.800423464379396
91205,,-7.544236779364976,-6.9596061179678745,-16.447113557541073,-12.23647668865215,-10.344018337975564,-11.072820071178535,-13.656340876261224,-13.245562034533362,-15.657408086548417,-12.47301148851022,-1.9980887127863347,-10.971010015265506,-8.957670827434235,-9.258181484060376
91455,,-7.509031899758254,-7.882301986239169,-15.60224732011406,-15.305257433243844,-13.792228724891364,-11.098787464737814,-11.177020903684369,-14.05497997816364,-14.621803851035942,-9.384503423518757,-3.6143214210585857,-11.2335689574085,-9.669626612971827,-8.91012877143229
91705,,-8.32461602777385,-9.706741724425475,-13.391805015336177,-15.783427483635792,-14.050114141716394,-11.242350602369465,-11.213547876730196,-15.310040296862372,-14.985443857551475,-10.806962172180135,-4.372614018703047,-11.187522737354788,-12.652490810769992,-10.20960847577591
91954,,-8.452519632879978,-11.506449420401452,-14.089132385679257,-13.67533574021966,-11.090735924818684,-13.177100546767551,-11.962571335927702,-19.337369709256123,-15.96058226981337,-15.061643013517848,-3.5208498525208585,-13.356213461910126,-11.559749105934213,-12.601115579047123
92204,,-5.587009222289822,-11.623853778730355,-16.69175318004327,-11.936554579737734,-10.51184007777036,-13.32072389319665,-10.291280807824783,-18.584955237809652,-15.780550489125812,-16.590447946659165,-0.7457453359623338,-12.06831224001756,-9.669280392483255,-8.073835505946882
92454,,-5.952318451976375,-11.945897485976186,-16.78639580410293,-12.514118401961484,-10.753865418986614,-11.23097614966619,-11.065204747875336,-15.487336285326036,-15.817598752369456,-16.489976301251833,-0.5948932721906224,-11.0310112805852,-10.244664826500635,-7.092195333639961
92704,,-8.769675790189506,-9.81588866224952,-17.199926904647157,-14.34496357909387,-13.141691394139894,-10.082655840821156,-14.339457739107896,-13.045833446716111,-15.220492981184684,-15.436937238195892,-4.129103289358897,-10.898904162101957,-13.17333399172496,-7.754962619238171
92954,,-10.56093096056884,-8.304194684211634,-17.934106976348684,-14.900513360370232,-12.38877092253983,-11.177853887204856,-13.327123108706616,-15.536103311765572,-14.6910310474816,-13.60154880095268,-4.405278963638652,-11.235990471333835,-13.598711300901254,-8.132830050229439
93204,,-7.792160661135928,-9.55084470518875,-19.363148675673397,-15.283839562897692,-12.327464540042588,-11.348557333522786,-12.761960227226217,-15.143582028699528,-11.950166055032438,-13.385195399614352,-2.0879598258484644,-10.200474940396385,-10.52007290895479,-7.057821684918457
93454,,-9.42434517050639,-11.02832298302889,-18.72061275274532,-16.57340762226191,-13.42943894730611,-12.696038777833143,-14.00307966240744,-15.07457003720246,-13.37070993483838,-12.249149782812234,-3.5084386785870136,-12.442672377308352,-9.402921166448769,-8.981812140332018
93704,,-8.260011611916616,-13.37605373601404,-17.626764316111732,-14.970382154830803,-11.800147357021745,-13.559074361335826,-11.162593022301166,-15.280546660396404,-15.070742865259014,-14.874600365961602,-2.126381269730661,-12.07097329438806,-10.305239912851318,-12.193273206105657
93953,,-6.015581297109013,-9.536829955977852,-17.526359890973637,-15.996232718555136,-12.92924758613358,-13.184849119368266,-11.757304937757812,-15.42455166958572,-13.860255769606573,-15.739117137311212,0.4495266727355815,-10.566258798742789,-11.119707504927527,-9.628005071453936
94203,,-6.120684609396773,-7.311066974651114,-17.776678157600855,-19.1292293405654,-13.24656252726083,-12.64196501487156,-14.834908028976482,-17.719496090359378,-16.944090307559676,-13.944027391898942,-0.8805000145757993,-12.88871850193246,-10.62358647107752,-9.167562737340582
94453,,-8.156546821497258,-7.817826552715682,-16.650733730171062,-14.769392921571953,-12.452541397084468,-13.752609583915476,-13.560007870541712,-18.40803594930501,-20.180933866875385,-10.542677556254176,-2.4199852150119545,-12.142459373093908,-10.701399441795065,-11.89993640100731
94703,,-8.632797908586527,-9.2957182034854,-16.969510912472508,-11.7455212077751,-12.279266010315167,-14.184815126935945,-12.101890180869772,-18.259757088139136,-15.20396372592021,-10.623275588189127,-1.8743304620699328,-10.288242651754056,-10.790202109404513,-12.674156314686604
94953,,-7.770735758124712,-7.23760386359488,-18.75807789440377,-13.43069384385666,-10.856407134912104,-15.84830791298642,-12.195507424141594,-16.847232916186627,-13.689985601881112,-14.53966241893565,-2.2300308594231484,-9.877518384141275,-12.161065816996528,-11.77290608889774
95203,,-5.756064905196922,-8.063685573352208,-20.599996411895116,-14.226960926884724,-11.334896497439733,-12.14480298591672,-12.47557143167188,-16.268937372780613,-14.666540497267931,-14.351374206372627,-0.4029476802497111,-10.904988743627271,-11.752443495683,-11.097710319685577
95453,,-6.773137055893899,-6.664156012097856,-20.6647668783301,-16.053678975208353,-11.815680888605437,-9.644661158383483,-15.1521477624817,-17.043328750767,-17.621199945337963,-9.418683578113024,-1.4348603758750542,-9.441824628337576,-8.312690241719054,-11.442450030537172
95703,,-7.036757393213765,-5.4348298410635545,-17.571882427244876,-16.008480965665534,-12.370002019565424,-11.846520398730892,-13.887108690342238,-16.42434131114866,-15.909537056176012,-9.704274073919514,-2.597150940159008,-9.999174361970184,-9.164223115281064,-11.072225409335736
95953,,-9.406533650332705,-10.719722029532706,-16.59734872404277,-16.475487087360424,-11.38562680877987,-14.150067740798775,-13.639989584913623,-19.54459691983766,-14.49524108132589,-14.598652934766934,-3.4631665952590707,-14.364626117365546,-11.515832831046868,-10.343470283287656
96202,,-8.706449697108846,-10.57021636567666,-15.935196783824512,-16.866636770564764,-13.530620965759784,-9.68189333109199,-13.524023070989411,-14.2002921717532,-14.198943388050548,-11.832021844091855,-1.580931289585826,-13.009344963020109,-10.072445390806582,-10.69375700308943
96452,,-7.987557267116415,-8.199370978128815,-18.388433577023,-16.429279081111016,-12.452302013611389,-10.22511535283014,-12.068288983021692,-11.72864329626789,-14.162228553211428,-10.503068684000718,-2.2488165115058982,-11.199063087817333,-10.3878267742379,-10.060168832180906
96702,,-7.791526175764312,-9.043130583935149,-18.27271222521348,-12.438647186557985,-12.96146501651334,-11.613231966611204,-10.192567113360862,-14.435543997456543,-14.927211192044547,-13.211815114442906,-2.091727198329075,-9.019062711450164,-10.29663294911176,-7.188416127050288
96952,,-9.313562710611208,-10.109885866686689,-16.103406612837794,-11.298981504650287,-13.582283370765118,-11.885381909326885,-10.832751892850885,-14.97787308733077,-17.054678174392457,-11.74321157866424,-3.088246738110226,-9.95295708029892,-11.265766078774869,-6.226279603699263
97202,,-9.504276831936895,-12.663801808571796,-14.83590076253176,-11.7556483399823,-10.485417561121258,-15.000666340210149,-14.62738746428884,-14.52843282861577,-16.870915299089283,-12.542012274387403,-6.164692004681943,-13.549980631696595,-12.681902101501256,-8.719374386162142
97452,,-9.269996483429638,-12.894055854239006,-16.448873911282462,-14.55208315441752,-12.34019210466707,-17.146048418670784,-13.59927519850638,-15.584295660262852,-17.505482592577255,-15.727812912162186,-5.741489367668526,-13.588873090102425,-9.490583173923463,-13.48793219333189
97702,,-8.50922671399291,-8.695015241854009,-15.981339430149353,-15.018016266836607,-12.413818064322648,-19.51790585774479,-14.138664204748892,-15.881020338570886,-17.718727684218788,-14.845317633985289,-3.813079648330287,-12.06305008252752,-10.753199078970068,-14.997151404181183
97952,,-7.800433432882176,-9.244425251029435,-13.4440737439596,-15.848507209676722,-13.58362402264344,-18.310114414135263,-15.16895432751979,-15.063157063330216,-16.484053003108517,-13.964960586234804,-2.159767643456026,-9.880688100345395,-10.763463673531737,-12.095789702880904
98201,,-7.522575130928015,-10.773293818953714,-15.161791868326612,-14.91718569093772,-15.3430309342398,-15.019453186821446,-13.736971158353215,-13.34730857441052,-14.450766968104997,-14.746279237176603,-1.231120663453367,-9.98280413189572,-10.5659169309416,-12.060192238844085
98451,,-9.30857557277105,-15.96042195215891,-15.246436926673132,-17.86395069083483,-15.877382351544751,-13.481038025008074,-14.010650331751483,-14.934099362525007,-14.333572708896686,-10.94932950526542,-3.5050188856715154,-12.551942708013026,-12.847081459949171,-13.854477636432488
98701,,-8.384069099794692,-14.240921015643412,-16.656321669985633,-18.16831619755252,-13.197521901355191,-11.649070797334575,-13.32502488774834,-16.762592275213485,-14.61029586150481,-13.010832254454613,-2.453836650552383,-10.557410884121134,-11.743886789672604,-11.589652479657754
98951,,-7.613149104756898,-11.372915381910412,-18.99464212838105,-19.27542900618222,-12.741157303993177,-14.609618666417395,-14.369632998866257,-15.31704685696108,-14.809633096057182,-14.731868146930085,-2.2599990696960583,-12.029566552902216,-13.597427699442818,-10.364892278331528
99201,,-8.92607723135104,-11.44549319396158,-21.76379056340581,-17.911382705679333,-14.917314692430754,-15.661726934011131,-14.92162571801552,-16.339758421858242,-14.521559683136612,-12.827450136810812,-5.006910662113112,-14.487550095974203,-14.251502588765884,-12.389536749054203
99451,,-7.279062290606724,-9.720774264954898,-17.909601948251904,-17.78603636571742,-11.42113816362561,-13.665399450662408,-12.64998746752046,-15.922331543838052,-14.541797314739036,-11.754077514663486,-1.9497076692018716,-12.020629229151709,-11.66572220552191,-10.981473539916616
99701,,-8.007659051089075,-9.020626310362797,-17.608309104850278,-16.45189642924248,-10.96874707413469,-11.630177324308145,-14.682055930519136,-15.734667272613445,-16.121856510321052,-13.065968871661056,-2.0399213311332485,-10.825014835382635,-10.72981002749064,-9.881722459200406
99951,,-6.698184576352232,-11.244941207865242,-19.682224563354143,-17.678558501741403,-12.565225063083927,-12.397122431752171,-11.897168979517536,-13.988990736817987,-13.286930085656596,-13.676552855149405,-0.8566685638903013,-11.078091282916173,-9.371435868837954,-10.367376295790882
100200,,-4.238006335830232,-10.75757852697546,-19.656370193202424,-16.04527889589527,-12.652283184775332,-12.995829760617994,-12.633911156041238,-12.971102242563877,-14.817866451480626,-13.74719860758703,0.778359631290902,-11.855884993978998,-12.180795987719286,-10.500886382215391
100450,,-5.595035580255421,-11.623024093074994,-18.37655144781265,-13.97073201238739,-15.56452922083687,-10.352498484687306,-14.637105778688747,-15.877073147163486,-17.87316383895859,-15.690097911394083,-1.0620963912437658,-12.157029665749338,-13.918228432250972,-11.787308384912183
100700,,-9.445108032731651,-10.318413759416478,-17.642906281439828,-15.0317281356923,-15.596203218655443,-12.18942822572052,-13.746663904306988,-15.343889800222756,-14.31872185451699,-16.708645407694014,-4.199154346200752,-13.737233847574895,-12.49996985199659,-11.645579423312393
100950,X,-6.3112230690677045,-10.384539835368363,-19.927700344355586,-17.6305681320974,-11.11696891372332,-10.019917712686617,-13.389635602049584,-14.59021117470453,-9.967337999760945,-13.908344482140016,-0.5566672133293022,-10.042873705352926,-8.358883059502409,-7.962214552469295
101200,,-7.608796943494388,-7.542043401325626,-18.281260876733125,-19.341893020637315,-13.231668172137192,-10.444317995141152,-14.32038381293264,-16.958844477325663,-10.524750266460885,-9.562170994668524,-1.874180442465264,-11.778480026455815,-6.816832010890014,-7.611630101374301
101450,,-5.417760011570732,-6.503476599390466,-15.167064310120832,-18.86564071322729,-9.072770212586024,-13.020245894189834,-14.653573509249648,-18.56162276452319,-10.668085810487163,-10.511395988985978,-0.1657156230396357,-12.91918527047924,-9.323772632907492,-9.391036090408344
101700,,-6.15833589971629,-8.849161924051872,-16.46435242881488,-15.226817466752356,-9.19676754763718,-13.41827633760828,-13.189451340178447,-15.16544703887687,-12.191126463465489,-12.1054644591758,-0.8125091850302681,-11.160867471100936,-10.360478803443712,-10.468619844360465
101950,,-9.50866244087058,-8.88674446317316,-15.24169362575758,-15.72160805007654,-12.82844205283766,-11.48065521256151,-12.88825733764634,-15.845118543710102,-15.973058809699271,-14.1143409771689,-3.342474424752125,-11.86333583197823,-10.093773397452924,-12.79554276632088
102199,,-7.349794395953597,-6.426642931859491,-15.314186423866534,-17.16241377797178,-12.375255311905144,-8.451537343351038,-14.684751282883326,-13.693085916617507,-13.989177513425377,-12.34164295386936,-1.6930596893456953,-10.602662588906854,-12.549679051969878,-12.876947696288186
102449,,-7.779464561431171,-4.717394578081933,-15.179542367736126,-13.578798163920071,-12.484856330513075,-10.03239751792632,-13.851681569821537,-13.44017100584836,-13.354367389939712,-11.364183882623482,-2.237901422520528,-11.583920786402588,-8.077600120610338,-6.87048758315663
102699,,-7.569721127919387,-6.882130764144447,-16.658506781949413,-12.45545349262705,-9.106732949296802,-12.729440189691212,-13.210439318605513,-14.466879141076667,-14.938125401347502,-9.587524837419652,-1.1844646229085278,-10.899699064249548,-8.39305023238005,-4.965092662586005
102949,,-8.534173578307696,-10.385901467577924,-18.740104308755893,-13.540274673521331,-10.520290200604956,-15.125915860867988,-14.557612076842616,-13.84247073666326,-14.260290265181698,-9.008782618697436,-2.089710056544151,-10.938286724133864,-11.247075985990085,-8.5728843725469
103199,,-8.062954053640555,-10.755358034400524,-18.414005588435685,-14.376310678641133,-14.39005957917245,-14.921870967357677,-12.83065320956107,-15.058642487920968,-13.546084983286022,-9.65073287911902,-3.256762554993725,-13.183332331803072,-9.267355013852796,-12.70445226424373
103449,,-5.80486147465837,-7.997474474160729,-15.87904221517475,-14.861041651988693,-13.1966582571838,-12.81657301501448,-13.25556511079238,-17.31291909529081,-16.74219413958052,-13.942039725789018,-1.5020074388486533,-9.4835844512836,-7.40641508684959,-9.851573137701532
103699,,-5.334965995976083,-5.6180904526586986,-17.391638311181758,-14.348503183824096,-10.876023773000624,-12.829543256038027,-10.26269824471785,-18.381087897007788,-17.873130931245484,-13.188748221458006,0.5854118067635694,-9.438222105332,-7.664787877665205,-7.104292996360155
103949,,-3.758940286119556,-9.22927324390056,-18.11627425136923,-15.300490626805942,-9.013689307757176,-13.85566819934622,-10.243697769111249,-15.388117639173132,-14.316237750171563,-11.1989873995247,0.4490421217727203,-12.685662903923635,-8.43500942539359,-6.644545689672579
104198,,-4.801539206826674,-8.126862381178352,-19.99494436251536,-8.655972702441769,-10.781666925469558,-13.713975660351135,-14.605297903099396,-16.039716655260822,-13.7679361606296,-9.46442476381728,-0.6924362069005406,-14.177382036381289,-10.273152705390428,-9.823543796150007
104448,,-7.260257097191442,-10.331413525376655,-18.657354438910424,-6.386483454377983,-12.026257588538048,-15.230083275849829,-12.027455080980658,-19.52651143725886,-15.241302518289745,-8.952944130385735,-2.1390606450447347,-12.431473711400834,-8.72020634067925,-12.96647814978307
104698,,-8.466713190335891,-11.499045905917974,-19.88673356788932,-13.163320276391984,-11.826077245886726,-15.443029156674047,-13.88476853658905,-20.113977252729637,-17.75203195552159,-10.548328050379244,-1.974818967404464,-11.453560298032972,-9.89349780612716,-15.052050252075666
104948,,-8.305025673620873,-7.955301051712571,-17.870062883137237,-13.50472809707328,-11.49934604673502,-11.91916357090964,-17.997462345538132,-18.23416416987762,-13.320099285984304,-12.506685502396817,-5.086467664439253,-12.557749279776766,-10.98153849643906,-12.88116602473973
105198,,-5.780624837111262,-7.710774187006125,-16.006424809952367,-14.068805982848026,-13.370450512489349,-11.789459731315478,-18.61874250706314,-14.512939638794162,-8.739112665641066,-11.982739100940288,-2.481292852988355,-12.849960482823006,-9.998682701915174,-10.89487165131147
105448,,-4.702821382248193,-11.484783119511672,-15.793980419815224,-15.956223467292675,-13.025483090709324,-14.345443923439678,-14.230043367630032,-14.413208835316375,-9.92745567115265,-11.586197510466418,0.0065188819736106,-9.977532647140787,-6.788229591245908,-10.919605636164109
105698,,-5.322064985100661,-10.944831624308405,-17.625288042213047,-15.266799795587538,-13.020939743632038,-12.91130513174866,-10.679411445575573,-15.25225868577486,-12.96315507142474,-13.517686609909624,0.0841730448929408,-10.38196933353576,-7.797797570966026,-8.006734143204293
105948,,-8.337068051463758,-12.447921513173997,-17.714457437610292,-13.224548306602712,-13.972179651304318,-14.039376722074232,-12.823971432641477,-14.861199910681002,-16.625645945921864,-13.741553810944795,-3.1880362459955967,-14.049868806574084,-14.454090915067066,-9.351360076290485
106197,,-6.566573297677439,-12.473340077453749,-17.155503584122513,-13.656530350492964,-11.384181477875666,-14.496692478806825,-15.098152620668712,-17.673910021185854,-14.947731712958891,-12.870458223916756,-0.3247641797703283,-12.439739742310907,-11.506634110091444,-11.352151758391756
106447,,-8.52664193683067,-12.588310002871594,-19.722137658207014,-17.46791721499225,-11.619203275576323,-17.15278097787184,-14.171698048730628,-14.79625745959192,-13.596723856054512,-12.715693873621223,-2.0464745306417487,-14.707256248583214,-10.55189167404926,-12.010888036772451
