timecode,event,eeg.af3,eeg.f7,eeg.f3,eeg.fc5,eeg.t7,eeg.p7,eeg.o1,eeg.o2,eeg.p8,eeg.t8,eeg.fc6,eeg.f4,eeg.f8,eeg.af4
0,,-7.960248964336607,-0.8032419894289791,-14.874593587380089,-6.702062634115071,-1.3628091339475368,-7.04062561945798,-5.178257004672158,-6.233600314441964,-8.537519916220075,-1.8333909427351105,-3.170276180238222,-7.891545740105501,-5.00659939615281,-6.5391730336599
250,,-8.839657081598856,-3.143637786263556,-8.336569478100657,-7.088374450071143,-2.19598455327704,-6.6468409294065,-5.132634112332831,-8.141232426812733,-5.888347339128704,-3.924084191340768,-2.892172315702948,-3.058291967929524,-4.234178379610588,-4.731261241930613
500,,-6.324048894695586,-1.939229287304305,-7.127203569054257,-2.954681337641465,-3.766935921751809,-6.602246293940521,-6.622390151436485,-8.291528371242899,-4.5897572449595,-3.4324724593868177,-4.326293537158485,-1.6538588491423936,-0.2090427518106041,-4.423886824503004
750,,-8.661363792599477,-2.24599364826819,-10.445800141106009,-1.9611873161942244,-6.720626132171813,-3.344362731136203,-6.162215719768139,-11.046033759652934,-6.995563981252451,-4.975841831058856,-4.173998474980694,-1.251307405326274,-4.74758582519068,-4.263482131497951
1000,,-12.184466702311935,0.3478400622533731,-11.100354566816204,-1.023664641521565,-3.3794417303746864,-4.354726167650592,-3.701577358221577,-7.2370478046683395,-5.26355303465537,-3.277075001866665,-5.590749686366259,-3.62115974351348,-2.034648077843581,-2.4216810528547312
1249,,-12.43836728450594,-1.7140496789731157,-17.387141246278087,-2.2749209221054176,-0.9519850082132022,-8.187945607052193,-6.1254446355922205,-6.996534605680436,-4.435045929469277,-3.4435342571319554,-3.240008969541437,-7.538922966437749,-0.7004082990987243,-3.137499651397295
1499,,-8.9506411505761,-0.7061754456629885,-14.598307217988484,-4.209050139068245,-5.857273339649105,-7.872791352695099,-8.788486192785458,-8.70431289268646,-6.588181177567955,-8.226189622803604,-0.7836060241638141,-6.785911448039607,-2.663616007002184,-0.3141470444155672
1749,,-8.8090400378818,-0.8348542676472641,-11.827412824801629,-4.203288112246809,-8.303155085952138,-12.577181534121006,-5.889590943900496,-8.15144637534131,-7.286129481370946,-10.912719461275806,-0.9036275440699716,-3.8683335376849817,-4.492154934304988,-1.915072891356164
1999,,-10.35546252903863,-1.611839746879147,-13.537397677151567,-6.467359788558607,-5.485911654354032,-9.703027624171987,-5.632731290473075,-5.2576313492807145,-5.468386516987477,-7.868603732510855,-1.929436037874076,-4.511500420914883,-7.008490373783253,-3.3981821198829847
2249,,-11.938828957097652,-1.0991431140327377,-11.687813991609763,-9.101135425531266,-4.592581064556651,-7.970155720507048,-6.01738978633879,-7.126298613768305,-4.942327641455178,-9.294745525024853,-1.5012489258016404,-4.270670034431855,-5.779080305113228,-3.2489384483054566
2499,,-12.547331874170611,1.1718393393351525,-9.949263344177837,-8.876267209711235,-2.0530052347206427,-6.412008958260332,-3.920644566032884,-7.596775477772643,-8.052366485987633,-9.624954187124914,-3.843570057581825,-3.356782559901468,-6.034546824886609,-2.6069957810164763
2749,,-9.720394469839947,-0.4979414081117539,-9.767144738716746,-7.769138696977949,-3.356474676582509,-3.97112910504747,-3.97282268828918,-5.911916519875833,-13.83506522661612,-6.42334367872219,-3.74381035204444,-4.1169338881859785,-4.294682690415586,-3.873457784324032
2999,,-6.759842574582979,-2.4417611622480355,-7.482614333843667,-5.956093937043006,-3.656402694658965,-5.639601412273692,-7.637781094094449,-4.596146430255086,-8.947426844438189,-7.547429480204047,-3.9832994202849688,-8.609786012616205,-6.181065782938811,-3.037502199852757
3248,,-6.439114949862433,-1.7130625454559896,-8.781821509250813,-3.66279401528494,-4.3044252911002125,-5.098588570331226,-7.225075157762566,-5.430375295625092,-4.605389657034582,-6.344930495641929,-2.92040553874029,-7.9351853192759805,-8.082991054410558,-4.50956168481831
3498,,-7.231567881044499,-0.0423245691577306,-7.869661556017165,0.8160204145058203,-3.505478834597435,-8.365706856062982,-6.33703850195574,-6.767346245603461,-4.847598272026596,-5.765599576019822,-4.249013407403439,-6.952529352649175,-6.38811826945221,-4.9646104302807625
3748,,-6.860414681601674,3.17525371128564,-9.5731139534262,3.067624762871243,-1.0679916334159696,-5.637471487706468,-8.549994518807239,-5.231908954429034,-7.745144924340392,-5.22608358200994,-6.7280943913001305,-8.394975429319022,-4.778326165464028,-4.251078801363372
3998,,-8.38757717551516,0.8920961738983313,-8.701701059054457,-0.4574828051942672,-2.6007016105380947,-4.322144700046993,-5.033271581603166,-5.653189389318784,-8.184365239041005,-6.2187931834214965,-7.624006775937426,-6.987194407577356,-0.9952451801334264,-2.8781904784292007
4248,,-7.319024192461154,-2.0155570950181616,-7.526084558303724,-5.6481273710645885,0.2378319104089807,-3.2159394966223385,-5.784510755696011,-8.208833113454618,-9.891295752053642,-7.615360694730279,-4.617940121152795,-3.944797002014999,-5.832167861081116,-4.359517852362312
4498,,-4.306697597354652,-3.0073723135255364,-12.938972907124729,-4.495498355029143,0.4703520411250887,-5.360256853991187,-10.053591277977052,-5.754600434666273,-7.838195268600462,-4.635138796325969,-1.4669589272206425,-4.820343274719432,-8.347835649460162,-7.142045369715458
4748,,-2.2400275886187897,-2.663180550389256,-17.134658282479563,-4.794843667438911,-6.079266978620992,-2.692416595008124,-6.839744760161215,-4.365411054556928,-2.589453996169772,-0.4167041784173935,4.055953913042324,-3.116050049179816,-3.9008162604204855,-6.0750340982154825
4998,,-4.2902893962416,-0.2228029733259667,-13.402157824532736,4.745365844301023,-3.6334297591139633,-3.221456973326246,-4.277231966872815,-7.011605234578251,-4.186678679089853,-0.164357896104783,3.3397253929843,-4.922317692526862,-2.603441392777448,-2.2316004814042705
5247,,-7.304830876521433,-0.9086326034032126,-9.209387022450027,4.589500856419069,-0.5119894716002075,-3.149562812293309,-5.612787297727051,-10.010811900906834,-11.25425290571001,-1.8776142057257517,-1.2122046690594062,-6.636516199616924,-3.842564488674836,-6.797557423619764
5497,,-7.588652787078266,2.510793385661162,-10.351700137975676,-4.976686083515996,-2.804074656930564,-3.4331099078296097,-3.6859777996767535,-13.675643391306984,-6.974940468846622,-3.1390503663664497,-2.9352826101242524,-7.838021956749302,-3.911864918216203,-5.156092037826169
5747,,-9.261595999706724,1.018094029019566,-9.369612017965771,-5.935399205083262,-5.09232744664952,-4.502730248595973,-8.46871394491171,-10.144952044701125,-4.794650097090715,-3.5789907223497903,-4.253319493364548,-8.661240446226376,-3.059121464651572,-2.217671244379961
5997,,-9.899558726189133,2.9441420396669016,-8.40256002109455,-6.984394023907761,-0.7742980493582305,-9.02272908033376,-9.662160746594376,-11.756611086780255,-7.161807973507953,-3.773736416655984,-7.173967229773172,-8.08199501483924,-4.242167232920986,-1.6718943096678662
6247,,-8.080667021401531,3.732460028671828,-8.788513712133998,-9.692910764236313,-2.2752635227099054,-13.741694065850316,-6.608303309692172,-11.617308974974808,-10.555814427511564,-7.966098200722216,-6.59551689738842,-7.670886854398661,-1.6373321997829462,-1.813914107691846
6497,,-6.408192277136122,2.762149806052261,-15.435015627905123,-6.860533773563496,-5.055210793178647,-12.004211066551353,-6.834894424117417,-10.684885638291926,-11.314779070890108,-6.38847238302575,-2.989362140911596,-8.809853856123961,-1.678480950647732,-3.5724758280047797
6747,,-9.968364481206,-1.158101137484942,-14.948749696825942,-5.57440187751368,-6.569823423586421,-5.6522624194169495,-5.603181961596531,-8.428152875885806,-7.777135562522788,-6.357210136766277,0.0502787888567566,-4.663807049364972,-4.5902238503748585,-1.1462245098115549
6997,,-7.829699487906402,-6.195962843701635,-14.528678714074792,-6.050689662641742,-5.501512261371191,-5.2426463346978185,-6.687382473027324,-10.34436190120405,-8.334233895438821,-8.353431986889177,-2.1376805844545825,-6.385731628502127,-10.216177745056235,-3.833126164186317
7246,,-4.7567166804669405,-3.965718171517496,-10.871236948214282,-6.652712877517989,-2.044106773010121,-4.347323868696427,-4.32411288109442,-6.515332540735824,-8.136055960746555,-4.643003819329382,-2.4890819959256003,-4.983002673378386,-2.950188931877766,-4.53006574127412
7496,,-3.612732545851817,-3.559339553355996,-11.800514486255617,-7.746462561859186,-2.951025184565645,-3.8390117723909176,-3.564231021907582,-2.937001003549622,-6.424572428326667,-4.531749266051344,0.315871347700405,-1.7723345079255215,-1.8475659709780865,-0.722634609805538
7746,,-6.7433436228928345,-0.6670341252441132,-10.52668486135724,-4.282606164467857,-5.110656340122411,-7.22981741767674,-1.8648753784632504,-5.835094287790455,-9.231743276045687,-6.317340369762507,-0.1269967332087686,-1.0268099125121526,-1.247739170077444,-1.168531423724438
7996,,-9.206877391814764,1.6326463802946412,-7.021877305829617,-8.011077373453205,-1.629385636703682,-8.915769983748108,-1.961763405181261,-8.43392361702078,-8.98493858670289,-6.672113507283124,-1.7096108023734182,-2.633384240795364,-1.854550423866278,-5.299680170339999
8246,,-10.252401569867384,-3.976115356450307,-6.973919468682015,-4.819427239919894,-0.5592303932666076,-5.56764147722637,-5.0495165746757,-7.774146279087839,-9.045341216739672,-8.914929820395832,-5.478671529632898,-4.582201320968832,-5.156276410246944,-4.273477298287498
8496,,-6.970308741764494,-3.8672818813912606,-11.079942169794515,-1.955021218746244,-2.9069095891868244,-6.583418717463757,-8.665024905142392,-8.634159515474586,-8.559069723772339,-5.061600354169401,-4.337212712461483,-4.996102015510891,-7.679276959777589,-6.564231280260335
8746,,-5.625063741230653,-1.8244776689758329,-10.321449579948732,-1.8310960594712944,-6.793317266105042,-9.106779419486228,-7.996291010584002,-7.609271032470514,-6.396128690721986,-4.4831982592675725,-0.0922552110974788,-3.1843456288133525,-6.40979328158592,-1.259938612918205
8996,,-7.333948569143334,-2.7661673868932493,-11.881839659919908,-4.978268699529053,-3.248092846831524,-5.222204579559709,-5.2055520304763725,-7.018720361085661,-6.748929071399923,-5.270926734826715,-1.3180645238012445,-2.9786209583592846,-5.227018330729891,0.146649757851193
9245,,-8.734342319669238,2.2867382138792944,-10.535021850421977,-5.715087083298329,-0.2303602820715471,-3.672625633598005,-7.246761970809708,-8.924162384365795,-9.354831118145388,-7.630904520343007,-3.544925080604211,-7.690567877473487,-3.700052514902654,-5.220561644082911
9495,,-6.87813415481809,0.1796734263218812,-9.867539866633642,-6.420722648190424,-1.7861955183531986,-6.448298840899533,-5.740959915838322,-9.00776403562812,-7.1079705013659815,-4.6044305640027545,-0.989425382975997,-9.960659142077214,0.3770697337725781,-6.609569681303865
9745,,-7.738835554014676,-2.799350479338663,-9.464099862401962,-8.124737464267026,-8.276634618811212,-7.075100423544401,-3.491161245641176,-6.567491659931086,-4.097943076316946,-7.257011347472728,-4.4158180421055775,-12.5145546736935,-2.377661767545293,-5.686215196485907
9995,,-11.127844714702192,0.8285264140822612,-10.327151512913115,-9.321106055343275,-6.941657841656666,-6.323887673724556,-6.377715589503255,-4.005835462883718,-4.184764166004883,-6.5744760410207626,-8.932809980043961,-10.4030232423681,-6.198905464997857,-4.788275614164696
10245,,-11.613015490096693,0.5448285454548153,-10.545528798125524,-4.210009404170584,-3.921737940574229,-8.08006871964297,-6.967689593119651,-7.642619004783336,-5.239925803977704,-2.002741489880938,-5.29219258632577,-6.295996621034671,-5.681203990141158,-2.868297334753542
10495,,-7.712526045226477,-3.933420724816142,-10.231728172121173,-5.084899021590175,-3.575766423199964,-6.49440634743925,-11.999092394901236,-9.478923443937878,-7.650371416619723,-4.067856915700894,-2.532024736658018,-8.690649373096287,-4.692553881724631,-4.488220601485041
10745,,-7.979665357790084,-6.177934912325117,-10.569287601303454,-7.351330125135586,-6.417347091504686,-4.487719456918344,-14.12291752577737,-6.873563729684714,-6.463999803688916,-3.517628803803443,-4.564431540314713,-12.955249291825194,-8.670579532580796,-8.694682358194338
10995,,-5.188598365090334,-5.950351570321818,-8.594991302503946,-10.304070518190796,-10.023427874612022,-5.280229717265161,-4.811723728424417,-5.729113648669041,-4.570999417303664,-3.642583630361736,-1.4312133444720092,-7.115184797519307,-3.352926819210376,-5.752327930071196
11244,,-2.2150439881868227,-2.3475637676063057,-8.752996257592105,-14.124302454005155,-11.07972068920274,-8.536917508220327,-0.8952459879456245,-7.285984824554196,-3.926277677602845,-9.719391462264625,1.2285567592425386,-3.853843252668036,-0.4193867242812754,-0.8377261530497775
11494,,-2.220244727500374,-1.3257524994053165,-15.72940201489019,-14.50764963935432,-8.442677090316185,-6.679400405126659,-1.2939315276756436,-4.84258229020134,-5.642525342546552,-6.715180907890139,1.710715758525878,-4.443837645053323,-2.070623261688786,1.2618255431369043
11744,,-3.93058520959448,-3.043517043454396,-10.58609219171891,-8.705942453833554,-5.0047720335165895,-5.229429260417849,-5.351336563442388,-6.04370140073849,-9.913715481412854,-8.912681796123628,0.9876588534410232,-4.178865575275657,-5.310785561030558,1.2525882631288137
11994,,-4.200279603182201,0.3179294255952814,-7.028203844743119,-9.744266628810966,-3.935355946064103,-4.123440383390314,-5.242714507245577,-9.793482416069054,-7.334347765712429,-5.903159653192702,2.3972608700727,-2.2867834050288134,-2.0962844159097576,0.6285144504483349
12244,,-5.882138478149481,6.486034981150452,-8.740412354576982,-5.517644718736124,-5.528438061934694,-3.761825317970197,-4.767137705551844,-7.181579803065463,-9.573474653390212,-4.732306300385818,1.415288326483663,-1.708748069317119,-2.976786176263083,1.4602634849566998
12494,,-4.674515070867232,3.5249590803603152,-13.44452716845349,-6.689044890584177,-4.993737020585912,-4.904951053630943,-6.270874270696599,-8.219687233178103,-9.681761081809787,-6.015528145548698,1.2072749755356558,-4.341447406170195,-4.079235261406197,-1.995297575949865
12744,,-1.335953245353263,1.2153055252943747,-14.51379723514139,-8.038787144610037,-3.158056952156766,-2.7975085041050725,-6.010496513943564,-8.79105485263085,-8.017859156141904,-1.3748174882987645,4.806246202305427,-1.8422122702348616,0.0665359734501575,-1.8427622391519671
12994,,-5.40363341603034,2.6657256981273743,-11.404773494115643,-5.801167308721521,-1.3733783796803998,-4.178543152895912,-7.124830873382033,-7.832254559876121,-7.896337608038182,-3.9808046212363055,2.665886947394434,-2.681670970035824,-2.373226609378984,-0.8172783281044924
13243,,-4.383764048026484,0.6859641326812289,-8.910218602022347,-3.060172709651274,-3.892868740193032,-4.316280040032925,-7.119595794619328,-8.248761185825922,-2.7900298193633404,-1.578433182391621,3.3511352379945207,-3.7592769512323927,-2.254625662863716,-1.5404646683271532
13493,,-1.315815475033314,-1.1750936923268198,-9.60931989946719,-4.650983064101876,-5.224623852701711,-3.655479448100079,-5.794963469062676,-7.327903543828887,-3.840281168818191,0.2598973339342078,5.489572775964201,-2.9104123648113798,-1.6402913011710296,-1.1338806915695292
13743,,-1.4277119406831056,-2.05078313765528,-9.726622002749982,-7.087457323295846,-5.253775394491617,-4.650323590087496,-3.64401945022476,-9.778550482120462,-8.249287174095425,-3.5375677752514822,4.149919151070848,-5.026512449185231,-2.033147355554568,-3.219906811950157
13993,,-0.8498306628929448,0.0522570299450811,-6.872047873961565,-6.746087208479112,-7.812607367841807,-4.932172207686035,-0.7379162098867966,-8.192375818147186,-11.857911724068783,-4.534534702689492,4.419923557251659,-9.409270954948957,-1.337297438767784,-2.788301665478503
14243,,-0.6526988661869348,-1.3641331309439058,-10.639352074418069,-9.310382381686674,-5.096962061024028,-5.774495196683579,-3.2715152201271085,-7.301532296408135,-7.242547495900582,-2.235438486929647,6.017646167842669,-7.823260727474716,-5.329451881341852,-4.892617466099178
14493,,-1.1433031245712304,-4.781008957146933,-10.808154774234753,-12.226623312971142,-5.702850301473211,-6.49218668461454,-5.931006669986765,-8.026122121423336,-4.607683598962828,-4.182796230039342,4.083819959480134,-6.057782971293118,-5.658132824225742,-10.526323659285076
14743,,1.0972918781781502,-3.78736840601184,-7.4843342241241215,-9.653569700297874,-4.497889417344815,-6.587170670868242,-4.758514264288904,-10.544839575391851,-6.700729120824683,-3.4056905732106952,5.481109015343991,-2.657810830977093,-5.899116234582078,-6.494476472310766
14993,,-1.1864302400063351,-4.071385275782388,-8.98039519867879,-9.207901360613205,-7.957879468521344,-6.770746924283788,-5.588097659045802,-7.123162347188947,-2.3394699715882674,-4.737939981967621,2.811277024381309,-6.942281826638045,-7.910244545192521,-7.418333800126832
15242,,-5.527625631115354,-5.4373624911493845,-12.856477501874934,-7.83607005750763,-5.911852296603962,-9.08272893280918,-9.29959042998118,-6.119788864975831,-2.882854108223753,-5.865324377582466,0.4085267139612232,-7.29493247594582,-5.179253056372593,-8.47072297836734
15492,,-4.537886903291181,-3.368607231909321,-12.84867713974375,-7.266271225566393,-6.618674060909806,-6.697756582515898,-7.853964445976813,-6.127024869013723,-3.0353609127327896,-6.423529024798996,2.7406704664879844,-6.675122162008429,-6.199507848201496,-4.451991022242895
15742,,-0.9416071823345746,-4.028987094795806,-11.006148101976388,-8.672445660863179,-6.734036231867913,-6.9451862712552925,-6.326795766022046,-5.968205805365998,-2.7228204768318127,-4.091360394485871,4.413248899762516,-7.323721879557188,-5.5613267095539465,-2.49648610393097
15992,,-2.72661709207529,-6.683207885231095,-12.432204301698102,-11.040055756362626,-8.67687167439491,-5.211223301573787,-5.539160097426072,-6.005443126877922,-2.7232007483077907,-6.320562179980151,2.770510975468143,-7.004106307714459,-0.6369794902202832,-2.6136301676976395
16242,,-3.4105228475732807,-8.133421386783109,-11.038971672494895,-9.736310677789778,-6.518238873940062,-4.92194190485746,-3.815091263401584,-6.264553457668227,-7.330249552856384,-7.479170619903442,5.467198977884829,-4.3656089006745535,-3.8800406483315735,-2.555334755057621
16492,,-1.83107396312662,-4.441804652943799,-9.97939182793126,-9.28833066283704,-5.451794241903778,-4.629374208336371,-2.325325076932901,-7.991616396161419,-7.897528698904336,-3.056265136823882,6.422171061281564,-4.843156332399556,-2.2446321893927204,-1.52375572576519
16742,,-0.2210899999806638,-3.984317386021381,-10.51515141634498,-9.000501349502098,-2.4576854558787558,-1.6934476815321562,-2.559559979967627,-6.694742331907181,-4.805224520777285,-3.088134683486702,7.014615405414411,-2.957175785101824,-2.6717671952819675,-0.7518600743540669
16992,,-1.832319376348825,-2.205373051466409,-9.409492945892405,-10.291249718796731,-3.4607749865526087,-3.4436282097394564,-4.422043431732884,-6.422364020357224,-6.032236101055368,-8.371423897391193,3.495441091279371,-5.539252973063978,-2.940310699044828,-3.795032315391689
17241,,-7.872959485351915,-0.7730561463547893,-11.704177855573526,-4.829553375438903,-9.602769023803749,-6.204985996416416,-4.804323118937402,-6.291031711852929,-6.048969023002999,-6.192044063649874,0.8786993365856689,-7.119270297929736,-0.58721184927556,-6.006228736963234
17491,,-6.94325945772454,2.989702033293256,-9.91116760316061,-1.915978234895743,-10.336651625162444,-2.843410449306392,-5.634502426019542,-6.142016600207231,-6.428966642550926,-1.1396909937772068,2.862312485883836,-10.025556908672916,-5.502576775619733,0.1886072117833382
17741,,-4.751677950508418,4.868724620985825,-6.895132597781116,-2.652741523373096,-7.1284207817331335,-1.5858882261904172,-4.646739955457021,-2.006488016824946,-7.048751815276741,0.7701362597414618,0.9697983054951058,-12.403290318849296,-2.759841945390147,3.4312491301365555
17991,,-10.25366154086277,0.8747498127981261,-5.881712551882746,-3.154856146894152,-0.7370692525390903,-5.012381514620973,-5.062839014949617,-6.086614661787888,-8.054911359208528,-3.8200310786921983,-3.835197809027951,-7.918665478058821,-0.9174639156811052,-1.5923917780405628
18241,,-7.8060107905913565,-9.622693048110865,-6.439899414870041,-5.780477559023879,0.0962728579802766,-3.730308811151588,-4.630778040033671,-11.611927161093538,-8.753908449352473,-2.611614344726379,1.0336948524179048,-5.783851216072575,-1.4680596686826195,0.3623345580012593
18491,,-3.185581219367462,-2.747467128020275,-9.618446583793125,-5.412418728892225,-6.22713342007862,-2.1235790507580217,-5.610201802510353,-7.003192466001021,-7.443196787194389,-2.4951810764475097,4.48023134327387,-2.4426081277347302,0.5164640858761925,6.592527334116216
18741,,-3.2996871081200947,-0.15655077866081,-13.056090241806558,-5.076490264727998,-4.488676377982088,-5.277826777920306,-3.3535971416501544,-9.6292564088222,-5.612031349693592,-7.598966290846412,3.6839610432335625,-3.3013802017629934,-1.528061163088133,4.3355352680499575
18991,,-3.9308394153129793,-1.2624754418828124,-14.124959954095536,-5.421156719831199,-4.344942132442671,-7.179240425282717,-5.821894136312701,-13.147133671201368,-4.371919133014931,-7.136537143436701,2.295442112128929,-6.104938841858646,-2.8523091021333595,-2.596368444827073
19240,,-3.4330602593235278,-2.117752393499943,-11.793794993902306,-5.401794697389837,-1.668400945071757,-4.414391106514099,-9.489215117316682,-12.261966619537288,-5.785005720490571,-5.160064043822215,2.9769117143807646,-4.473307983548173,-4.762321903633461,-5.4292866818435215
19490,,-2.538017054485009,-2.5296666099279435,-11.6676631869273,-3.975694907462975,-3.6975542281591927,-4.057258700658602,-8.754932640590148,-11.3039764510847,-7.650513113041873,-4.043860362889893,2.83530854922735,-3.542654932973241,-0.4884730841492817,-3.205123404526167
19740,,-2.2596995580192054,-1.7364137059644775,-10.427922857571003,-4.564353860923105,-4.0669659715706805,-2.5182235115826934,-3.3535637911451337,-12.059243930372029,-6.145121246897505,-3.5238274503597693,3.875483142183087,-1.7877809957416602,1.7528527486481145,1.6474338418796202
19990,,0.8592454881507834,-4.401255018766573,-13.128844620784433,-4.22483766311197,-3.540881663641942,-3.004366723101981,-0.8278898104994485,-9.165106027238467,-2.8384447207530323,-2.044329113664504,7.851876086605359,1.742654852904086,1.250435049374048,0.2360434706480966
20240,,-0.5332162600087289,-4.51412773004839,-11.00902662302309,-5.539158653303364,-4.627386359185603,-8.14401455394443,-1.2599282553028068,-7.19168074435088,-3.722988953030307,-4.643371071460375,5.905422021198806,-0.6154113666322404,0.7337337067311439,-0.6980219675762905
20490,,-5.626667522917719,-3.1487157385873834,-10.21489735933171,-7.20279390852684,-3.724198910786765,-8.522109238452368,-5.328151213106671,-7.429286148827996,-4.0533787704044,-2.8568394545157707,1.4185669734028736,-3.274911198085004,-2.1112645102988985,-1.1231734242704905
20740,,-5.864689850842332,-6.604664646278513,-11.731667285676314,-6.735686846082318,0.070623224817294,-3.4688930405071456,-9.136737896712235,-8.208051205563468,-6.568917641252927,-3.58555638395526,1.2838527473812944,-3.2952683032482497,-1.8947335242232983,-4.056855179969255
20990,,-10.217028316411133,-5.370943114426626,-15.321583491055408,-9.09347039783076,-1.4846796205712296,-5.173436013063383,-9.253505707690108,-9.532175389251485,-9.09593335424354,-3.531200036599259,-0.9143591428532906,-9.556161317931226,-1.058696242964088,-8.862835015160512
21239,,-5.415269530784848,-2.976793346680907,-15.711916887202245,-10.442450865523831,-4.541604881475412,-10.081118808869032,-10.479648848345418,-7.795015218397432,-9.148330139144656,-4.457662382794879,1.999930308272796,-5.753725576282652,-4.157362748258455,-7.956273344319889
21489,,-3.0772124153519904,-5.560840654978049,-13.740568952777537,-10.51560440351282,-3.6277457505074415,-9.041027974772168,-7.712345126626578,-5.350129997892442,-7.536475856843726,-5.0616993880189,3.7450844879595913,-3.513676803334648,-5.561402526045548,-4.511676020985733
21739,,-2.4110156044408866,-4.086265054967623,-12.605750085249872,-8.973766969779424,-4.058760355080676,-4.9024376348202745,-6.423536732989838,-6.658939921052208,-9.284696838113264,-3.2474698514647016,4.210327330733702,-4.544710366156089,-5.478171241811247,-0.8238298553435912
21989,,-4.00090753496216,-4.218267705331169,-10.123623995646684,-8.70795972521918,-1.8564996096715607,-6.901315641867836,-4.657642054869326,-9.55389189324286,-5.188953611756989,-5.102379992346014,3.2954550786208947,-4.621719432600944,-3.2167942664483933,-3.0498109664106687
22239,,-3.785511573712218,-0.0924223586990554,-6.720043605080679,-4.440822911495047,-2.251056706110317,-8.13077232916512,-3.3457409186541893,-12.725254817845745,-3.9624467080935855,-5.137966227367877,3.713405287791506,-1.3643147924025578,-1.2547037731980408,1.5598227967143736
22489,,-6.9256397156538885,3.563515861208372,-7.994537015040249,-0.7510168985166742,-6.840926742476345,-6.252722493178934,-10.015010506072995,-11.762063237877747,-6.256282281457186,-4.810287943389652,0.4420073330376527,-2.990489289134402,-3.620402313515359,2.4867675013166126
22739,,-4.548687048324075,-1.869926135732416,-9.508767025203031,-6.123143867832953,-5.85291959114369,-4.45103619682389,-9.96088977435783,-8.666025598590506,-4.655157805106627,-6.16828798600339,0.3968567339518314,-5.485618825864743,-2.4764998751349285,-4.159688593227896
22989,,-6.690747720410668,-6.186899241463429,-8.878344279481354,-4.952206318127258,-4.60514374606544,-6.622891106052475,-7.785146763155561,-7.874826210369167,-4.392289320052999,-5.392584893854815,-0.752320970851248,-6.541781670649257,-5.278267566343267,-3.957719920456093
23238,,-1.8820651510712856,-5.377006381223014,-9.356794870993406,-4.445141790138382,-4.830833863083038,-5.086232682694725,-4.749330994697477,-6.037964614411807,-7.221373962275227,-6.391537217342115,1.8464854185380952,-6.302214445727218,-4.998331838051879,-4.896913765112934
23488,,-1.5385354560300866,-5.65753756387652,-11.953687628242076,-9.265245031749206,-6.439534319411985,-1.8962051940946527,-3.1727167540789107,-9.302230941456871,-4.48559359665963,-5.00815595152077,3.9181211063394894,-3.6801169966345415,-3.1179320761981644,-4.367642225298583
23738,,-0.8285151046966427,-3.595202944791993,-4.931287730437638,-12.855872196316325,-3.692113360876321,-2.7362262588816764,-3.833642220997024,-9.74719193184361,-3.401145501397523,-4.851080380787045,7.375659856389674,-1.685706459945289,-5.111818528868168,-2.2498051944784327
23988,,-0.5841284917158788,-1.4341843582672562,-0.7165503891726172,-10.090555847504785,-5.497736658626672,-5.761786562983176,-3.2249251281415328,-9.3089217880239,-7.0979875952580045,-6.86515561543421,6.561361136751569,-2.9351843345491524,-2.6331798210885267,-2.688071862465952
24238,,0.6950253995034088,-3.764058807502941,-7.267122208949967,-11.138714700852043,-4.686417594161341,-1.148915726532045,-1.2404055155630134,-8.217447423175777,-6.887250517743707,-4.234121927284925,7.453023028396144,-1.4293000168442396,0.1206363031567114,-2.6033311680163425
24488,,-1.5823409969535565,-5.131661904551428,-10.55157692401022,-11.549327560824104,-2.083298066476903,-2.408325187457232,-4.463549891917953,-7.841833951092852,-5.961242910766912,-3.2874062766250587,5.541083288462691,-1.8216507984984505,1.173507402202152,-3.2514370844291456
24738,,-3.39073442675086,-5.830628764046812,-9.105519207098675,-10.089660195060242,-3.0234500974345133,-5.217592203396047,-7.982242664657054,-13.620145461855252,-6.1992833582931794,-7.285916926432683,4.59809988766109,-3.322587260546177,-0.8160390708282311,-3.75999575055164
24988,,-3.0155056589339715,-0.0139812535172355,-10.122365494986486,-8.269246828346454,-1.104540726165447,-2.060676207084643,-7.408906175046384,-12.909456123798266,-6.106220120486326,-7.130249956949047,1.6492695111250002,-8.487587727399347,-2.8683389274329283,-4.77738640068012
25238,,-3.213733383057564,-0.0065235314957359,-9.076816281945009,-6.091526376459536,-1.704915619888952,-3.286256471180129,-3.8479975122437833,-9.786854023645226,-5.2568339910404855,-3.908610884882849,-0.4395934745185434,-7.219548655721745,-0.5981364805029,-4.859735469477715
25487,,-7.193070171447027,0.7112769938264946,-9.115734415093316,-3.812855536103512,-8.01166696055432,-7.222749854907967,-7.956675563413789,-6.739216242040831,-3.6527657238239017,-5.9936693300958925,-2.132942310603197,-9.3450740359406,-2.798706840555167,-3.638819250689964
25737,,-1.9043804738155068,0.0414875571342429,-10.753674650177503,-8.261029516057885,-7.184809031534904,-5.725471762253277,-7.475980779697875,-7.278424775704546,-4.971998963713324,-8.814957821320894,3.074809734129416,-6.253353147922964,-5.210457880931498,-2.630028818205808
25987,,0.6114598048684582,-4.583117871900421,-17.660812109985716,-10.944378596634676,-5.807196407028116,-4.719913015662596,-3.324454437338943,-11.721373210488633,-10.213396339426472,-5.348065584449696,6.258337169628668,-2.215027944055718,-2.0711821425389045,-1.6425787439845487
26237,,-2.8925443520295326,-1.6948616986826348,-8.085759265925939,-6.148241037091941,-0.5964926702510088,-6.176925570317722,-8.823443780998172,-7.469553824431488,-6.07575173287474,-7.302419785940673,2.668793435810032,-3.4668568661665558,-3.0766140290817443,-3.2014400488121657
26487,,-6.564225587401832,-2.248392995357817,-4.910710132125693,-6.484506035354025,-3.061544164401295,-8.213609521451977,-8.678961733730945,-4.5427958771871815,-4.275941912524114,-3.861941539431352,1.009900763359341,-1.8843591873097385,-2.390653909394425,-2.4633959103142105
26737,,-2.3671484688665867,-4.030153188016837,-8.992023689216724,-6.05126556185075,-3.998246714931331,-5.397321284417631,-3.257240784554061,-5.08183449524795,-2.186893625803887,-2.279902128382836,2.705954554862809,-5.287448986122216,-7.453800332715379,1.2778050842017628
26987,,-0.2868169656594419,-1.8809881024972928,-9.700804746515818,-6.875123476031552,-5.105035433038396,-2.7315132414021908,-3.722418933133605,-4.357938553207099,-4.0297655268131605,-3.257852608339947,2.9391281830553595,-7.758745541506785,-7.001670826667902,-1.6933727881972862
27237,,-0.8141565406368676,1.0043716973079926,-10.926255686389448,-8.087628178399456,-3.8980147929043953,-3.120958067241625,-6.190829400270981,-6.098331501091607,-5.95545214479685,-2.1240970530005003,4.29415789126089,-7.045757239644731,-4.303099671813594,2.1026542483943937
27486,,-2.762984851916517,-1.3250176791652046,-13.390069412549968,-10.199047101947729,-5.476630536597855,-5.22172275091876,-4.459091315448822,-5.809657946555696,-8.473242738574086,-4.361434770436224,4.177981897398932,-4.946696214162717,-3.73877409561054,1.587957581654615
27736,,2.82879401246492,-4.7002320653766025,-12.650515152754808,-13.91073010144062,-5.608129929849045,-4.993690894678684,-6.127022353038168,-11.363370622016015,-2.7365837459422715,-2.7887214229425963,9.552553026492802,-0.7149687331281169,-2.0696046226958216,-1.0037740718119748
27986,,2.781747201305218,-0.1735864981686307,-8.462898635682153,-9.958940225592666,-4.827995104691341,-5.419187286106326,-3.4174110801316058,-5.298570265101223,-2.638967299050518,-1.9456850148450653,8.470476715578062,-1.7769369157824988,-2.889496448780978,-5.223105677029716
28236,,-1.1335737447944525,-0.9499460380096814,-9.483183512882055,-10.11575480695756,-4.964600640027466,-6.797331207961869,-8.423754646203943,-4.849577820774955,-5.323153951897492,-2.1960874953078235,3.711277145364626,-2.9803774066405744,-6.691805241364834,-8.111626118778688
28486,,-4.899448018982169,-7.51995401551258,-8.552747787475548,-10.293180845052426,-0.1542858414534786,-9.529162332900224,-9.323958199572653,-9.35083436360709,-11.361938006014949,-4.867161156889401,1.971020171884591,-4.437964660278777,-11.172181287370908,-6.205070105740101
28736,,-7.086056596926392,-3.4346795636293264,-11.190129903207293,-3.7141888419642544,-3.500522366058851,-10.609427661838115,-7.243514012886388,-6.888771816137852,-7.660108190762843,-7.855360048411284,-0.0501312626009325,-7.963645363827156,-11.892129505366489,-4.398211385562946
28986,,-0.5115235248140029,-2.923056071283222,-9.032081604349836,-2.831369639584393,-9.784223578458295,-9.285567962186237,-6.4251589597358825,-4.869798024849427,-4.804953598528742,-8.583322203866441,5.01273909403777,-4.543975705678652,-6.038128102103776,-1.288237820857813
29236,,0.3131754186077341,-5.505472442326946,-9.73978187518432,-8.258067915959838,-4.313920693283172,-7.121064355546388,-5.918491874267589,-8.51159685126398,-6.551747357903709,-7.201877771580595,6.017028560308368,-3.612885607741882,-6.997434918714525,-1.325648579081835
29485,,-2.857693796190479,-3.21626116958655,-9.1973059056638,-6.155573606639894,-3.935669894793663,-7.511722416583897,-6.636401040722023,-10.036060935341002,-6.205971749447464,-4.386396312803288,3.3278174844584765,-3.1546511718511168,-6.32675113895202,-6.830261498005169
29735,,-2.800675956099844,5.234913978178353,-9.667396369793408,-2.7100050945173315,-10.374253586304416,-7.339460954189269,-4.569519705416107,-6.088404606079995,-2.763044503897498,-1.665503888311983,3.4819022937906268,-4.672877217023629,-0.1374702223937305,0.8927932439635511
29985,,-3.046513601753919,8.250821517795977,-8.42165532811421,-0.7026991897702685,-5.866653171306412,-4.125632299593424,-6.305778197786279,-6.420664257623056,-1.0075010043274435,-3.889631481074504,2.666382953600616,-4.508282738971031,-0.0385289899297765,3.4948905600176925
30235,,-4.196568055335299,2.7855374332862937,-8.436686753555712,-4.131270586024685,-5.98053176007552,-5.642177689575554,-6.547948461023324,-9.192591817834415,-4.8149030696256565,-6.137597639967989,2.671963734824093,-3.793231028994768,-5.854250983666479,3.969473016318447
30485,,-3.3162266201861685,0.5147118909103793,-9.281700276997269,-2.5836412894646843,-6.936760318161195,-5.884339001306373,-4.4156003890931,-5.553558761460206,-3.7422218287975806,-6.442396019310688,6.0720813423739886,-1.9737697397398903,-5.326896785692784,5.100500981165474
30735,,1.7004675411588408,-1.6200230629270582,-8.380082273031865,-3.177192486734597,-3.1020330716244,-2.0108542460510885,-4.261701573187645,-6.94451755019906,-6.166217851771343,-6.308359191520632,7.2888633546858195,-1.1533455535210655,-7.838394526080208,-0.5226371745503184
30985,,1.4318832669551464,-4.0388799580635695,-9.307266074334672,-3.5548822590159745,-3.677720560678064,-2.824296159644337,-4.787903168444322,-7.730096120895672,-9.206849972163486,-6.890000302352128,7.106452595006686,-1.2544897636521912,-3.736508556872886,0.0804462709713486
31235,,-0.8122983125135143,-3.10919514210367,-10.817815829053728,-6.702050167865701,-5.9630480351814175,-7.380706958462422,-3.430133162029007,-7.1434844125908565,-6.214293323352606,-11.432141585035591,6.898365571558061,-2.5175197388261856,0.4967009265103231,2.1670707525121653
31484,,-1.5683525486838392,-3.6316651937724393,-9.97239344177667,-8.689151927878866,-3.934402395503457,-6.401250845906229,-2.8970067221589497,-8.103574995812039,-6.320892180135576,-11.401267948181054,6.492634544617949,-2.957660737383423,-1.161905464844613,-0.8116113188533834
31734,,-4.80396633801625,-3.1541756933962564,-10.222055189852153,-9.643980447167376,-6.280722842524035,-5.420116631444629,-3.9285428230940447,-7.806400717031367,-7.036867367120107,-5.396172312039374,3.309746463554373,-7.248392411687559,-4.433310124863857,-4.167035345004053
31984,,-7.845224374666008,-1.6394094333172629,-7.669649329476703,-5.563587607678001,-7.179470184537839,-5.551279011577002,-3.626602493208788,-11.228125435986891,-10.214944113308952,-2.1912929730473056,-0.2418939982816173,-7.199487189345333,-2.662884891648316,-0.447509115938111
32234,,-5.914059392174814,-4.406433332422939,-7.694440148682499,-5.43040216483639,-4.0327968957818685,-4.128894809320026,-1.4077536714496273,-14.082882880244592,-6.472614342227939,-2.261312706582635,3.266412473459876,-2.8500953816959185,2.955469840308101,1.173972120154528
32484,,0.0038359186828702,-1.2453053334172344,-7.305825512816792,-3.842607352434028,-2.1301497412498334,-3.365671894199969,-1.6711071727820912,-11.371546951014189,-5.740351420014597,-2.2517690274703286,6.710106641203559,-0.7240885504498452,3.201367167503232,1.8455437306257092
32734,IR,0.7558535060601118,1.229818293981756,-9.70471569529398,-4.030128049071788,-1.5953679161315053,-3.6939501162022808,-4.346248773332346,-7.624646271203291,-7.231495661741118,-7.76874614721871,7.0794866910049725,-1.0015439847653471,0.106135155792816,0.6923398570416933
32984,,-1.951434074457608,0.1762698689111165,-13.044462233327332,-5.63665252877986,-5.618206879464785,-2.707906738091393,-0.6960713137895442,-7.350899319110631,-10.767324721587402,-7.275760307361785,8.010395572640403,-1.8596375745863696,1.1632884389032945,-0.0474739082501408
33234,,-1.1633037639008312,-3.786568699072175,-13.7270216887281,-8.081495210769392,-3.3487755425831534,-2.804655252686568,-0.282418475226706,-12.300150721101224,-9.28362754027322,-5.361632597630929,8.26800980574012,-1.807357288768443,0.9592751930865956,-0.5156537225356403
33483,,-0.580109303345689,-2.130288370984744,-12.177578059645333,-11.351156780733596,-2.601374872253696,-5.090524115124425,-2.911864332095825,-9.997860487448662,-7.0082349777087884,-5.440466239841337,8.103161287769932,-2.19774438859702,-2.486549704112117,-0.6722804299793794
33733,,-3.9657021176449807,0.1652056111691015,-9.396686449334808,-7.086898142217382,-3.971420583412844,-9.451483214113862,-5.529681419541729,-8.190831131912296,-10.705900584981883,-5.27190746780439,5.721572040020595,-3.593008981814378,-0.2755577524926446,-1.4641835036094355
33983,,-4.436873284738661,-1.7865558540233184,-11.812918729243442,-7.631916567486916,-8.265133890098955,-13.91017652411466,-5.670634973939608,-8.890907118895337,-7.586978383073473,-3.2603999499219363,5.364598298150749,-3.44053097693898,1.0385145460267071,-1.8705352971148803
34233,,0.5709456570022937,-3.2679769511573986,-10.164947209212162,-6.53928038842464,-2.8851439706693127,-6.41607169707863,-2.429695321780429,-3.193927844812833,-0.4288946048175094,-4.388436232464401,9.630209433822598,-2.725583731243314,0.6811614757276551,-2.2515671323121653
34483,,-0.7845312294768814,-4.308363317211037,-9.90922098984557,-7.770240356868969,-1.970658113785131,-6.530931036205683,-3.3736828223884068,-2.409907225135778,-1.5204199444531974,-4.1354908064267,8.277557507906826,-4.865897211908007,-1.6086843912374318,-3.715464633097725
34733,,-4.149274260415882,-4.23433620616315,-10.46832908349263,-9.37732532761209,-5.78285702447768,-7.1151993888952925,-4.750673028975198,-3.6737106206004926,-5.038250066511711,-6.702368107482766,3.165291496762244,-8.385169833161747,-2.9554957474303767,-2.5508603720009573
34983,,-3.5782535993234434,-4.391970752396068,-12.377269378090892,-10.794826968937787,-4.059837769925414,-7.401588097496607,-3.7163997226167016,-7.251338091430215,-2.9010014505789314,-5.465414821585474,4.669655868723845,-6.421415666867717,-5.556428958065758,-1.388515430299908
35233,,0.5567407222360653,-7.250994667702467,-12.050814673099952,-9.7994646714228,-3.896113954270372,-2.308521018479881,-2.8207900375127446,-7.401364495229594,-5.552333169359831,-4.229948497090353,7.339627324963356,-2.1464938548880257,-6.0613420669814,0.988036768954905
35482,,0.4469983075953995,-6.067814819405011,-10.41501326016492,-9.09104867811952,-3.325625229695377,-0.8809378983399928,-2.8199293965883903,-7.205917567176256,-6.945654453113742,-2.73873482653922,7.016115448364545,-1.427641983916709,-4.61038708911963,-0.3782332321242505
35732,,-1.843629236370984,-8.154110147858706,-13.0913516571915,-12.591693709555935,-5.547885512952243,-4.50331342124441,-2.6101915843364845,-6.946417500162716,-6.959828257372502,-7.6946102878160785,5.189314515537042,-5.639832126173799,-3.636758035175185,-3.801027437560742
35982,,-4.52344861038262,-8.042046037489142,-12.479978255151662,-14.122072879455043,-6.559438895190086,-7.175773062323213,-5.321688907262255,-10.46509791210184,-5.814871494710603,-6.121494335628963,4.300833843385828,-6.576526294998599,-5.747789329565175,-5.848948264155314
36232,,-3.0515512514039718,-7.740006600243698,-8.625005353335798,-6.926492094127551,-2.397917738344804,-7.840144572909876,-3.628800969884432,-9.250515175705395,-3.9756460042823583,-3.908160132455627,4.704355430038179,-4.954986024603267,-6.890361658303564,-8.068232345120645
36482,,-3.0841443010700447,-3.227554058254804,-7.864933014724325,-5.618172761755217,-3.0015250888892666,-6.0362018617988245,-4.094149962874625,-1.6878767596412594,-1.237966352464554,-2.6361076680898603,3.665734073029685,-5.492139480496188,-4.877601538957404,-5.564331600318624
36732,R,-1.6822813079550802,-4.021574642915045,-4.656878307205529,-8.388711661893687,-3.700738420492144,-3.63408681209962,-7.727229569196653,-1.0933503904046298,0.5855302804833709,-0.2599977484961767,4.002873593438435,-3.6711290255393134,-2.5569484198613623,-3.6188415219785246
36982,,-3.782739497921781,-6.509351258901742,-6.544599500247524,-9.008013562332746,-2.3478280889923586,-6.003519264260677,-9.635985646377051,-8.13298389690708,-3.392698148062609,-3.363219126784765,3.240395096224756,-6.6052887050256,-3.8865104504478887,-5.008276323413512
37232,,-0.9235409120377814,-3.4229025369790085,-9.62449667792949,-8.081332898013248,-1.3850140315750816,-4.962788235612104,-3.82121672003596,-13.51695517968434,-12.186159952207936,-3.825301818921308,6.193296045220792,-3.109789760967613,-1.362321039381273,-3.6523893074236073
37481,,-3.926682205488144,0.9305183645679688,-8.684889829338548,-10.61388135254322,-0.3483550260835718,-0.92999869922288,-4.805615634400777,-9.480309667584834,-5.550473712264685,-2.634455922962266,4.558842271554536,-1.581946283563739,-0.3783429915337311,-1.4263484269228577
37731,,1.1759053533441748,-1.651580153017379,-8.607741988859088,-8.341375986346048,-2.017887095230953,-0.8809647155508751,-4.887065051255491,-4.747475572462374,0.0258247330930367,-2.6919703775792057,9.0028906056783,-1.237813432683465,0.8446366438642877,-2.402030825361237
37981,,3.04095752376298,-4.163420837218288,-7.669648111127194,-6.64086827130891,-4.813665126370839,-1.606757012047621,-3.250587218967984,-6.115389792159524,-1.8255623924248676,-3.531948158836164,10.401254703542104,0.7003237957787971,0.8100535330679555,0.422549765482321
38231,,-0.8733778845191121,-2.2662899324483883,-8.295460921600425,-6.565031764339193,-3.69269611355415,-5.3729927232986165,-4.63132528141475,-12.160812366491903,-4.318899444706195,-2.1446067284247428,6.627965491509402,-3.284733341451464,-4.204360446689601,-1.436350460945398
38481,,0.9757945915326488,-2.704112251846128,-7.821987087824081,4.056812922773823,-3.2923051026690087,-8.429848205406035,-3.5566334903670542,-9.790403108031647,-5.282641873395727,-6.269979628558659,7.892402715786223,-2.737490069645965,-3.4693329493881024,0.3670239464927249
38731,,2.115539360936028,-3.070218901721101,-10.996737688749544,5.653530926352952,-4.6112140693103845,-5.862172950679007,-4.460215234618346,-5.774623271587979,-7.385053427868046,-6.49690031432539,8.111801121047703,-2.859048966648543,-3.851317087990834,0.5457948573847957
38981,,0.7389429358395598,-4.485082705947664,-9.66331821798862,-4.489556862513475,-8.221465599959544,-5.014575522111921,-1.5717705609797736,-6.782516112419215,-5.382991509995412,-8.546294801489067,9.111066646279657,-3.926753396708552,-1.343092051584375,-3.4106727523412967
39231,,-0.8721870434473532,-6.896274444704284,-11.454165339667128,-10.330357554927565,-5.44622118899925,-5.703352391124231,-1.9942438322606528,-7.786810413024004,-4.925424185341621,-6.9201128010484005,6.632670117494842,-4.371726494959315,-3.4018264408819165,-8.478182831725213
39480,,-0.7274753037620286,-5.745454912933038,-13.081515009279403,-10.532678344271025,-2.687011568637474,-4.919553314052159,-3.5282738196947245,-10.505154002706943,-5.6914348641471335,-6.36052261224846,4.571641853502667,-3.641413941270777,-4.769230636861221,-10.269066382735597
39730,,-0.7874867729976212,-3.290866686065417,-12.575966770723912,-6.040008964264544,-5.601929054789441,-6.331594822065847,-5.93529040995077,-8.595847839746908,-7.767323588410857,-4.920808447082381,3.419505997244823,-4.797125683366224,-4.492662137440239,-8.07431373990916
39980,,-0.8733521626095558,-3.159915075249275,-13.7198438868412,-9.435175883092343,-10.438055135595842,-10.180605891103024,-3.443127134599378,-7.555915346845737,-7.252751787672155,-5.632143330173776,6.107296603675062,-3.000892539637652,-0.5241126814347342,-3.0608106013478027
40230,,-0.5092230480809389,-2.8296506046650967,-12.902574458228532,-10.508635196102452,-7.011292433068785,-12.30239644014377,-5.215732580681247,-6.681853939769395,-3.64621280265717,-5.351275198385718,5.058996584763966,-3.5568636563633085,-1.7640152786591172,-2.5487939390382186
40480,,-1.348100098910507,-4.038481071561097,-13.811751205570811,-7.547080009398133,-6.003874280442158,-8.680707781309478,-5.625562399186704,-7.017436990076965,-5.426338565479004,-6.490889034893601,4.810059135405998,-4.5698485907663215,-1.7328847613743537,-2.7223560686704955
40730,,0.9222690005854156,-4.875654633424123,-11.228264659190724,-10.407610084240416,-6.161561581159772,-5.203018228214158,-3.923746127804255,-7.24673971795861,-11.035181000691264,-5.099271337430917,6.766738987672348,-3.039907271554016,-1.107924210193889,-1.0548103921273095
40980,,-2.119280425833137,-5.2326724548964325,-14.318547775861957,-10.893501434803712,-6.3290316098114285,-6.595247100949349,-4.632991122832697,-7.883179874966094,-9.469591912230404,-4.475737231418883,5.526963064362156,-4.384678070921003,-5.058923288075733,-1.9019722049162129
41230,,-3.455076402577629,-2.324039323446444,-13.434125022284135,-9.980450737727075,-7.305944115917704,-4.989707297928623,-1.921251461042326,-11.04350163151956,-8.313225925250448,-5.894271694403007,5.859281222324167,-4.370680281384925,-3.613618878193139,-3.997701328034331
41479,,-3.0807692992672555,-1.8789967610106932,-10.442153363889435,-10.246586083111278,-3.070592072182328,-6.68513528459023,-3.0954133924342333,-10.67129655822857,-6.514392260989954,-4.400928240213176,4.275865238675368,-9.235354916895446,-0.0203308644917232,-7.21117421316144
41729,,-2.570565754648978,-3.329720260495708,-12.058378705420536,-5.976825016996722,-3.651604693303329,-7.248642034320111,-8.124452873251617,-6.847526266438829,-9.878190088691996,-5.393367556475914,3.2194298117129883,-13.486608935242288,-0.875335279376679,-7.241696770235521
41979,,-2.63858711152773,-7.058309868306133,-10.210878690124632,-8.310148796278677,-6.782657604801634,-6.693060092168231,-9.395650987114603,-10.397420476197292,-15.20677857907206,-4.414576459009986,4.271857588568414,-8.439853053621169,-8.811113561797455,-9.176560263059931
42229,,-0.0952732065234783,-7.974784461671948,-11.499988926989149,-8.18825446194782,-3.523007482625124,-3.3869691492841056,-2.682355655294878,-9.119722257557974,-10.426482599343416,-0.5641706971574216,7.214636259137823,-2.526240613436599,-5.32703305835909,-3.0886210204553506
42479,,-2.8759553789150463,-3.270294720062737,-14.372733077170889,-5.360459822030663,-1.5976025934978786,-6.059621471592184,-1.2990602505696092,-9.186800642731516,-8.016957169534962,-3.92815167019656,4.867784712720982,-3.483983150903965,-3.963741012327398,-2.157383628786502
42729,,-4.474617774146616,-1.8845769187463248,-11.998368749136922,-6.3851830622729935,-3.873599426351953,-7.255445733845482,-7.1598000742306,-8.89685952191394,-9.18687867122701,-5.494866225236995,0.3779417764507897,-6.79823243478177,-8.796232851333757,-6.053666594529835
42979,,-3.3378658101171355,-3.814084164375093,-10.53413885202064,-9.144279343080164,-4.046170093029595,-7.44453535022663,-7.125522109195131,-9.96159237135018,-5.146571574265641,-4.192941411304912,2.7329886717527616,-4.590936908058483,-5.169359420318113,-2.0434162525642505
43229,,-2.9608525339082536,0.4760964500196213,-8.86115607696761,-8.280617313901663,-1.1647421937263924,-4.970424416001647,-1.8197305405935915,-11.82507302344312,-5.344872750197128,-3.4844112184536744,5.123013693964298,-4.390694187077865,-4.034068565518198,-2.079767153186032
43478,,-2.969121250675281,3.180595836520817,-9.049663449360466,-6.510363122187323,0.5223845125836869,-3.557524510155609,-3.1205579041017444,-8.187698971412136,-3.8205979693476193,-1.7115865145940945,4.773533217004358,-3.520874669752736,-3.3001784969520416,-1.5155957795645902
43728,,-3.508300778673064,0.0136688070043716,-8.8928020839973,-6.304502920087457,-3.26497056174076,-7.476355217286384,-8.414410962494149,-9.271505904658618,-3.96736940836401,-5.16831794238805,2.9822763916416477,-3.489218126145176,1.0070336175373438,0.8082883134526244
43978,,-4.21524785171467,-2.8527565677818507,-8.120252621794274,-3.420389811891251,-5.667927398730834,-6.904772535673382,-8.482500909800425,-11.780328020777208,-10.73478798598252,-5.38225798242692,0.0550473974327094,-5.42370463685907,-0.430515790783843,-0.9711078346975868
44228,,-2.3839686204744432,-2.2589244121227336,-8.573489689208117,-2.848225610283632,-6.770939946743397,-5.715330398810528,-7.916088246626963,-7.734597347789494,-7.92126844434066,-9.314593981908835,1.1674974480325182,-7.071541355164028,-1.375786699130117,-5.9062277979922175
44478,,-0.7520180938237943,-5.594017452136313,-7.54315385713247,-8.099350481990333,-7.656648628380134,-4.48053229622556,-3.3043296963159667,-5.128445626087485,-7.158786570803447,-7.315868731411546,4.958205680331982,-4.102627693921964,0.4216278481981241,-1.1194992899696057
44728,,-0.0207283800101083,-7.049225576281627,-7.211493099094698,-8.653195573439469,-4.475994297988589,-4.596913226794385,-0.963227243058384,-6.836777945620071,-6.040026943130678,-5.229434455316926,7.932991250590467,-0.4768136251691873,-0.9215148776263278,0.4851825880808668
44978,,1.169363228420973,-4.028111451916489,-9.319789396320797,-6.4107165488668025,-1.3187072885199762,-6.634481863510947,-1.7487275625896714,-7.788881130301172,-7.561640998263075,-4.305893229044761,8.819888433579967,-0.5494950323815948,-2.480237915805454,-1.476902977294576
45228,,0.1751718194602415,-2.8996667475499747,-12.685169262277052,-6.636306134058651,-4.653502931540267,-6.260856730145048,-3.5693744885847227,-8.255347245312363,-8.797042201842391,-4.393991552347191,6.806128291322522,-2.4100695674062496,-0.9305504400033596,-3.7890892264687976
45477,,-0.6952141305911761,-7.243327229781128,-12.729920645185564,-7.709234865708654,-2.784842429649653,-5.4144204094979465,-4.067315107406909,-7.613081087401533,-11.36582234091194,-4.9656090555341255,5.756738010650394,-1.800813263579064,0.5338175523090785,-4.118917641156202
45727,,-3.05439583831238,-4.473986703343073,-11.582549857006317,-10.16672927934513,-0.1483807443378661,-4.001981736009068,-6.361439555992443,-8.464979043529638,-6.470048461187795,-6.17258472075506,2.9621617604125783,-6.171363663784815,-4.978231277551562,-3.825953677765474
45977,,-0.2761575959199861,1.9783086084672623,-13.13263315529296,-6.905890399866415,-3.768431497475577,-8.147475873781932,-4.522276959447826,-9.811066283253808,-4.269244690337023,-9.06149866515514,6.555197418016075,-6.22835739810912,-2.446320326541618,-1.1025733814454055
46227,,1.6784573349159255,0.7756861561837497,-12.322346469323964,-4.581280824176937,-3.8465497041050334,-4.755891458312952,-2.201192723547575,-8.952848247884047,-7.30945947953794,-10.118413976506416,8.121343739846287,-3.0706014075159205,-1.897409931210716,0.150368151394081
46477,,-2.529748678005518,-0.1996970546311843,-8.55360056531411,-6.205010001854499,-4.788487103839535,-4.615035327821277,-3.435866365051462,-6.274972932643127,-5.534633124658415,-7.034423123999389,3.898018053922352,-2.823527900596419,-1.983339063434365,-0.5879533724899982
46727,,-3.394543774634346,-0.5047821373105554,-11.058659277333296,-9.085771974314271,-7.241967554693685,-6.984079781473445,-5.170513579388535,-6.349093918913898,-4.371986282525721,-8.075556018949223,3.319462099098524,-6.506490146414196,0.373465197772032,-1.4912895019180423
46977,,-3.6278039755140856,-3.910611225254395,-13.200285396891262,-8.331370414999185,-7.423975618624679,-8.442899477201799,-4.8348636830835945,-6.430656413314421,-1.8842815164712672,-5.474128843173683,3.32999084059489,-9.792217771896455,-4.274307586747308,-3.887200441622387
47227,,-3.353926417931426,0.910374386277734,-10.311122010383492,-8.766695779509742,-4.151827677840846,-7.694686358336568,-5.01546987683854,-8.307114020722924,-1.3112913014395988,-4.291066441888248,2.208700491155882,-5.35676629182661,-1.6642527018773132,-4.75472021550638
47477,,-1.837808825143736,-0.9305457441267556,-9.14917362257468,-10.45950635989482,-1.4114123591226018,-6.324605888248975,-5.5324563803418325,-3.543411557391421,-4.2543868253423565,-6.857992404084941,5.216145200842885,-0.53937499244226,1.0488654814809308,-3.1611071973852822
47726,,-1.459109548475828,-3.794961978113544,-10.661789212054565,-6.313057619155775,-2.623512964600745,-7.935083613049887,-4.354031847029824,-6.331497630097194,-6.135223803561193,-6.179821523923024,5.51107721336657,-3.286886684166811,0.5932229522373438,-3.9519433164801567
47976,,-2.1298285234566325,-1.6641318844799704,-12.455270413571506,-5.572805425796995,-4.815916096173996,-9.9819942401304,-6.639875541339974,-8.292618061040663,-8.790436983729014,-6.084157138619871,3.588540946600893,-6.682880829046409,-0.5814334806628576,-4.326570776031082
48226,,-0.5466578999205525,-2.189467679229882,-10.884984601709162,-6.036816904141956,-8.902646775916516,-7.304568252168187,-7.816675754086521,-7.512610023532561,-5.029557247595829,-3.063423563292857,4.92955062341606,-2.3747051615211543,-1.861769537659114,-5.25525778829171
48476,,0.2533749746065068,-1.8668303316285628,-10.283108444032356,-8.502449264277947,-6.818679755574369,-5.886145010563304,-7.1257214065145424,-5.802716677235221,-4.436389242320015,-5.167948497504167,5.539346167250258,-3.461364817698678,0.2189418280587779,-3.0985687633200865
48726,,-1.15148017854524,-4.258170513020712,-11.14372339164662,-8.751109484810227,-11.411114523101114,-7.963937904796251,-8.74259255325817,-6.6357176782629335,-3.95456111268172,-3.974043994494616,5.081727046398431,-6.480657045377248,1.2103363003375307,-3.526751539891561
48976,,-2.909137774372032,-3.015072474935716,-7.741183094008095,-10.683821373655878,-9.402641922305056,-8.567681042505143,-3.519994789665282,-10.557806164255355,-6.324861548017108,0.4178882632721141,3.0199976386027987,-6.926502867440496,0.2836452980608444,-4.218180926226008
49226,,-5.061717496231686,-0.9146927274342032,-8.683563027195042,-10.356202410810592,-5.662285049440262,-7.558915154991256,-3.8367363634118448,-13.282825750668737,-8.292057977012853,-1.2658846055171038,1.2639054510254144,-11.340870777142346,-3.3493978183156337,-4.8458895467919385
49476,,-6.5122127946119965,-4.753470805319323,-9.818627719159938,-11.082184652218588,-8.376823794824942,-6.938258867795555,-6.303694770675498,-9.929130458836047,-9.745887636423255,-4.771651208677691,3.717402950872596,-11.21486883434516,-4.060381440543472,-6.14352049716506
49725,,-3.490381720438741,-7.033124850906609,-9.155894975028923,-8.103124009312095,-4.138557470767065,-5.366923465494271,-4.159588874543752,-7.539198059880716,-7.314836376372393,-6.3311271651703285,4.4065102268158425,-5.194474076609201,-2.0689775613310672,-4.560510953625728
49975,,0.6586264926413217,-6.015149440235793,-9.795153774059528,-7.361272439409843,-2.158041090070271,-6.384692794738958,0.4898986468276209,-9.997024482453876,-7.857028258932123,-9.388788436847197,7.571715768564907,-1.154451389235919,-0.751539075300598,-2.354510741786756
50225,,1.7657216979597654,-6.846753424266259,-8.206868435675842,-4.88980703828456,-4.918220207172549,-5.862770086970306,-1.849294133945868,-13.147260083537075,-10.64747011414636,-6.35098830485768,8.023037553523647,-3.020585639896804,-2.2916790745453106,-5.700614320669572
50475,,-2.1928444798532896,-1.4009357196165753,-7.72826764625226,-7.478416007091001,-6.478747495442384,-5.42177646493638,-7.128021183045488,-7.972971850235156,-7.160189177074232,-3.659857207642838,3.5032951859559414,-4.102607804732688,-4.699482406317816,-3.9703981034390647
50725,,-1.040941417388046,-1.8774764363591712,-10.48249893947708,-9.530312936865773,-5.853753233113278,-3.5629661968423654,-10.616450000943406,-5.467581846254972,-3.045963644419886,-8.452926927173639,5.677217613066006,-3.140370190455473,-2.5012276382373577,-2.113544205794901
50975,,-4.523102662781691,-5.923863705013979,-10.721412552385548,-9.232915106610635,-3.718936992528104,-5.024219271267824,-9.339385569454016,-6.013789596605722,-6.038703384549947,-9.709117793971789,3.5027158727528125,-7.213363057010182,-1.897590578075421,-1.5342309905990128
51225,,-3.0645279110191974,-10.835215847991686,-10.439049830958586,-10.635522250300738,-6.186285066116084,-4.26104207834896,-8.122808084609865,-7.018482307517071,-5.713964247703541,-9.025268270771251,4.695894838720739,-7.61459598225291,-4.586621387445697,-4.820883063445952
51475,,-0.1981031811041091,-10.179672446335664,-10.897934208828715,-13.039957803376318,-8.919865254112105,-2.451880905736548,-5.60809581165476,-5.985978171948667,-5.1331052042620575,-8.545502791559842,6.969250542950926,-5.274200886905818,-3.9451311177829256,-5.027567775629831
51724,,1.9033487180489697,-4.0861466823058255,-11.810193569893354,-7.27488396729536,-8.539333893527314,-1.2754434359470477,-4.6577757129680455,-5.771216188483741,-7.115798519518396,-5.982946529131033,8.502438695699805,-1.4171296811826553,-2.298900620038316,-4.048279562109639
51974,,-0.8103753589616771,-0.3817103627082285,-11.25306184677573,-2.86533042808088,-8.60710784902693,-3.5264122451714512,-3.4979538662550143,-7.22636599386143,-5.738305221670473,-4.962341194887613,6.756288213425811,-2.9918069278770205,-1.7064238982471691,-0.8368870597511907
52224,X,-4.950137192590095,-0.747873768945007,-11.39591124168808,-5.85579832599008,-4.827142863883095,-1.6999386905794298,-5.242055217348488,-8.050659495178813,-3.15288865157267,-6.130849790377519,4.485143917829044,-2.7765613035866075,-4.055752012029784,-1.6336814010025635
52474,,-4.421459564957925,-2.543113592378336,-10.561729163560637,-7.553196636753618,-4.379057564444509,-3.670127354309354,-5.7389168525503145,-8.770949863254907,-4.49046113397313,-7.417882435836787,2.861256211185242,-3.890510296869267,-3.9700461445566,-2.6615262379962856
52724,,-4.650629095198759,-6.149637654170218,-10.280369202930476,-6.715967981950008,-5.74571851682694,-10.390149840729109,-6.35312751945357,-7.017058491227004,-5.177697425742239,-2.432642108213231,2.0240692296553373,-6.412112488035189,-4.012186971276709,-0.7783388589993658
52974,,-2.793446987243873,-4.362840905507749,-8.46354294703218,-7.127145743052042,-5.250606431362794,-5.019097233537017,-4.3372777231861255,-7.810545071169726,-4.890418877057707,-3.010588767254055,2.6294020694388323,-4.5119314564449216,-1.7371768725227754,2.7367192458521297
53224,,-0.8357578536918662,-3.4942348641816534,-9.197639574518966,-11.48544864443168,-8.022248146432748,-3.0547274018846498,-4.480645851911286,-7.698782967497159,-1.4377996181607977,-7.860856580206982,5.940825839369807,-1.4300284581482798,-1.5041064211293929,-0.1453355634284517
53474,,-2.750060297782539,-4.500014684457429,-11.949612688143908,-12.653423732085214,-8.532217031468415,-8.080654114437966,-6.259109250997305,-14.834499528429449,-5.807028670716356,-8.614408930067158,5.207813242609575,-5.668957436382668,-8.61174111914871,-8.88172833139082
53723,,-2.0089569922346246,-7.456206590852972,-15.070873192570996,-15.012161634301808,-5.184631953348258,-4.103838871003438,-10.228397467056658,-14.51481222628101,-11.840650819734304,-9.383788588077254,6.01161238687251,-6.801986233230175,-10.947058947222391,-5.338153720192418
53973,,-0.1995261722743243,-5.773894395953257,-12.945296321832704,-11.765522019594645,-0.3179256793707496,-2.0328246581939693,-7.314747409400441,-8.960370537701285,-7.446362085121237,-8.990758344470619,4.023582229830982,-5.95120661183552,-9.480793491515993,-2.450148177687072
54223,,-0.5799218230977545,-6.045337145787356,-14.83210514566662,-10.350466291977922,0.0711040557134544,-4.981265918119263,-4.350666497259887,-7.611391596907843,-4.8805924469576745,-4.624076374116136,7.490408715325154,-4.459385145774215,-7.0342254262565,-4.824532955249983
54473,,-0.1756676426955999,-6.600312730119276,-16.741671120658253,-7.436047032445248,-2.152047887267838,-7.136299291275795,-3.568245615818697,-7.224760621289796,-5.647443725404172,-2.652128641710946,9.190496561868812,-3.6172071997824338,-4.195437685481705,-4.1033841903044985
54723,,-2.5409851122369025,-10.489155092170517,-16.38576628433057,-12.608787563184508,-6.492700186818632,-8.321036574304228,-7.776307451543925,-6.724361846401986,-4.6717897458909015,-2.807528235314237,3.192670830015188,-8.108348000472308,-5.508762679526626,-7.461889588031978
54973,,-3.0627085911938186,-8.91568625718871,-13.728904349534035,-11.722420216985087,-14.40042987890916,-5.670415582544139,-3.550469799782367,-7.639160250743373,-8.26614354749723,-5.227878038872986,1.155790895135467,-9.789538215554332,-7.846542927582901,-9.750211022048555
55223,,-0.9521667282115984,-8.500535321972409,-14.096129650101291,-12.459922654926832,-9.088119277776649,-7.545301698488998,-3.452243981052463,-9.390172432805564,-8.03999801236579,-6.741136797051924,5.980324844255543,-5.795348441070898,-10.664935423286575,-7.869896500171794
55473,,-4.878781685635673,-9.286602244998752,-16.07969943930675,-13.036573407791684,-7.69907298402582,-10.52684344259253,-5.686521358530483,-6.799184937792912,-6.375140559332658,-9.82964217100668,3.94021964407552,-7.43386571968354,-13.951045623707133,-9.144925672470036
55722,,-3.5347720153417743,-3.746005074901142,-14.120227902831708,-9.969515968066403,-6.350888716831788,-8.689825351716054,-4.229295769859424,-5.376609166595763,-6.815025556060346,-11.508811396761876,4.741140241139497,-6.484946691807286,-8.464948752371395,-7.185715490409509
55972,,0.1683901559500633,0.0286219605425608,-8.65486974128341,-6.742336567325292,-3.745167536282898,-6.84096447568685,-5.509023720093302,-3.4462632483472304,-6.757936461415978,-10.022626702766672,9.643708646964832,-1.6020532229633353,-3.5233713502608044,-1.0136977615701992
56222,,0.5114193620908346,-3.1417576470704085,-9.931467586392142,-6.611658900428324,-2.287838391984027,-8.324824552716354,-2.3181087734680044,-5.322164361057292,-5.805941041719746,-6.6944248431155495,9.522387691707255,-1.7108818567153603,-2.644384144113019,-1.3839189438651545
56472,,-0.3497858863078423,-5.484231205940947,-11.456698067235775,-8.237487148454905,-0.2855353915334717,-9.55117637989711,-4.7032050957970855,-10.353271796185554,-3.1432053102833803,-5.28308286400531,5.29025307290011,-3.3216386532718127,-5.313676823932997,-5.446193092937623
56722,,-5.276870197290328,-4.831050171124666,-8.7687880960678,-9.237120313935494,-3.101532739359731,-8.903467954457392,-7.387826502134725,-7.048685110950288,-5.6632969440902485,-6.827099361121495,-1.552708617487221,-7.427128331125573,-8.808149500666886,-3.0532528815390885
56972,,-3.867642942833496,-1.910570260366076,-11.56418601760584,-6.796554106074448,-2.7508812995524243,-7.833722932345937,-6.95347113823892,-6.363872308877942,-3.882252071937158,-8.93928463484526,1.568131268322792,-5.099748076678722,-6.473410208919411,-2.971433865940205
57222,,-5.063989297896827,-1.591961936316058,-6.95180398010018,-3.1114153434780647,-1.8234404190798983,-7.251949025941342,-5.874634366400283,-7.864468966815149,-3.1198197658785176,-8.163104035295122,1.6762249995861624,-2.298098106831141,-2.1767020961675128,-2.3344048604596432
57472,,-4.362897545096439,-1.316880177363363,-6.86243661730601,-3.481460102494865,-2.7372741081163388,-6.137042398769614,-4.290035880056187,-6.644817614589117,-0.4637460537171609,-6.651082514096535,1.7516162318831996,-4.176032359285691,-3.0497266924545947,-1.750972987563966
57721,,-1.600866562245322,-2.630503890656124,-9.11939476530369,-7.590859558842503,-5.542433407451906,-7.522745659855618,-4.817744121382152,-8.037127071748232,-2.1988163991746177,-2.9769458155721606,4.473061327629324,-3.963079523278775,-2.680699857738668,-1.252597230930875
57971,,-4.2897114668181455,-2.9032206687900293,-12.076936895056516,-6.978332439066087,-4.66738357559804,-6.613178528057508,-3.6787209965199086,-5.578526428330566,-4.6257261533353065,-5.319818854310792,5.201994509789685,-3.843660938573009,-3.58009638050318,-4.661409080848685
58221,,-3.983805756658829,-2.881235876542974,-11.142355116808137,-6.718584484687991,-3.463016311319413,-5.708999221550672,-4.6578231122715374,-6.003109961760664,-4.857863973197864,-6.064351265223628,7.486640752914212,-3.1964586409724234,-1.860645293383244,-3.8772754335462745
58471,,-4.401111521076562,-2.397960382772496,-10.382282648867193,-7.327432356501769,-4.584027399580436,-4.513230122664261,-7.005826647311968,-9.584814758297252,-7.362400223995291,-8.0501960807974,4.372508673768992,-6.426678733266067,-3.290864288575641,-5.244470585614788
58721,,-4.250529745386387,-2.180663213379257,-9.526671355855129,-9.113980743506865,-5.244935552063605,-6.546042397401522,-8.237164166431018,-7.866634916389408,-10.345927076187728,-4.814945000450653,3.612541770602391,-4.205925821209076,-2.9280164613354764,-4.149590867885766
58971,,-1.7744490729850235,-3.465805963336212,-7.062225391742993,-7.293560750301788,-6.165813104948263,-9.64170749860398,-6.780363827276847,-11.586217749718273,-6.411088381665133,-9.01600495203458,5.909832077613672,-5.1778178985211145,-3.2130631910877963,-4.395058123702706
59221,,0.942705769672747,0.2229953590245712,-7.66684867639343,-4.009284063688214,-4.668196911073917,-8.334881864003854,-4.466565943286823,-8.123211813799646,-4.936070276431544,-12.558787972180257,8.407005199744418,-1.4445921558231924,-1.00037932147317,-1.2559297206977602
59471,,-2.8189186876472254,-3.603390160718545,-9.910255570667278,-6.241583639627106,-7.392640976918758,-5.328093650638195,-7.821281787354298,-6.518004348190464,-5.7799008861043415,-10.848815553775736,5.658662252936324,-3.508692152394354,-2.9586204458305163,-4.405110984357402
59720,,-7.177110057376498,-2.472950835354431,-8.357415334600654,-5.651723592941353,-5.943679453465184,-5.797972221099718,-8.248279952764374,-5.601708360693005,-4.180164829650572,-5.87911733457425,0.9371046383079538,-6.899699619734873,-5.116680161234573,-7.862200790806485
59970,,-2.8554974570524227,-3.4409888531500687,-7.286483727120504,-6.242362808939969,-3.9888702819163218,-4.019415588193369,-3.7811648948373016,-7.6490328202204,-2.709893281750231,-3.260700592915581,5.729191897055138,-3.2202080298394127,-4.269802741936387,-2.437984418251029
60220,,2.3894299907728955,-4.940849219774614,-8.29899517066116,-8.220578206407378,-4.705738272301846,-1.6093445627119007,-2.178598324930774,-10.63191041929556,-4.098905405800817,-2.9362524818495634,9.731577742552464,-1.0023670069491757,-1.977853014257908,-0.640959424163049
60470,,0.6207155583158658,-0.4539757341142147,-10.876052799869113,-9.341971156530304,-4.911200045347108,-3.367327292975364,-4.033469145483312,-13.138172650968167,-6.334333171412688,-3.613489121271815,7.549613829666216,-3.371064294477357,-5.026372418354942,-1.3951229077236045
60720,,-0.6930297954714324,-1.6559235095288676,-15.398340734358362,-10.497220243380625,-5.156380033986855,-5.35548460853609,-2.8693133003362514,-11.675430127090138,-9.849068456207844,-5.717245822186028,5.838727611431184,-6.909532792608584,-4.772721279089729,-2.6866526658594654
60970,,-4.136197445879707,-7.206541226858611,-9.420527442107268,-9.776140390972518,-5.06273515555039,-4.114907995647518,-6.530038089193379,-11.923592213353018,-9.051919392078396,-7.699722578484163,3.3287082883952337,-7.22111035739471,-5.840104239713448,-4.864532120480368
61220,,-4.887673335706765,-6.274874987024454,-5.966885476327048,-9.129361131848745,-3.912662523906427,-2.9334440216461384,-5.686133217830824,-12.574781026114794,-8.858570301638819,-7.839961657386082,4.226494865217847,-4.571139533020596,-3.8329688238423674,-7.272373702360944
61470,,-1.6570479296675762,-3.3204681657701456,-6.012149298499219,-12.986955806631569,-1.4474764601018553,-0.2419516797194616,-6.793023507450698,-8.55149608118245,-6.15906321390987,-6.484658173659877,5.803495729813322,-2.5667978170201207,-3.138253574975097,-5.192819529327299
61719,,-3.145787054105245,-3.935725484007999,-10.924364328424518,-11.50854144184806,-0.881844322368547,-2.310794903892326,-8.250770201123485,-5.218496935391153,-3.841610622348438,-4.337713923408264,4.402078505988985,-7.132902820669351,-2.510114301798091,-0.4713712946644199
61969,,0.2611990080841865,-3.2588241804445435,-13.936012522761768,-7.019585316081599,-1.274594021188181,-2.073692792070884,-3.104021661624702,-2.9042525029056887,-3.5167893461267017,-3.689754398942666,8.021617252093327,-3.703973683595776,-4.39243085034703,-0.1647163804618817
62219,,-1.242086248365485,-5.824225542074752,-8.501080752154197,-5.100346715684666,-3.90391500955972,-2.333027966787846,-6.108603439568895,-8.174496736372868,-3.732327700839519,-5.719290504257492,5.338309382182502,-4.465044806474983,-4.414874468724395,-5.575181120316993
62469,,-4.419445846628584,-8.604754086021998,-7.907269914732139,-6.621982218916608,-4.944591338187959,-3.935160230653137,-9.481524776891314,-9.667184361937212,-2.8846024898507814,-4.690238028364101,-0.262008696137643,-6.8972524914934645,-6.925363438933527,-6.615051659598382
62719,,-3.3253895900216044,-7.116168196876873,-10.18542477188387,-9.589157260178112,-6.169305784034828,-6.515090666734398,-10.60862693856092,-5.323811477602193,-6.171700423427654,-4.374685828608301,3.0714811594132767,-2.4560946700603346,-8.889688723201198,-4.196271023025986
62969,,-1.826924907861212,-3.9709233020332415,-9.514540218333511,-11.21707440698244,-3.28496397136771,-3.398152045211281,-8.02139821837467,-8.636341604112722,-7.770451899966152,-4.13898963928586,4.749453402375721,-5.125169936916183,-9.55444985984943,-5.073934850641757
63219,,-2.4424314291569957,-4.476253350572033,-12.73046893454979,-7.251507156568424,-2.0764655067247446,-2.052339000492025,-5.725713353660513,-11.963441323306755,-6.97374589329973,-0.1150655439677547,4.909149043600042,-7.927160697770496,-4.400615613765684,-8.695138143843701
63469,,-1.9767860052055708,-6.925307772835327,-11.944102351755676,-5.601864552596044,-3.960984695205197,-2.854687565482965,-3.619097822707454,-12.897118889799364,-2.362956387730196,-1.0043208030352933,5.971678470415443,-5.412540172229155,-0.8733222787705068,-6.5957779980508064
63718,,0.5786849018226693,-2.755868932478425,-8.709203628909371,-7.817343655527804,-3.783393093746216,-3.1045201758977563,-3.002480431808041,-12.42091733700894,-1.2435011317085924,-2.2741595512455555,6.3158531346233175,-4.659833781486301,-3.1054141927694072,-3.399272062465899
63968,,1.0986634755241005,-5.644098185256684,-8.95428624804057,-8.179089866599957,-3.98477288232312,-4.514329954161703,-1.4908269122402895,-10.849939470909735,-5.182561534954639,-4.446468373288583,6.913841041504996,-2.851166627054495,-3.7643216458057687,-4.964079148533021
64218,,-0.3481824478579475,-11.00268766510485,-11.97191366434652,-8.118770899850173,-4.627653785416329,-4.814040580202881,-4.02514843712541,-13.256128507504148,-9.959733216168244,-3.410292567182589,6.332848876058581,-5.009298533694616,-5.734180796047105,-8.089879329732955
64468,,1.1246502813415309,-7.558672337612182,-12.551316768268617,-7.240884617953649,-3.077048859307756,-5.275335459865343,-5.178173309165647,-10.435494828105504,-8.33440475832681,-3.635003481506003,8.41501483647786,-6.07242116035594,-4.762644550342571,-3.905347105581084
64718,,0.9245581862529186,-3.769856299065064,-9.937043968192157,-8.069496312496042,-7.7733642623746,-3.8721833730093937,-5.192091887650864,-8.490600969138018,-6.842324694050751,-2.903331602233709,8.928715897915724,-3.689846375676813,-3.1947915028376683,-4.952961660106634
64968,,1.0718660526028438,-2.74502095718546,-6.662215726547935,-9.887578627858506,-4.281229794028932,-3.552416279864552,-4.672930140942207,-4.518078456331432,-9.091985060552942,-6.929257288016478,9.519672338111494,-1.3965585359702115,-3.2717393547174685,-4.003569614761192
65218,,-4.105571810764167,-1.6140380370639726,-6.907976555479287,-6.13801786072298,-1.4889441946085848,-4.565917366108131,-5.50974612112256,-4.855395691938306,-7.911513038898881,-5.325794282998418,5.225934089571089,-3.527106203262008,-0.8966149574639073,-1.6384385526008096
65468,,-3.8520724678204754,-0.2309039668976704,-7.5730027366759165,-5.250606987353578,-0.0159516232967801,-4.567772645864374,-3.452103980451052,-5.954763665825431,-5.230949885187083,-8.77320958669209,5.641542258764848,-2.5053812285838606,0.2569771641462904,-0.6233360134073355
65717,,-2.299409598923177,-2.221581149595833,-4.249806318686124,-8.155769445340866,-0.4500108057817432,-6.5729965481946415,-5.1563050931044,-3.8408970022676807,-4.190000402623425,-1.1236654185290789,5.952715391955357,-1.3474744317591525,0.6914333092560083,-0.7749653616228614
65967,,-5.053336860900128,-3.273679588829854,-8.419653043864441,-6.589996967848791,-2.4466356495873907,-6.661921799012499,-11.194277314474686,-7.923693670387818,-2.9983341302268696,-0.3588387453796401,2.9297297184430704,-6.656847198967844,-1.2873979575900547,-4.020739069311299
66217,,-3.834058054800309,-5.700654923602241,-8.653488900538523,-4.631897490979073,-5.338229148100413,-5.653794679627413,-7.444996941725883,-8.925089117121097,-2.6850838105773,-1.307140803976137,4.709034071064185,-6.836309514611203,-3.4727602099099952,-8.203356900995164
66467,,-5.107582857357045,-7.124664764434463,-10.951398120399723,-4.834064429874868,-3.7009856075870906,-10.788151514565731,-6.144399507247894,-9.247278523072977,-5.680392410338188,-1.3753087023666823,2.8878061123227337,-7.748994568856908,-3.163074647518496,-5.882785753338236
66717,,1.5847260616695151,-4.325642855594667,-8.375649535468341,-5.474636251534464,-3.00287831647171,-6.750892227361593,-2.736747071502574,-6.626569066459408,-2.9875112516647606,-1.3603371845342138,7.66031504720416,-3.999729614093922,-2.1407824349937217,-1.553231783115049
66967,,2.437399696699063,-7.422144902805946,-11.358843282099656,-5.646835317173177,-5.444647014049445,-4.625398940503418,-3.156570544218815,-7.7203082781471055,-2.796682442111398,-1.9633559126094875,7.660018301946259,-2.8880036159787164,-2.945558572867901,-2.665840767935101
67217,,0.6086791544614666,-3.0297734159965257,-9.298853943916574,-5.260338367872204,-9.71033401457174,-8.45777080635639,-9.042736620042843,-5.044590896520635,-6.314961023412367,-3.1775974527337025,6.36748920128869,-1.8847293391115585,-2.731720305323988,-3.9246731284004888
67467,,-0.4524054520519098,-4.615789472498893,-9.416012194190936,-5.8399377413671525,-6.068688286910815,-6.111886522529835,-6.648732551158507,-7.205803085291764,-11.739318367049192,-5.445947086617946,5.963363553611685,-2.964685981800315,-1.839309059733478,-3.540089689820613
67716,,-1.1741186213807462,-10.11032695385833,-8.53969169279867,-5.868005133488065,-6.617592860697112,-4.221844929562376,-4.533981328644275,-4.940792329570487,-10.744161409852776,-8.159538512495978,6.234843389858927,-4.588260358536962,-0.7456967872700575,-4.933146016206469
67966,,-0.723424303454621,-7.785185081102679,-9.227310639737254,-11.06824092439694,-7.119390810805656,-3.271163184987788,-4.703975090714469,-5.275069414849483,-9.082065730392909,-5.696518512550939,4.668066424667146,-2.939993458250915,-1.8174155528659253,-4.611831323110901
68216,,1.0113657390589983,-4.6672233872579465,-13.537901547109495,-17.19765593575803,-4.468025682979946,-5.351419950089099,-2.7000275113766152,-8.398040612353002,-4.467957953672441,-6.64485542416541,4.759879587798984,-3.606205588946244,-3.500965585200852,-1.8247061047633808
68466,,-4.601216202374338,-7.094470198315878,-18.26784144084743,-14.34464898610263,-4.045683553000115,-7.853132304585896,-5.975947415100721,-13.14006481283311,-3.280333623848635,-6.574108799538334,3.607263319687629,-7.520668055221491,-3.878452087925545,-6.094719454023466
68716,,-1.8088863733610203,-9.836818662760024,-16.369839895025265,-10.124601642401409,-3.524380192111189,-7.198288451906947,-3.2171205941101766,-10.625487094458874,-8.032391377490729,-5.462623109549281,6.0172350284643095,-5.3281942421486805,-2.716998037754206,-3.810598558555189
68966,,1.4459311395482657,-4.041632098998963,-14.344364302423909,-8.917255555141463,-1.4214702882316257,-3.694011803660296,-1.3907586436870092,-6.342992298810377,-10.979747582961622,-5.343902517165038,9.538790901581711,-0.907840260526114,-2.560560174598414,-1.633922967760307
69216,,-1.8141382614173425,-3.88718226887716,-14.0199058579176,-8.397710025994973,-3.6908489291061706,-4.871712582492941,-4.008332157377873,-6.522016080935408,-10.041403883245364,-6.899009334082093,7.017916765392442,-3.8653752486613495,-5.946460330047144,-6.796492958771376
69466,,-0.4744441731641627,-9.598560320274537,-13.134126434217684,-10.42648373866482,-3.4225592257658577,-3.663112630200077,-7.913681870295552,-10.54966000731006,-5.837128015454729,-2.5197643113157024,4.411235218627481,-6.197178523568697,-7.058810606778549,-3.726888779262744
69715,,-3.7692888085907983,-7.933865666584866,-11.842268936740965,-12.548605509535722,-4.278939782464654,-4.457429465560445,-8.915321905650194,-9.124650340198194,-5.656725796178623,-5.758905432481432,2.397918835985037,-3.852967638801928,-4.051669688368658,0.8589725070122473
69965,,-4.6888141422525775,-2.624330690185166,-13.467240783225945,-13.62667894828017,-5.769813576522117,-2.951183359997396,-7.886179708505638,-6.4892735299206965,-5.416654203067072,-9.973480841833531,3.42102327056985,-0.3332605267158314,-2.215786950129527,-3.4488811592692965
70215,,-0.1901769487514697,-3.522174288229991,-6.844181692033909,-13.77900867370952,-2.986739144510722,-3.945928059781992,-8.289381497277567,-5.442732605976291,-3.178369474274754,-11.608803349754782,7.720808538084912,-2.4445111949784457,-4.63149991947338,-6.210753205953471
70465,,-2.6227258523944563,-8.964346723956021,-7.247899735798066,-10.741578371340683,-6.060367881582277,-6.937116331838582,-10.368993038383262,-7.042651731411086,-5.8696680731318605,-9.75926805017516,6.986767568446499,-5.926931138324807,-6.328905067257329,-4.480403000353391
70715,,-3.4469555586055165,-4.995854030070597,-10.055228278567403,-13.391465277997913,-7.556773990791483,-7.980652442877015,-6.93226150477238,-10.298797980945729,-6.804514308566553,-7.919189446201695,4.521286608614725,-8.724066776005234,-3.8465825857784575,-9.407982785536737
70965,,1.049451571918796,-4.411315906891228,-8.60954166386454,-14.37866842375887,-5.541776428959037,-3.303014216047812,-3.573347741665493,-9.26391795874321,-5.682349355462344,-3.538569465214437,8.390362982148119,-2.2895141795357525,-2.196347566473364,-6.808241409267954
71215,,1.7922859876634178,-4.654975647978858,-9.891835574071882,-10.905792275753736,-4.112138058113585,-2.452324525366455,-3.9856813179092017,-8.056318489627632,-8.936479148981821,-2.1887460301474198,8.029521184191864,-2.6748267845786526,-2.355167875178306,-2.8697849448151653
71465,,1.4668536682353694,1.30052547771455,-9.576758031427769,-6.709075134366012,-3.536010525421116,-1.4490284765605228,-1.607554056479367,-8.913695149797203,-8.451769613028658,-3.835235493049782,6.907322409124143,-0.99908876676167,-0.2635404518781606,-0.2575882401291541
71715,,-1.926010711726828,2.5438662942231973,-10.625002831481194,-5.96483278171684,-3.8752596926274254,-2.638322841008343,-5.199083098144833,-7.19926176505356,-6.431726171897068,-6.399366447276512,5.268854843249859,-2.0506325542140087,0.623403408920281,0.3851359020836625
71964,X2,-2.9725122651742417,-2.487499633731665,-8.1184444857448,-9.457614485646046,-7.875397814603893,-9.469664993599505,-8.119072075464011,-8.828757052463125,-8.040092175103469,-8.540155916115152,6.332286218065228,-8.254015468262594,0.0056119176998154,-4.0146374167194
72214,,-0.9397459683769024,-2.5071345133371974,-8.169741145923782,-9.454635970885052,-6.911033727040415,-7.462314148007456,-9.616227065414318,-6.981382590238794,-9.75986334211666,-6.189714571100943,5.894249595364277,-6.665976443040382,-3.441891431106127,-7.487195232611117
72464,,1.0010366309562762,-3.563644671274962,-9.526390426932128,-6.848485730210362,-6.654436032469135,-7.273983237028343,-9.309361311515412,-6.371768967274098,-12.9223859216558,-3.025611865620726,7.722846178035886,-2.9907608468435463,-3.216833478848687,-6.974066462173592
72714,,1.038848193068984,-1.664876858063841,-12.20726593807152,-8.07854701425219,-3.70592478697347,-3.055517921592663,-6.078353725695703,-8.726642144578513,-8.82400692838911,-4.639410184863093,7.458036588883335,-2.177323311455336,-4.593211181722861,-4.499064029007131
72964,,-1.1473453033053131,-3.25067701210112,-9.82214478205792,-10.806015129140292,-2.2602009552128317,-4.385473108935919,-4.066408431347817,-6.218102600747408,-8.352033365440935,-5.194907081319221,6.279298934498835,-2.410739468918002,0.9958584139149538,-5.8939072963449135
73214,,-1.6418758788995855,-2.6670491679869506,-9.700051723748102,-8.659860987629994,-1.0044208611421632,-3.2488834906493858,-4.232500976083644,-1.9233031740468047,-13.63808332107764,-3.745748495306227,4.608458759568565,-1.800778723172778,1.6328854195686464,-1.8249680267148465
73464,,-1.036991535564474,5.144883748457093,-9.432556892725534,-2.5512432952297344,-0.4597348951296082,-1.517243449648881,-7.588842711953614,-4.524723751264447,-12.486634579885212,-4.234906189854168,6.474159708211296,-0.623650117495565,-5.7061803997676,1.0952240460917912
73714,,-1.289038463062425,7.236900622142516,-7.0003818029011775,0.0950234102564441,-2.144943076423098,-0.8166715246908512,-5.416599368206101,-7.733260309671893,-9.904256409983802,-2.480127278587351,5.063204153156711,-2.8051983960471105,0.1223940371725768,2.83016497719769
73963,,-0.1019504717453012,3.262175854768944,-7.080295278351355,-5.274294559553143,-2.362295024520129,-0.7321366525356847,-3.392091115037845,-11.23433927649317,-10.16731970258971,-3.4368730017117146,4.288618000563615,-1.5712443254101642,-0.6521060856020171,0.7714134469902161
74213,,-0.6148095501371491,1.7369647262749566,-10.614655753666913,-8.932844568523338,-3.1146526265890757,-2.760492526334505,-1.716643987020219,-9.682165020698996,-7.822342722539838,-5.7121861294414416,2.6223241685741865,-5.226056041093628,-1.6022693467783429,-2.821476300176159
74463,,-2.6248982273665837,1.460733096337186,-9.803328451678038,-10.821096674549253,-5.292913031359497,-2.81891480130892,-2.9206992593499423,-9.015769937223032,-8.499540829460205,-9.58759394106091,2.1841377571643306,-7.878845507796078,-3.797188844644518,-4.909540783376514
74713,,0.3481851070033726,-1.834508501215174,-8.705660418278827,-9.88841457675726,-5.261127765522186,-6.367236131494279,-1.544748018995179,-12.284305648747578,-11.908948138044252,-5.029190036017235,6.835266867128846,-2.981279388314486,-3.1139120247558347,0.313491371738393
74963,,0.0131801912110223,-1.2429119774767263,-10.937009866803432,-7.992145290027953,-5.555419109150605,-5.481539786244599,-4.753633459743671,-8.342256231207507,-5.255070801676293,-6.385354778129791,5.164513540451965,-5.427259230965039,-6.448602204028352,-1.566556850504324
75213,,1.3920267710932424,-2.2878708387540474,-12.111525789105151,-12.767711137191284,-6.84198284411392,-1.5191795407749336,-5.507418339215498,-6.745573107540519,-4.2302177355656445,-4.680681612727472,5.339932641348385,-9.3486373126318,-6.744655996185211,-1.849485063274242
75463,,-0.8302520413705625,-2.1769813560281244,-13.215791644694114,-10.536203835719586,-5.409760744817852,-6.053195606101235,-4.222265325998698,-9.149124310564062,-7.061101647002315,-4.633285857837539,4.506606631431907,-2.539225697703701,-3.518271571148877,-0.279371090259646
75713,,-1.5198826536783634,-0.1547686750447581,-6.414957038912768,-8.43064335616713,-2.808668127476319,-6.142953695879241,-2.912157310415868,-8.328161777012618,-5.647546227728073,-6.686091765906848,5.102674519183989,-1.158556579885578,-1.9027878658598216,-3.2217386734335216
75962,,-3.826668122816883,0.4829671992467924,-5.172739967860386,-6.602027939271505,-2.3260435253779925,-3.430039516560741,-4.45760226711717,-6.329429485081649,-5.021545023065172,-2.231248071122556,5.387610643801639,-4.461513460073777,-3.736890931272688,-4.599800971878521
76212,,-3.758283444497097,0.1537669034639295,-10.24248642654031,-6.842812741291521,-6.917572708583188,-5.355601581627848,-11.733392330541571,-8.412368214521774,-7.611401203636866,0.941224361186245,4.01824172314242,-6.032154332285806,-4.177527755421609,-4.884450487995855
76462,,-1.394481319753689,0.5682641918747301,-10.847175955564758,-6.684871279970224,-7.220743444157288,-5.338904127055027,-6.233437613052279,-9.003717732805152,-7.34559290789341,-1.955507184179136,4.551252898532608,-2.1337920524197043,-3.1894372267748072,-2.5995144317247245
76712,,1.7798294265616146,3.001333299421422,-8.217438218809818,-3.828679286346957,-3.91104433853945,-6.750294943887928,-1.4230081236554355,-4.929011585681788,-4.616711534168715,-5.632830702901997,8.033463844829816,1.684221945272265,-3.5386571856548708,0.788112695802464
76962,,1.947926929126602,5.028803320002494,-6.519785633819174,-4.076872705549352,-0.248958473500751,-3.2945105702575432,-1.4623750996035412,-3.461508253737872,-4.956656908074237,-6.680818362960778,8.44445115885106,0.7852947231048228,-0.8012060593781435,1.4587791524909195
77212,,1.8392008017951555,2.128636978561401,-8.237438900053139,-9.94576855026074,1.1495343968806857,-2.4494593813479626,-3.539692242723889,-7.485161406198863,-9.28362431778188,-6.906786452516106,7.748610607188633,-0.9341790758885424,-1.4100873580626123,-1.9416841888072025
77462,,-2.138063392350642,2.4656522946004737,-8.131513418095581,-10.473162391313029,-4.070455254659601,-4.7896494676484025,-3.990036948243269,-6.962367443331846,-10.716160825012352,-8.473426993914225,6.110329236242383,-3.452123961196922,-5.971248148897972,-2.943815367354911
77712,,-0.6725711416894511,1.025126380728182,-8.120163427108144,-3.5809416656513,-8.13454382268849,-2.35017627660334,-5.283277433607061,-7.496741993920104,-7.715074068027786,-8.435261201572128,4.663600117150156,-5.201305890850568,-2.9970150573423777,-2.74866862014876
77961,,-1.7432346784580912,3.7803117800502606,-8.89028727719735,-2.1934573601269896,-8.038175441583629,-2.774806684841181,-7.47373675623844,-5.673478575940544,-3.1464660622654703,-4.413655934441898,3.346779293480597,-2.9290221720396903,-2.137531736800475,-0.8884039909395024
78211,,-1.6380357909964915,3.867546204488785,-11.116963650068302,-5.604078101538583,-6.328633310039194,-3.1916870879782437,-7.884216568043558,-7.131371270375666,-3.4821625309273543,-3.867788519485736,5.971986456974637,-3.431537001375061,-0.2770730906036969,-0.0941926592115995
78461,,-0.5719630943239175,-2.524876763206353,-12.340366201616757,-6.5604000516495065,-6.052774519054987,-9.228380959388575,-8.254120279601569,-9.315084086635334,-11.188397643496671,-6.121442025065153,6.77091715840308,-4.117563071923457,-1.0866552509914258,-2.835659069296998
78711,,-0.1763883584489071,-2.2460990503675733,-9.514352137828167,-9.588690841840863,-5.707764860866906,-9.182925604557816,-6.219737863288555,-10.796576540806068,-9.432420087091892,-9.403917902462712,4.911430457532822,-5.790327313836379,-3.9915505287572968,-1.7674241806219226
78961,,3.4892506691389285,1.7135079391911543,-8.243890672421939,-8.748450392018277,-2.699446503029689,-5.140351621380555,-1.541857842302143,-10.813389552760178,-11.415608594843343,-4.401676801785523,8.859581728435312,-5.828710238709295,-1.2733832955533435,1.6384347879825665
79211,,3.4419477189813064,1.37601475490422,-10.229445867579743,-3.980558441335525,-1.4116931649245077,-6.49657955999144,-1.7541486955757648,-9.501054187273784,-7.301504826721397,-0.5373572850430257,8.42958502462399,-2.8356711061565285,-1.4124026006459387,0.8088869560000933
79461,,3.822511244175303,0.0580327392824653,-9.25772010644036,-2.6157131697800096,-1.443285689775955,-6.32128834515176,-2.3859400668178274,-10.00029054846401,-6.351023420946938,-3.148897969545461,9.686532234924854,-0.7332460450783961,0.0539648267160829,3.3049683093185065
79711,,2.124900334207055,-2.3606153276542545,-10.448907320299355,-3.972927242581759,-6.8152733529835805,-6.965425107351627,-3.819403851861496,-9.434335174330222,-6.916631976864949,-7.355607510641935,9.65287477592516,-1.0296455502375486,-1.728970161397784,1.301346324443145
79960,,-0.3314752582155781,0.6038984951547317,-9.24768317918353,-6.827666374652647,-10.35467121663811,-5.41934633078636,-6.580478091880664,-8.985411311379583,-10.144129073814202,-2.4219466194479944,7.526842914261104,-2.550208883778046,-6.075210320138755,-6.075013819858615
80210,,-1.1893186090673369,1.3160702583224204,-9.579273761990796,-3.639626292645781,-1.834629469273577,-7.885233947576217,-5.200604631633766,-7.745183685614901,-6.538573475982759,-2.4380753713252776,6.635831068933359,-3.375302453169379,-6.390995001547163,-8.900451019495026
80460,,3.308260758166768,-1.7972498619458357,-6.977052967565509,-1.439048012067501,2.540449626275177,-3.827459727092906,-1.7608875712382177,-6.274177154117489,-4.568997726280966,-3.4874812896793954,9.950607229525303,0.9595426973452228,-0.2651086498686462,-5.179662711093203
80710,,0.8140627167520414,0.3661057407431248,-5.040468244283879,-4.331532726613789,0.2916621676734113,-1.7845007261799528,-3.2067268623056018,-6.3506031628457285,-3.408657353093986,-6.067693293334803,8.111738180237001,0.0495359733383295,0.7759021334587612,0.6855199311170851
80960,,-1.3599479910122556,3.30845577007553,-5.681394403857569,-4.061773083189476,-1.4057562317779873,-1.9631734738077984,-4.545589756757649,-8.672834474720506,-6.047328035629112,0.2588144384587231,6.388725326734254,-2.490956609533553,1.0632565218269747,1.959230714851064
81210,,1.0841531742540904,-2.280271651082823,-4.390853097469713,-5.916428019949002,-4.816572998333905,-4.461727456217717,-6.95638017441067,-3.9344737617909153,-4.835360825951799,1.551385475228024,8.278171515172927,-2.04615603635069,-0.1084253008419197,-1.2760952725425925
81460,,-0.3782164469382051,-5.794550807300047,-7.89338671648353,-7.361769324197543,-4.492102818678809,-7.525474607172359,-9.386942517959731,-2.976560793601796,-4.974409624281329,-1.133269292343703,6.9993320538501616,-2.1515354679134484,-0.3903376571980294,-1.0686579536714176
81710,,-5.417709052791464,-6.054654416666726,-8.955511353309348,-6.721008566272894,-1.7491632907496482,-10.035721938989251,-7.857156480148494,-5.560433875275478,-9.176984886460538,-5.138156094230459,3.2246604196522197,-2.993680604150681,0.0347994204728838,-3.2721230589782824
81959,,-3.236977736364838,-6.440230435106291,-7.925643588379168,-4.761589539976975,-1.743415497015197,-8.8065640034159,-7.636953158612719,-9.21817268562574,-11.421229103057009,-13.79129860313327,3.726903031693214,-4.31008849826207,-1.661479936083747,-3.7661917704345327
82209,,-3.286958071775117,-3.829869399680452,-7.357357779286914,-4.650695111218351,-4.3594262220720505,-4.913868070593162,-4.913481862361805,-12.121043370389328,-10.958150918870606,-9.135362518065945,4.502685437688717,-4.960580155193705,-3.770828913542752,-2.4093136958366066
82459,,-0.571735483376239,2.4559016724096443,-9.652096225693745,-4.048817786343621,-6.382599951804323,-3.739155986687337,-5.776878968341261,-9.202463723396413,-7.725399926228594,-5.430407615082986,7.619043340258318,-4.2461638533561095,-2.6012574303391247,1.5638565970137597
82709,,0.9129674368969152,1.316709184400583,-11.416698232893266,-3.2901467302775567,-2.8416003691444325,-3.3536113389253,-3.999428087594588,-10.026513410478604,-11.140672017526075,-6.128136723097988,7.710405758394254,-3.859599851449771,-3.345487092244816,0.7105101280675079
82959,,5.486965867830359,-2.57389511287572,-9.076397614455136,-3.5015018336190544,0.2417557097939263,-0.2931857857983833,0.1607191764255836,-5.690730460425415,-8.478655074897826,-8.360506867463785,11.366822729368211,0.5171333073621776,-1.769514230384173,-1.748389789164292
83209,,4.991740945406784,-6.168615306874246,-5.335832534876044,-5.651171355630335,-2.7360505254242806,-2.0232908502500053,-0.6293868868249518,-7.48102156448612,-6.666399860338997,-7.115863458343269,12.00179229727727,1.211215678742453,-1.1625078260486006,-2.7801782769222587
83459,,1.2892779220599346,-4.68214979765576,-6.970858357750014,-9.21406189557298,-3.998905254920284,-7.550269545390485,-3.515542323896713,-8.255451368015915,-8.580646868707458,-9.33300336899647,8.681045246799972,-2.9882371392639997,-2.873583334576852,-3.2413339050340824
83709,,1.9069712455758523,-0.3812540987835527,-7.17673448322818,-10.315565207613176,-2.3034365725962203,-5.695939236949752,-4.3744959400493935,-9.962674684185211,-7.860564888579109,-5.307713352296201,7.535235816003168,-1.7521334542739966,-2.3039210961419614,-1.0395728605562482
83958,,2.3302889696694846,1.0017665452592257,-5.226549260830967,-8.48121172039844,-3.3074587977821053,-3.2400917712156523,-4.926892686717111,-10.693088204264496,-5.197749369468606,-4.314846674291272,7.580787318753082,-0.4797086473012066,-0.4012883090879822,2.2148638449153326
84208,,-1.8187175987133364,-1.4401665518612208,-7.772655940410318,-9.92648886329689,-4.087317439147832,-4.566254885020783,-7.090898203795739,-9.11533184938679,-7.417112745103797,-4.475103178732153,3.3228091897684786,-3.306224884699924,-2.784071738458201,-0.0402195964220832
84458,,-1.7812080213952288,-2.613831520298404,-9.076030521725723,-11.025639214703617,-5.678373363825626,-6.788455628821391,-7.992412541321281,-8.291752144186802,-7.967074176179968,-6.07702928336504,4.509185570699318,-4.162903082620434,-3.3750092356871675,4.722497058771484
84708,,3.1419100330353777,-5.225348372310368,-10.869129665456526,-9.016781457829069,-4.206766931346459,-5.684681709028955,-7.23338341191751,-9.65946794019148,-9.146589256066733,-5.122755547018876,8.416628350213234,-2.5476518949065063,-2.981826858500037,1.7374169028807356
84958,,3.59036585587446,-5.768114455534366,-15.356985366542602,-9.853200922327751,-4.046037642155882,-5.505211204703101,-3.1392220871781795,-9.839248306873593,-11.396435166823126,-3.5929677018174546,11.039428285738987,-4.128220510263606,-4.536525355991646,-3.875063487559303
85208,,2.844368235699571,-3.596513812833086,-12.571208486302716,-11.078072382350433,-5.241415815905271,-6.357830553014323,-2.9928967897422227,-9.56507134952872,-10.61185340532128,-3.1267923239185684,9.901805337710282,-3.865179390986168,-4.79671689212678,-4.285946790921391
85458,,1.985777106575017,-5.418386160658764,-11.75582072971407,-13.348420751737596,-3.689614030955735,-5.341705718901148,-6.4948755056416925,-4.2629346429985135,-5.375674444210931,-3.244305539063961,8.934717764373305,-1.3229257055969792,-4.426433005252151,-3.33602764147952
85708,,1.2693056520448056,-4.5859991980049895,-13.387112663221489,-13.292110993265744,-6.418439021893408,-6.091532684663722,-6.784512982063104,-1.43305233385293,-3.950104281206194,-6.712761337387125,9.094421402217415,-0.2030365921850939,-3.404215614709541,-4.407476007290725
85957,,3.34253866595782,-0.7970544205495962,-8.153388158438377,-8.262519301740612,-5.096579687543208,-4.909789406378662,-4.571008880460427,-5.009620119917395,-6.775917330270458,-6.785402712445599,10.282094582740145,-1.9312899860970147,-2.7633349161904737,-3.1291826824369706
86207,,4.202970543899873,-3.651109802159872,-7.677755589381365,-9.118324635086015,-4.437839153329758,-3.130456013792397,-2.754701974979591,-7.138492477992092,-6.428415625279143,-5.090512445010161,11.011732460396807,-2.635653754134017,-3.630341886255872,-2.851267174948636
86457,,2.391621547055529,-3.762689337466736,-9.305455820515116,-7.635537944616784,-1.9819171884564457,-7.89934012428939,-3.955429293268391,-8.976871712918877,-5.53696204843725,-3.893620728932916,7.687709122263024,-5.810132694028372,-4.347725578181923,-3.548918356216562
86707,X,-2.0130512954033297,0.2899630451064854,-9.378953517440236,-5.772836928097545,-3.3489076379226246,-6.781438669303775,-4.463702057033702,-6.535260243746343,-5.938372006371605,-1.715585031181477,4.322455280200876,-4.653019789249799,-4.359415491833802,-2.018182900083251
86957,,0.1555688918383861,-0.5391085493894325,-13.299129471647667,-7.616246360589988,-2.421852644841323,-5.769243836293221,-5.022165653700307,-6.002701300261863,-6.000981774640727,-3.486300391422133,6.247980967829286,-3.40932506486644,-1.627420633467326,-1.661527259049166
87207,,-1.1152388313407084,-2.3462052014895094,-9.993059592657124,-8.91983049404026,-4.839165815720365,-7.593643094391735,-8.009954229661261,-7.722230332135717,-6.263591151404185,-6.220302816343456,5.156397332984898,-3.6768625322224695,-1.12004989535078,-1.0175622606139998
87457,,-0.7538178227482563,2.785585564545729,-6.651373301275325,-6.874806312884534,-6.823992368975005,-3.974855899108352,-8.24183055035999,-5.924716894046151,-4.545427112246768,-8.090433568073657,5.3953280997613575,-1.5972134745469138,-1.8694708676618244,-0.480715810126284
87707,,2.106811816487947,5.21062673101415,-6.104858988850504,-2.1212439877899048,-4.014866440388154,0.0026497061518271,-6.830064897219932,-2.0719635273797725,-3.184078882123313,-8.261672405102402,9.126874370562764,0.4054067884660902,2.482406439345351,0.5759627575399202
87956,,2.031015018160276,-1.6973908155777264,-8.217757182913207,-4.508312809131622,-4.921024007747684,-3.1303305839907622,-6.084195650010543,-2.8297505042774684,-5.071489052427703,-4.807516352949529,8.806359353531914,-2.4592831087608467,3.391077125695165,-0.4003092937029284
88206,,1.7008646349004968,-6.276993622433088,-8.701311664136467,-3.803330736311135,-4.618789653934629,-4.450611765900952,-6.212845012406857,-7.196168063736615,-6.697931874619114,-3.4245674694090047,6.284405101843608,-3.634997984021042,-0.918244583052204,-3.3370997367484003
88456,,-4.248690781008592,-4.849575353455951,-7.8212593732846685,-6.34790605128209,-5.363859940360504,-5.277417307249691,-6.662442459045197,-7.1052571754726745,-5.611356317648029,-6.177447903045252,3.365753439880746,-3.487916833658048,-2.938306278307019,-5.023351295149359
88706,,-0.3973189852543447,-0.5808594568567091,-6.602474202193843,-12.17192644981844,-6.396047206340693,-2.574806958168541,-4.443619473455742,-6.645705084179968,-3.759940177089329,-7.992215106948427,7.453835156485175,-0.4691707942850587,1.25743663313706,-0.3991876930169192
88956,,-2.251473909685331,-1.7904907120730136,-7.635499778027529,-6.289482375883127,-5.029617549936489,-2.988095312063007,-4.0696175787264135,-9.566472248972504,-5.139881603624473,-4.046674704254529,5.5798868025490425,-2.0949417974509084,-0.3683091284946583,-0.632620573702155
89206,,1.2648370912237148,1.3181822141488797,-7.375538354032058,-5.367298005253103,-1.5154500066038303,-3.8086204180483545,-8.682758110997122,-11.534071463194316,-7.965144006808854,-3.778793047683493,4.124618815542752,-2.2657743038456903,-1.2567880689669175,1.0826166309358267
89456,,2.105888860831711,0.6417188154826026,-8.418736135480952,-7.682023272483561,-1.0926638780415083,-3.0772609890294795,-7.754487779641423,-6.606560499646167,-5.711106705341383,-2.5490033785931336,6.476211323849008,-2.674168416616462,-2.2674593701689822,-0.3285111793850435
89706,,1.7708061883739004,-2.112936172574236,-8.362493081538418,-9.63358699594238,-3.715958856984981,-4.841528368928284,-2.8070475737483824,-7.037817923718216,-6.7887326391093055,-3.340376635140993,8.484646476120018,-3.910874732072984,-3.8542912622637537,-2.738160386990092
89955,,1.9338259754213585,-6.093287539480271,-10.567945648144462,-6.720255411924466,-8.579281232610622,-7.999177983450263,-3.092893319593717,-7.62100520004283,-10.64834873161259,-6.85956026419812,7.8872777923158655,-5.314699396896538,-3.109760484353456,-3.1199283456716955
90205,,0.7769617325499549,-4.146667699748047,-8.975414069451668,-7.023585954057772,-10.044800833554442,-9.644831137059754,-7.213493004602696,-9.50972844685141,-9.555316640887932,-7.955719001302443,4.612204626072748,-5.45538190063052,-3.427762483845585,-4.128819418170946
90455,,-0.8124284464169705,-0.5549200042556648,-8.294341425936004,-5.207099967278892,-7.257827777803994,-11.591632722094108,-7.740264529703181,-10.23530982624129,-9.228953630000792,-6.037566257745233,5.848287927535687,-6.820174972936288,-2.584998449880336,-2.522518807068312
90705,,-5.517077587854421,3.334028071033852,-6.189831886275491,-2.575628712923961,-5.624806120810172,-10.638726528097653,-7.369691561509514,-9.596593530993935,-10.060078000251645,-5.645986512459391,3.545764069243966,-7.231780167673424,-1.8650620364831567,0.0909318741695617
90955,,-1.8875587575854385,3.2015019065732924,-9.332267284762343,-3.748368576369252,-7.250198239722331,-8.045802296769835,-6.111411152628509,-11.999663224288554,-9.289511102874892,-5.260446754588436,6.246867947422694,-7.062455768660496,-0.8865967464299908,-0.1898464915585267
91205,,-3.288355096821904,2.66196101661337,-10.165200713669138,-3.684193929645432,-7.494704440007858,-6.987941342539595,-5.865646834245321,-8.795690784229912,-9.496587647034444,-4.502754171286913,4.675660619117187,-9.68663595724951,-4.686270989117009,-2.246753567678836
91455,,0.8837987989244468,3.817381552630109,-9.325093464342338,-7.532499880140016,-3.643664741546484,-5.420075053942726,-3.5057618514434545,-3.110221400472206,-7.900754199550145,-6.344974734806935,6.935725288215426,-2.6704373966739947,-3.0069455865335564,0.6379007571468307
91705,,4.695078674566767,2.293349659027593,-11.6482592967069,-9.408330975625464,-1.1051128683318563,-5.116544902626295,-2.914730069150404,-3.387395989053424,-5.675203795539115,-6.706050388233141,10.9327879867337,0.594115625891224,2.7632644294711857,1.2887317647715082
91954,,1.5263642085170834,-2.249175037331656,-9.770542608727744,-8.827634531022326,-3.807735465606088,-5.580801544744187,-5.022622953566956,-6.758907015872425,-7.1592582626801455,-7.219514030266907,8.164402035524587,-1.5184065834100138,0.3035153518681752,-2.477917647884237
92204,,-3.2977430651746618,-0.2064294738998283,-8.174722269806292,-5.979142377863069,-9.31543040922838,-6.910351705539788,-5.543134407192193,-11.319132466988515,-7.266157868614323,-6.102935795934767,2.2829395499967537,-6.122171042325642,-8.60947816738875,-2.5088330910364043
92454,,-0.1145389225296235,4.157145585046397,-9.05638262292374,-1.4416313898618274,-7.398207922133343,-8.351692369260245,-6.759399001793804,-11.822616709876456,-6.33178884812141,-3.6860997000772526,5.550342569119603,-6.034144069116665,-10.183762957777846,1.9398775518493216
92704,,-2.292853055232384,5.761362612208592,-9.32883079707783,-0.91957247043972,-4.196736444773944,-8.935176775652288,-5.302731657218354,-10.773157834376438,-7.583781203659312,-3.988486182441693,3.0720122710370386,-7.142081904717855,-5.714969667888034,2.446432452887985
92954,,-6.076153766101408,0.5235003460159636,-8.143573353036551,-8.704460700387312,-4.270692626944945,-13.2899530095448,-0.8345949488317062,-11.078918244463509,-8.423245568979816,-4.724645552070887,-0.8323503218372713,-9.02722873941794,-4.557002369193726,-3.29278660907168
93204,,-0.4454065986211545,1.4244724126986996,-9.58952269222276,-6.312950598304285,-4.582624097813515,-7.210867016334289,-3.2541252348212324,-8.329036524040802,-10.538283909808124,-6.870529366480059,5.950644120271558,-5.089426558336585,-3.8630721565563593,-2.700078741348089
93454,,1.628431248999259,-2.414684876055116,-9.47007011589165,-4.836483255430904,-5.778558337085899,-4.373382243553157,-11.02251520700243,-7.152859168438729,-8.164679902213326,-8.523214899027709,7.048243623973528,-4.055430665313871,-2.609549855033465,-2.1247491910164262
93704,,0.0916691573957578,0.3811159173568336,-9.421827954597449,-2.415544029805847,-10.830500933928969,-3.507310083302259,-13.80167272703424,-5.990207364326631,-4.870944635098213,-11.192975113248693,3.0946134646918337,-5.156107121193541,-0.7325809377413605,-3.4398200481636505
93953,,-4.215824616088982,1.8427742148175343,-7.424399292390803,-1.443680740055855,-11.90868501819745,-6.776773123120097,-12.19803046564238,-6.963163105211655,-4.234957026979909,-6.064903472178786,-0.553229428361222,-4.352267134698394,-2.036337957244778,-6.103251864359681
94203,,-2.785056857430899,1.4848455911713483,-6.330186041662477,-3.536752580411972,-10.594137139975883,-8.481381419423291,-8.087226344366186,-7.809905287614014,-5.933643406247199,-6.694910759310217,2.1208292872719925,-6.024892062310531,-4.153214007682674,-0.2714816987930261
94453,,-0.1039014706442717,0.2434833465356031,-8.913898590681598,-7.777558853467958,-7.1044889736704855,-6.275717428603945,-9.85424060616189,-9.050277387286616,-8.32465916907767,-4.38356674869694,3.8679431935368607,-8.057536428506776,-6.226346868665612,-0.7029934914764642
94703,,1.0736301933498351,-2.4214373919067382,-8.773081812338567,-7.512959447515889,-4.478978862956212,-6.4085014695780345,-5.677883775538809,-5.878679033416823,-4.632058675752237,-4.165522398671318,7.560670361008258,-5.886165611227328,-3.977763773825754,-0.6663584808906868
94953,,3.663534456121702,-2.786115745399929,-10.269542918327296,-6.757681685228109,-7.143709257831298,-6.109119356425761,-1.0913803492355472,-5.3631246460085,-7.23940729804943,-6.087172581299369,9.999860598883448,-4.284494258157881,-0.3699779006215695,1.8129746522437844
95203,,3.4915529772455383,-0.461186433949351,-9.455892597110044,-2.534420225671457,-9.46060322995848,-6.305269653034648,-1.933795772006735,-10.355468634207094,-9.028848885666433,-5.2065517226432565,8.872488571196454,-3.734508836318669,-1.229990986546537,0.6176106823781544
95453,,2.1688878408964274,1.245962655669561,-9.3184824172147,-1.0097358912282757,-7.083115764171182,-6.706883884999453,-4.01755027972817,-9.504969465209832,-8.562250395980323,-3.8726850660405447,7.043092011780222,-2.477193918491915,-2.0312746395066394,-0.7674763105304628
95703,,1.6702782092586366,1.0869195635014126,-12.838397763219357,-6.009177893448527,-5.265727352605046,-6.923676825921161,-5.045255218435591,-6.918523187102639,-7.613682396515763,-3.810998341812301,7.217420935755921,-1.143976254485978,-0.939314783026868,-1.0529699032486464
95953,,4.071188376783964,-0.982508139691366,-10.358523520569957,-6.201188243313637,-8.4953049478867,-4.91048748624088,-5.584180262862373,-4.220179259575375,-3.7428312411173663,-5.976884053956606,10.378818875643075,-1.0255662483787829,-3.772486792338683,-1.4145102492112047
96202,,1.4543154643220049,-1.431460726135155,-10.762569724171795,-4.571943139926098,-6.897702033429826,-5.844869526608113,-2.908724974536161,1.478321234669346,-6.5945170854975945,-5.83412352285193,8.395296804968575,-3.259166633093013,-8.43691402235322,-0.6125496764887909
96452,,-2.177637597133117,-2.374510893294382,-9.255164442814614,-8.240193746601856,-1.9602916529099743,-5.182086127638574,-3.2136405434723967,3.2016951311694664,-5.983915316253061,-4.729564420292574,3.1781104113417364,-2.056392497167872,-4.4112728511361246,-2.3993092333467003
96702,,-1.1126638401701436,-0.5055464016005017,-7.319753890708705,-10.06419479508412,0.0452830188822414,-5.109531516873341,-5.356444724093839,-4.358675908599366,-5.669916881318823,-7.260793272594711,4.086657880119543,-4.913221579043587,-3.6102733995116183,-0.9697631349157876
96952,,-5.3966196144193805,0.148338054758391,-9.66211563008766,-9.507448044940643,-1.1864439723141302,-7.596025372611093,-5.756200030116597,-9.034922584632696,-10.45375204258945,-10.404392462770824,2.0936809710485456,-10.53602475395008,-2.8086692638541138,-0.0595049953359979
97202,,-0.8455517581063583,-0.0619814805676461,-15.959299194443066,-9.86467099552806,-3.0639333773965234,-4.399379769624497,-5.391262969819824,-8.958353721371319,-11.985870897444508,-7.399981835215856,4.679587912473012,-7.074556211319372,-0.787550280832734,-2.426999947493289
97452,,3.0192120319037,-3.1864097249435623,-15.77023641593268,-13.485201286385507,-4.141035248730219,-3.3841093500196133,-4.3174709354116505,-10.352282817994643,-8.10369592487181,-7.531845548673242,8.432296574702717,-2.662602150248913,-0.0443066063301016,-1.461328837958963
97702,,1.7129851041032784,-3.234150169151211,-13.081660556629284,-14.432350003924912,-3.9764516199399247,-4.898841319724711,-5.508733985697575,-11.570554100995988,-5.983845328904589,-7.141782560224447,6.790866140224243,-3.792826252432256,-0.2921822406576928,-2.5095012604230997
97952,,-0.8389915402172227,-1.7240360402996957,-9.711078148841167,-8.149785793891386,-3.6740260729539753,-3.563114071555572,-6.695720926843821,-7.367892485434333,-5.833934340292277,-6.3905447461772615,4.5066220720948,-5.899739832160929,-4.11164508566867,-5.002996962976337
98201,,-0.4599982680869544,-1.0877362920723948,-7.677344593117523,-7.907714343240121,-4.868268737048761,-2.3895058769007385,-7.011786697075438,-8.034564554001664,-7.6049875427047455,-7.048231279241528,4.876673445362906,-4.425939680867238,-9.724376173141213,-1.589009927736296
98451,,1.954978128974877,-2.2431583028589914,-10.033837888118578,-9.439866947382203,-3.5272775813861457,-2.7287068741299603,-4.267811502359203,-7.028651221057618,-5.9990769664467685,-3.654134895251577,7.836279295787937,-2.836788937871859,-5.832915251565989,2.376225089675009
98701,,2.431930672498892,1.2377534859868868,-8.217934944946776,-9.18316490507728,-2.342294706031736,-3.369060624179381,-4.567294705288788,-6.259992886519617,-5.4250813297217535,-4.187506612773037,7.964765256374735,-3.439922654307619,-6.8140040923545815,1.7471005277077964
98951,,2.648078936926255,-2.9481800692747577,-8.506988170568132,-8.851830584256154,-3.3342668466235064,-1.6327270327495549,-5.157132904835015,-6.044034264000912,-7.242053442441945,-9.883698348954423,8.115537669998963,-3.9007307096223776,-6.299956113805584,-1.5863640203564942
99201,,-1.2801165832323589,-3.4831171358924857,-9.79336335963551,-10.771894624884409,-4.252389528727872,-0.9163905514252952,-5.68691600157123,-6.274995513940254,-9.091907557195857,-4.218628685276681,4.537216729397347,-6.502345505405051,-7.668654093931437,-5.011521926032708
99451,,-6.272596985708142,-2.396186816779413,-11.89914429372497,-11.476043608232835,-2.1707788844171287,-2.9589874821054307,-6.983265178893763,-6.725655781752348,-11.077028584221518,-3.7946010205379457,2.432183975172497,-11.658768344410962,-6.7613385723986985,-8.292553337514715
99701,,-2.756325160318255,-6.031218360532441,-16.136606768137355,-8.817859851924727,-5.884987601240236,-7.2262293721577215,-8.53555560422566,-8.853835839074385,-10.653523355869154,-7.534905812758167,4.084529961724121,-5.213078649879029,-4.108685053002452,-5.337156580186476
99951,,2.61216325217242,-6.308440761833179,-7.836931098794311,-7.1793665191407285,-2.8037532146943893,-4.684414086865654,-2.7378903051057435,-9.196918980778454,-9.48200024604754,-6.240048520709229,8.488936517304502,-0.0644129382493435,2.0478655665335497,0.0064351300683014
100200,,2.423561985449142,-6.401335730110585,-6.305288388287744,-8.444009954676787,-5.022333511635583,-4.445998682442628,-3.0226878830270025,-12.027159652295047,-10.309623461543769,-9.18275396648488,8.825949158365324,-1.302141179223459,-0.0677136401725137,-1.3868299331320002
100450,,0.0832595934329483,-0.6937380257262185,-8.43636611040695,-5.89820100160426,-7.5185325423356,-6.518219265465131,-6.135146608376051,-9.59156086948417,-8.308652316913166,-6.369434648270142,6.627379066287379,-4.475944004082388,-4.434035712432118,-0.2800312262129426
100700,,2.2959642344270765,-1.2818701189392812,-6.226039716839223,-4.916406801527443,-1.898002762178619,-3.875942034210164,-2.3104764490953924,-8.72637112438691,-6.3300352143776175,-1.90996969250281,9.9233640995524,-1.0802200225269822,-1.2497458942720996,-2.617610479316407
100950,X,1.3626816759529805,0.3921395829011808,-5.72383976316226,-7.004272044595704,-2.3051496916828174,-4.637932843962726,-1.5291788835706823,-4.665964565310386,-5.555802039745981,-2.7452862699947564,9.509260957789342,-0.7184649268584085,0.7769608403933785,-4.634516480410698
101200,,-0.9396615890502256,2.136506312859852,-7.848801470918456,-7.124184388202851,-1.549719157230243,-6.379656438198282,-4.692039334326145,-4.990524842852689,-7.601450253367403,-1.859033598671788,6.454810939922291,-2.0228525735853253,-1.7368167713837113,-5.775160390277866
101450,,-1.5227443755413257,-1.5367173214564678,-9.945192029940603,-5.63688018808449,-0.9310510024176788,-5.390567949056297,-9.728173245818452,-9.052433494131789,-8.156332636352776,-1.5755430198053957,4.903470184028954,-4.153099563626316,-7.227351110937211,-4.917791995710265
101700,,0.6722408782074273,-1.7381277648784008,-8.651054829466766,-7.312668379365718,-3.535055471250867,-9.15127302576002,-5.676401899571154,-12.871125803176415,-8.913872658722775,-4.601525828972498,6.305970330501247,-1.566766526145268,-6.656211737449284,-0.4823573293447113
101950,,2.4430957531752844,-0.3975485931011652,-13.005387790563775,-7.960927086907291,-0.8833699990591954,-5.56818532026476,-2.854814016402212,-11.216226246599687,-9.271295748096888,-7.036856388845968,7.479060607672288,-2.9785746886670235,-5.037812082905625,1.57005058623594
102199,,-0.5304432114483841,2.943620578938208,-13.660132441633358,-8.194371470844736,-2.606235897190764,-3.875846891563892,-2.1420369293298958,-8.377842938215506,-8.012221125279602,-6.0646823955183145,4.38015894512627,-5.37909361104441,-1.096399534644164,2.844924724910788
102449,,-0.0830289925710996,5.155152099979247,-15.074845999465136,-9.150006943325192,-8.765672877610767,-9.01368588851135,-3.908225378737491,-7.9937739263862575,-5.310646275158949,-4.436390447339768,3.213556679147904,-4.597671390819212,2.686969525244188,2.3034947500817067
102699,,0.7700783187506334,1.8945532991373104,-11.684850760831768,-5.023374263275123,-7.079975791647303,-5.048901339145719,-6.16813706069877,-7.3802129202866045,-6.203610497649768,-3.285902917188128,5.025591545910373,-6.583468133949271,1.493509564158393,0.8482666865529678
102949,,2.4665527279732062,-1.9653398686355803,-11.52572408464299,-3.100716458242112,-2.691863376940697,-3.943047171869373,-8.977317965226403,-5.219449343579554,-6.72635945646558,-3.0585560685004065,7.043775165423403,-5.38458436047236,-1.0790522859336655,-5.027372010608683
103199,,2.2647696841686784,-0.2507464885754851,-9.90167081057767,-6.3497781658066845,-1.676948233876972,-4.739852853055834,-8.720772350897635,-5.897950120232266,-7.277448866629538,-3.436731477780039,7.000954236281471,-4.325012308062373,-2.5103758447708278,-3.663548113414965
103449,,-0.7648292544233438,-1.1827235866094894,-7.478407224078193,-6.563010690127973,-2.281314519330752,-3.976285228126313,-6.048988012012969,-6.154919155218695,-7.395929263622021,-6.128080085414838,4.420460342760358,-2.826050812050032,-5.928946103105309,-0.9808339583291288
103699,,-1.4055416963486225,-1.6131580362359477,-8.348237551245695,-5.835021282307005,-4.919214285551133,-5.131552264616879,-5.980909757585176,-5.6423015263780885,-6.060084371043926,-3.54686652112019,4.907025040376661,-2.197501578688465,-5.565501305758955,-1.8791631716463384
103949,,1.9475730196175456,-4.059571279352889,-11.588347765762109,-10.179678835196366,-1.981210630876696,-5.920382283996359,-1.6232455057071546,-4.305794345523185,-3.98571830928004,0.2762772576023651,8.510440166671827,-1.5370757782511182,-2.8588166124627308,-0.8450006220653256
104198,,1.692742041389512,-5.711253357892106,-9.262128904268014,-2.6472710266017767,-4.45932740063602,-8.766199223584833,-2.8768085731302477,-8.363941534837732,-8.069728388454566,-0.4908478246736065,8.12558384453149,-4.103588998328352,1.007494605074438,-1.4089113166610934
104448,,2.5371451708290853,-1.0547207798216502,-6.7844137507227575,-0.4954439028779435,-4.674886738636129,-3.627590030259633,-4.10355264352665,-6.491205170361571,-6.058086398802902,-4.4129566183442615,8.071251220364331,-2.790022240004595,3.054581475332153,-2.1266452156380224
104698,,4.193613588929087,5.3399427624910745,-3.78889174399064,-0.593317002050688,-1.3637702707653951,-1.4733028393793792,-7.016020353155186,-3.153834833606037,-1.5739255345240843,-1.2525718112931352,9.971649557954672,-1.1019620467705444,0.3106365421911405,-0.0753771939040704
104948,,1.6869013999477576,2.329315537796193,-5.037023418778627,-3.643575064408751,-1.3041695714281076,-1.4270944076997236,-9.225166055989076,-5.291867611823858,-4.005733274866406,0.5752769403172502,7.07542277692909,-2.061778563694743,-3.5252869482488283,-1.621412361898429
105198,,-1.6145008257819249,2.9186260065693355,-9.342897323018423,-6.472974432416003,-1.174959963258725,-2.095043483319946,-7.353157170912858,-8.280069800569356,-3.788369427844821,-4.996071927006148,2.425232868173348,-6.810470040517018,-6.779377437478735,-2.474227278926653
105448,,-0.52701341186574,-0.2210513771341652,-11.574195023687947,-6.224295245633592,-5.0133192331497645,-2.071195235677442,-10.94542522851248,-9.613902556732912,-7.453631889207008,-6.434446619129799,3.099208700574162,-7.106977551524012,-9.02076851886702,-3.224465826426473
105698,,-1.1030091424399433,-0.8424898521004766,-9.949839451762388,-7.164163198708399,-2.285984118505638,-4.4241233110165314,-10.819620856588276,-8.250862494266096,-10.311184730090355,-2.3562243150274877,4.704349417148249,-8.966289947558858,-8.100737539581617,-3.607322712663819
105948,,-1.6284671972096711,-0.1373473407735435,-10.322476438712494,-7.193070133789109,-5.634550822329381,-6.596342383523655,-6.35359383413872,-9.162719406399214,-8.922089523101254,-3.3107262384503287,6.014097758286131,-5.870822448813692,-3.0194127927042844,-2.997269342164051
106197,,2.827131956356697,0.0730765720569938,-14.78376378437424,-6.665147931938495,-8.480398219764622,-7.207509495930391,-4.526829783280556,-9.771753235944908,-10.40097590868814,-4.7323513715769625,8.816180303020337,-8.060945422183023,-2.346685619567764,-4.8216891004349165
106447,,0.2814134775008746,3.5033649927756825,-9.650320358274428,-3.273733359968623,-6.234074166029712,-4.938822142432533,-6.172179218867253,-8.051211063072541,-10.809256943480197,-5.3971137978530415,5.807918271432433,-11.671938423684608,-6.552805821887101,-2.6749314621396847
106697,,0.1023888235634784,1.7109760907763774,-10.161859001136897,-5.2638019255951125,-4.408757958555745,-4.630268380904352,-8.58169320853455,-9.899987527184168,-9.508447592627148,-3.140983285000246,5.208442081794827,-6.641140513409266,-3.0087529527219643,-1.169451122024619
106947,,3.083240315631987,-1.042635036762456,-15.603609093770125,-6.367720871245237,-1.9377523274952253,-6.854337286251077,-3.4573414015257664,-11.417127179435049,-8.79592690728063,-3.835618640035508,6.968582248109605,-2.519699305870451,-1.0298606124334526,0.1141927643700419
107197,,0.3458656885967053,0.0330385339375978,-11.656303702405951,-2.7782430822123776,-3.5435550522664885,-12.916924294706238,-4.386013099490552,-11.087622679101308,-7.984622167411198,-9.234230179805037,4.67367900878622,-3.348138690525816,-1.296098095316613,-2.0476547423590348
107447,,-4.168756905569246,-3.4028451561065003,-12.68575420392274,-5.751503007978105,-2.686710132008659,-11.495691365221948,-6.990754566976792,-14.70844567076625,-6.517481399892975,-8.766262319735299,-0.2729934909622177,-5.044780347302602,-5.610093110359392,-4.445984160068026
107697,,2.176547761643236,1.3887879110324626,-13.867783099832115,-4.059384290663108,-2.3468916920992298,-7.505215457016344,-4.542792954575222,-11.675672347057567,-5.261056077637326,-6.0060291889307305,6.712309642695887,-2.78150208019438,-1.2147116534992215,-0.8547694378749094
107947,,2.896468371918248,0.4961215883245995,-9.643394480487585,-0.8621796296684968,-2.3680393202926853,-3.995223948055453,-5.478957154264829,-7.952138122311184,-4.2901163140877525,-5.763105763996279,7.487912257408969,-1.4637918084323125,-2.526765361376872,-4.808213853700063
108196,,2.232812452066991,-0.9460881706834204,-8.113798581680618,-4.194455297597583,-2.177016796460776,-2.7670241523929437,-3.302553892896265,-6.190046928730552,-5.273322472743041,-5.064519331228082,7.950782801555984,-1.238213198718409,-3.677045261432166,-4.28084266640444
108446,,2.652366706053686,0.265659795561195,-5.400613001560869,-7.967498009746662,-3.0575497548843296,-5.843793363456236,-3.492096085032524,-4.144545736480231,-4.792663604747841,-5.732193859290691,8.83312519908356,-0.633906046861345,-3.096592401847456,-1.733735659703071
108696,,-1.5244006479715353,-2.909381236391,-6.474529772757764,-6.696807512231446,-5.28221862131443,-7.4578720176470785,-8.940232924532726,-6.0513695687421,-6.563230532095186,-4.986446589479589,4.987681058789721,-1.5026961932765726,-2.387909965510692,-0.9347738631675516
108946,,-1.9067421258664887,1.4278840940072604,-9.123931401969145,-4.029481379733864,-4.720913875958006,-7.169938098547376,-8.57388384334518,-8.834716819963848,-7.803525090736651,-5.423864206429464,4.763606670387123,-4.022962572365702,-4.021871665252866,0.7905437599364739
