timecode,event,eeg.af3,eeg.f7,eeg.f3,eeg.fc5,eeg.t7,eeg.p7,eeg.o1,eeg.o2,eeg.p8,eeg.t8,eeg.fc6,eeg.f4,eeg.f8,eeg.af4
0,,-8.088161157157383,0.3582360170132972,-7.657183361074088,-4.665534105745044,-2.3397927923976747,-5.636130201477188,-5.453574521342221,-4.736729846184234,-2.9321749366360272,-4.19491876296034,-4.978739466282555,-4.197168244910215,-2.8562050441939224,-1.3686661174564896
250,,-10.658032309622444,-2.7662437222306044,-8.278023288023729,-4.821631670090399,-2.6436892474916407,-2.9195677346554434,-2.1121444452662628,-4.439733761422081,-0.943347897421144,-5.851654268044388,-5.787755999909489,-4.574090957344983,-1.5520284044742116,-1.4197577988915473
500,,-6.631339742071411,-2.332169437865036,-8.817956170409087,-3.911760685519022,-1.88294568163486,-4.814461496331421,-1.6445044826514668,-7.881114372604742,-3.0982572865294733,-3.5243551792378964,-4.481330197056172,-4.472231923913396,-2.6852889000960656,-2.703797716156209
750,,-8.004905326569691,-2.534008818304601,-11.315492461640163,-3.958167251293833,-2.1239163628402946,-3.7886448027462,-2.135097689120838,-10.505962654843657,-3.860928200145736,-3.056059039720102,-3.9034298164273458,-2.4716676854977218,-5.512387457895754,-2.471783534226555
1000,,-9.613987179976434,-0.9604407378745832,-10.79212693830276,-3.878923903933017,-1.6133664229687383,-4.907640217062465,-4.517870264149195,-9.896011557070294,-2.61485761471954,-2.2331055675279514,-5.554186152800532,-4.37505279179581,-7.122660104171978,-4.9865056081658174
1249,,-7.121991915592619,-0.4583225558959718,-9.75528837633954,-4.491918200667118,-2.714660501800601,-4.216867473814717,-5.047180009038764,-6.291210091262212,-2.7367255160130366,-4.675125335922537,-3.498706455589946,-7.108316841158028,-6.251353020037424,-7.530430167284122
1499,,-7.503723978723733,-0.1387192380855504,-9.185505287407272,-5.470517671141705,-2.631320016379024,-3.874440730927781,-6.2322423526928175,-7.864848780888339,-3.448934002084869,-3.548700961031167,-3.042430420933631,-5.127152890124725,-6.036290597756898,-6.540162022991844
1749,,-8.525590079735858,-1.2364189392071,-12.1176258128441,-7.603521447210682,-3.059191034787365,-4.586862435534185,-8.08827873461891,-6.314024145726425,-4.177487444018711,-2.135309305437132,-4.341317987873571,-4.654529475415987,-4.120556561947223,-5.151565221797436
1999,,-8.730294774044122,-3.3702147370499427,-11.565660853282282,-8.244267449231593,-4.722518295745202,-7.680122917941939,-7.046380429974271,-7.594554298256978,-6.393745602251744,-2.514080969254185,-5.013493194888074,-7.48502684782367,-7.027137441794091,-3.404491991420437
2249,,-10.599407703123855,-2.480116118646127,-6.683752355277949,-3.8263504060104574,-6.041326149580401,-7.177700355953439,-5.841232309503599,-8.19462682817858,-7.766002235069397,-2.9063985652089603,-1.830987483524024,-4.325841079643871,-6.846437400703146,-2.1416549891015806
2499,,-11.58970222859055,1.4671555464814237,-8.091093625004474,-0.200887659282319,-3.615058327531906,-3.5895644329356866,-8.379241998084305,-5.275419988295172,-4.536334538329558,-1.033342077725097,-3.145393028294943,-5.143284508097128,-5.883079739956876,-3.820432551059602
2749,,-10.6283440211616,1.0827882318662354,-11.902307437222222,-4.699729281997175,-1.7263761808463929,-1.1036586859218176,-5.067383607129942,-5.891802734485285,-5.132180255154167,-4.28831450420803,-2.450262146182048,-6.374522693305213,-5.284559030703996,-2.280030217404891
2999,,-9.61847669759489,-2.075351008109588,-9.521499692607584,-6.947811056514109,-2.700417946569462,-4.5355051341779085,-4.058996345341838,-8.673717306653185,-9.373229321938563,-5.692822390579416,-3.295889506851681,-7.471990069906129,-3.7981145363809103,-2.804467093289724
3248,,-7.5334094998416194,0.6989897890464452,-7.626257122712766,0.4377397829008587,-1.148421663825328,-5.945607952792731,-3.751923263500392,-8.621664914330703,-6.5386815151481095,-1.927548090915795,-1.172552509376663,-5.470025687059176,-2.7136853398691656,-0.3123958821312692
3498,,-6.516496343676675,0.591462702383827,-9.034820921760875,5.56011847837172,-1.7739823037966524,-6.4389810290663,-3.0753261258481364,-8.008296575593743,-1.756661180315022,-1.833304263062886,-3.4475038695197027,-3.922248234638907,-0.3122551911938034,1.4275730248410985
3748,,-7.123911319240555,-1.9858153962306215,-11.393422042017132,3.998998121651032,-8.116632591696561,-8.792476438959975,-5.324680519214465,-7.891198910220832,-1.593332575192428,-1.6761494331396949,-2.425839280562289,-5.093429888193103,-0.5307016810139847,-0.3408746353302793
3998,,-10.7066736918007,0.004935574992339,-10.124682177093414,-3.3258618844162093,-3.5858296457948424,-8.2306538059445,-5.085644254852394,-5.755290170569167,-3.941813227960228,-2.7442237972970625,-1.171940604346985,-6.303248463567794,0.0334167876071131,-4.756530334150301
4248,,-8.76629268139056,-1.41594812585319,-11.172013000416891,-2.734004979286571,-1.7199268756494093,-8.281477918369145,-7.123895090702201,-6.122487250486986,-4.290538326035392,-1.8494260046691449,-4.254793613678949,-8.082527330245316,-5.322073312657673,-7.425029810915036
4498,,-7.369543766094022,-2.241725329532622,-9.613852567100212,-2.1153357079126978,-1.776985131982403,-3.8754839989723022,-6.391515793164412,-9.16552189939114,-4.060457861987616,-0.5748297528796537,-3.924703633284997,-7.622371915930703,-4.884754714625293,-7.788079226766217
4748,,-5.235871438998329,0.1635501967515517,-10.492227826798915,-1.9755863826687612,-1.6448400276395736,-1.7849590344656117,-5.347464218426412,-10.117926621886802,-2.335976660348455,-1.4400365651014082,1.0917747468483014,-4.307332707489712,-3.5958357488501216,-2.645158287863572
4998,,-2.880680471797386,-1.0297129885738423,-9.970367733312704,-2.592531360625427,-6.492002132146292,-6.842124145823226,-2.4586179031902256,-9.990347017119497,-2.1538134444207016,-3.3171411583459247,3.73765298888952,-1.0439053472270017,-1.5871328821522968,-1.0250006887405314
5247,,-3.646565067776555,-3.261212155065759,-6.923720123233227,-3.8563048804906734,-6.492792870456231,-5.302618694483975,-1.3540316663665386,-9.353811005453997,-3.16559213568798,-0.8419790919742125,3.7916221811912902,-1.862252952608128,-1.7549714014413236,0.404927043868882
5497,,-4.398788755283541,-0.9773763767581228,-7.317839855363949,-5.160032795680626,-5.542702728737851,-4.626514183211677,-3.0167991101129745,-8.23268128721075,-4.146909323509869,0.6564036659509793,1.7968310978142448,-4.653640268676296,-1.311681992714086,-1.5921866410142336
5747,,-7.936348620760785,1.3107068810015798,-10.89967747485641,-7.220605107552977,-3.347733001893309,-6.3171029754046994,-7.144632965984192,-5.468347671960361,-5.673676623766083,-0.8667401531640904,-1.4368546656916312,-7.381893566298765,-1.7896796012815963,-2.369308531340436
5997,,-6.233243924062156,-0.7759164039949393,-15.383794056391464,-8.928752897138335,-4.159250322300555,-7.077186173608308,-6.063071919994546,-7.227942270541776,-3.568612124092589,-2.2356353311380146,-0.8932298739770881,-4.409521389828937,-2.300278482658089,-3.2656405596411533
6247,,-3.466013254120341,1.595203196967666,-15.99218683745165,-6.706357308178744,-5.252184106861212,-6.254498918382049,-9.24465714950294,-5.868236327188984,-1.967968831166439,-4.84249708188448,-0.1311375280767275,-3.2171715851154903,-0.9222397173683012,-3.0388804737754453
6497,,-4.29656791413681,1.4882560848779212,-14.628328957836626,-6.122276293291687,-7.356237090353179,-6.139264104717746,-6.473688012746789,-6.603818709818051,-1.669406983591837,-4.791331858722321,-1.3298728526861865,-5.044489194854391,-5.133567640483009,-1.252899695901698
6747,,-5.822155849850458,0.423660801940438,-10.630273846422131,-4.591278921464886,-7.860241003479818,-5.1185510270508905,-4.797820456355369,-5.618965642490372,-1.4094229625303691,-3.364565577845494,-2.349395599642063,-7.324871786526716,-6.3808749063290495,-2.209667049492105
6997,,-4.46908406154266,-2.283254548186695,-9.8488629333146,-6.628940028100705,-8.565495917651715,-6.25801366972118,-5.91272580159565,-4.970581301070568,-2.2523946561810653,-5.323385341156764,-0.0599937361581339,-8.153482154901756,-4.209851743691836,-3.834351064870396
7246,,-5.86004894791362,-4.020157773174523,-10.027486192675957,-3.9401993994689377,-3.66406089966508,-5.138598048269976,-6.475927837731371,-5.715428038118912,-5.838553089154468,-4.792231456652835,0.2865341293472614,-5.657262503196105,-2.5928978973444994,-1.6972770977557672
7496,,-8.230652106075507,-3.0343000107461595,-9.09136424513848,-4.20348992421127,-4.369781379932056,-5.8691500037273485,-10.580570213789414,-6.948582494029169,-7.527489217034454,-2.196699441992656,-0.3436206685604054,-4.915557612880748,-4.164066999895,-1.7708365516157163
7746,,-9.61412317295878,2.111252448784966,-6.478329936780383,-8.051826376419331,-4.438870462995618,-9.308199640317142,-8.470162280333792,-11.112809913478056,-5.111129214918607,-1.6603116289638329,-0.6573497190897503,-5.0748970729423,-3.3167189274174897,-0.7888161806706123
7996,,-10.67176186760056,2.658831554081333,-7.978465225810622,-10.02660891810946,-5.154561458369475,-3.7367606806520346,-6.821816032717733,-8.72256112712018,-3.224695567006708,-2.790630121309152,-2.9341268908744143,-4.1661109235390175,-4.8684099622369175,-3.2705938122632165
8246,,-9.629694114858268,-1.9980302165200752,-7.451256156068712,-7.596880496128469,-6.0582678505196,-4.324632522606605,-6.971149175794915,-10.16528115450652,-3.895306939320421,-2.3435533638514365,-4.81338344619541,-6.424859900565245,-3.329462781744446,-9.330724296456902
8496,,-5.801699515493954,-3.52125196391536,-9.6038291469847,-6.239170099451771,-7.99098609301672,-5.940881328322483,-7.03682157360987,-9.623470611825192,-2.8544918200822207,-4.3889987242362185,-5.071466475593632,-6.776896192864569,-4.657675470483974,-5.90795351160887
8746,,-6.047083975998512,-2.3592871038237044,-9.305040371214044,-6.419269561519528,-6.616753428386591,-4.108162057881841,-3.526332611283973,-6.545410327981422,-1.9825662233601975,-3.351773788077025,-3.885172457978192,-5.275467607320116,-5.834660992035784,-2.899228168958101
8996,,-6.810051971002701,-1.5985601493702126,-9.003510182594804,-7.398453682640933,-6.216824844738352,-7.03307240560741,-3.3942027390923406,-5.451072528292372,-0.9354595983987122,-2.4630961653254304,-1.5033631497453614,-5.470671518314385,-4.610569960755195,-2.4286950925031108
9245,,-6.672089433848949,-0.819769683494699,-9.041928703393769,-3.5537399562132546,-4.033958887254954,-6.499597355270237,-6.339855886263896,-6.551078009861753,-1.6182105635337738,-5.092611834916976,0.5156784771742536,-6.3337448134959216,-5.789855559239148,-2.245362415577343
9495,,-9.87508197550286,-0.6819217920171536,-8.327555446816874,-3.965200980133059,-2.3179062757857865,-3.2786165186698475,-4.487423027840485,-7.278499763517128,-2.0831193142035973,-0.192359945169146,-2.6714597908046023,-8.219450775475844,-5.89802409006015,-5.259674676047041
9745,,-10.162865097816583,0.2002124058604494,-9.556724319653918,-7.857517998208362,-1.8216142033019669,-5.011677906000978,-3.737225178541965,-7.922709867514178,-2.6891213438503065,0.5036756520156946,-4.654843734241566,-8.444945586588231,-4.66652187168428,-2.219242235552585
9995,,-8.387901572728317,1.7728931246592396,-9.439090884720558,-9.037272294734835,-5.1632025600359865,-9.246382453295492,-3.9377983937815095,-6.667929616908078,-3.4306048303970864,-1.945150636001612,-4.6018339747767,-4.629875383718336,-2.349182936622531,-1.6027099196165582
10245,,-7.565837110580295,2.928243622070592,-8.186446778158185,-5.37207662400085,-6.301741993819975,-6.259840678792857,-6.663000389668153,-5.654602340950427,0.265356691137836,-2.30970500311711,-5.495933785633537,-4.771578907124184,-2.386460149210045,-2.5663815649244244
10495,,-7.8033926928472175,-0.3217239436586937,-7.841112213011929,-5.995330154518841,-4.618827475139887,-2.20918723687928,-7.246004061349859,-6.531477604783285,0.9589961429313282,-1.4427349355950114,-5.652691859225448,-5.773813450234395,-5.363551893246532,-3.2631645227751527
10745,,-7.38530204650616,-1.9962759441740765,-9.710246970789116,-7.944827956810322,-5.851594684951439,-3.817622597317524,-5.6172679814851225,-12.000100877235129,-1.8864639320993797,-0.7313026398552397,-4.217046166150967,-3.722264964928227,-6.240382530588246,-2.1657795484129387
10995,,-4.035255671213889,-2.463806182203267,-11.684676697478874,-7.330038915704497,-5.426452683297409,-6.354249292404042,-8.560383260534769,-9.429718775927428,-1.6280464554325107,-4.923741297034392,-2.560931015194104,-6.300901575214466,-3.867892268062164,-2.891139439388451
11244,,-4.415983227227708,-1.8472721684185904,-12.029209207313135,-7.23215873506197,-7.380897712321941,-7.016004697277736,-10.253377204261216,-6.679903188766383,-1.6361809047719034,-4.655234327591138,-0.8564033043443564,-6.36864499206513,-3.854544319984994,-3.022951090863748
11494,,-6.2060910569846826,-2.9869641254356187,-11.458898422545325,-7.160459053295877,-10.479362362102208,-6.530609782876985,-9.8398661892076,-6.505187777606393,-1.1752623695797428,-5.130190502308542,-0.2346153055715887,-5.015277259154968,-6.092562796834219,-3.9163823937379383
11744,,-8.823197379593486,-3.052859830382648,-11.120806706623869,-5.606090042902915,-6.568366803900631,-5.973895096500418,-7.167975877018704,-7.583683064044986,-2.030951599842272,-4.317427552338331,-3.4592425463568777,-6.636128085580735,-7.119275987933157,-4.38219060354887
11994,,-6.838547052755308,-2.036140114180954,-9.878579909954992,-4.868598688560722,-6.246912629641324,-3.0448135175568063,-3.580004733892162,-6.118055656054693,-2.705474995058465,-3.648336431923536,-3.08761191376922,-5.972673812881252,-5.262014179794386,-4.114040609222721
12244,,-6.352935521067939,3.186107751938051,-8.846795008037065,-3.144070143374885,-5.61331363763513,-1.8644822682255624,-6.211511495962117,-7.770440506484925,-2.5205125384462708,-2.892254052180692,-1.7277327992402514,-5.161594772688193,-5.139559755651222,0.3533502428454598
12494,,-3.776073523865185,0.075913965105052,-10.560292299356483,-6.161640347671092,-2.5972760329232614,-1.9753183997792731,-5.625900678165195,-7.306388405334254,-3.0755653605301623,-4.312955180077308,1.5865994092267843,-3.022613283496098,-7.234016940280743,-1.4150494089710357
12744,,-4.0688936572948,-3.618153121126856,-12.030859667453882,-8.819966085077732,-5.020899528035842,-4.084077980653877,-6.008019353063315,-7.129383294785497,-4.956668543673497,-3.79469282881409,1.6905199831673647,-4.320586509599213,-4.927236826464967,-5.66033449240363
12994,,-5.634727868975965,-1.09863833238881,-8.230547445071236,-6.854187068650354,-4.945355124063777,-4.631813490738455,-7.337208779308625,-7.496392261902852,-2.3880165617131888,-2.591680777227625,1.3813498828442183,-4.657941560902995,1.0812283868649133,-4.200921106163726
13243,,-5.989002549529838,0.1288826358109388,-9.610027403090047,-4.047466269255265,-1.6147619689067287,-4.530955772294895,-5.974890022167591,-6.034149163362601,-2.454099793726935,-3.0667754589961755,-0.2682414355050843,-3.799172371577386,1.5226214943107603,-3.260876088824901
13493,,-4.033825436755939,-1.7725773478463407,-11.222578901104756,-7.982418024375716,-2.845079441638317,-5.309290906438775,-6.129011988796867,-6.652783218539256,-2.562064781636531,-2.9377892389103466,2.255836731393633,-6.14500263326212,-1.2684599996380028,-1.282604088195853
13743,,-0.2316913830149599,-4.207878828823526,-11.94170814403508,-12.211443861262248,-4.601974599159847,-3.666360306524638,-3.1947427659008887,-9.379689741526516,-3.4161080480527914,-2.3797866019360816,5.387129713970716,-4.247361017954522,0.6182295376856956,-2.8965326069596538
13993,,0.589106638968898,-1.4449914348652049,-9.40523218373061,-7.152937237659458,-3.870730512850358,-4.830837935519853,-3.261368125531856,-7.279081920908803,-5.416343416557355,-1.5673005646135731,5.203964308923801,-3.679079405171089,1.4878602072891267,-2.761028257123296
14243,,-2.0012260795408423,-2.708336284470376,-8.918716999087863,-7.071607706473756,-5.475753341260635,-5.9745015148124825,-4.724625520622427,-6.697817493625204,-5.817999927061972,-1.2023654853033907,4.991022032665136,-5.059189060017804,-0.718988971338209,-4.049258132982195
14493,,0.2671731128228254,-1.3172594601967178,-10.963530845772508,-5.340241919151381,-3.4438403414175056,-7.013865259727583,-4.896536562864257,-9.598277745565053,-4.883952703205069,0.8118918679862144,6.006731284214472,-2.9684894664808867,-0.8016167543682211,-3.950684547280352
14743,,-1.6390453088534147,-0.5403922157535912,-8.655840781860826,-5.562614145149535,-4.942080295553948,-8.861681165189655,-4.835322693436985,-6.866455048655316,-3.7273575418886007,0.1535111044026992,3.2839680589620723,-5.597851776634367,-3.1729610266938786,-0.4479915666109436
14993,,-1.932926490043061,-3.0341709770747336,-9.646649847061346,-6.15579490604541,-5.8657707593723885,-7.0687289024990685,-2.4921613762317025,-6.18011419955491,-3.48218066655676,-1.8191680905773129,2.712997298868855,-4.893242458240969,-2.85558854855597,-0.2567556766027581
15242,,-1.2632352672486933,-3.221663518577783,-14.888234131423337,-6.24348366778447,-7.802477037882143,-5.670486252413935,-1.897784834524182,-6.011188817522388,-5.386895757888416,-6.822095854645504,6.687321769409289,-5.158599386910393,-3.0188203790124746,-1.7983198102499225
15492,,-0.5462681208407286,-1.2104769755498632,-10.989113552291116,-4.8890890571211765,-1.8200701440213816,-7.666512501696032,-1.2098648680811164,-4.261112300039273,-2.450845753223269,-3.5959274067750258,7.390804910125086,-3.1000981713202047,-2.668562388248664,-2.153273356044893
15742,,-3.123993625973421,-1.0857085354299465,-9.079428618839769,-5.831237523284155,-2.367175467753486,-4.177585908940561,-2.722346226629192,-6.567325114225735,-3.31561505402954,-2.872134832972004,4.833373017444325,-3.6131495084028793,-0.5354681399864367,-3.942067797760424
15992,,-4.716509151872966,-1.0605228055359213,-11.020591631558888,-7.789597622800077,-3.5041023551142314,-4.024329829170783,-4.5058105282894205,-11.523086471093496,-3.9578159328825553,-4.658792704575541,2.9966434552091217,-6.607350191864959,-0.594287082192143,-7.240141124414845
16242,,-3.011498752465692,-3.558784449009367,-10.541200397693448,-11.844742359348048,-4.699488656501653,-7.419554899415781,-2.565485436361337,-11.520806364069925,-4.0196082939734,-0.9463870226907952,4.902766774019433,-4.000524497653754,-4.3971185869087215,-7.521934419172269
16492,,-1.718671195993828,-3.201536458659901,-9.812072103572124,-10.606086412490129,-4.22737574818642,-6.043383669054967,-2.3042404327182915,-7.14536131206115,-2.5731951592969,-3.2834590678752438,6.15439482881765,-1.9077960222510577,-4.228178445221997,-4.683718954001113
16742,,-3.0480385118195685,-3.462981775314025,-11.758527390675033,-9.16207832693693,-2.6206093266312736,-5.983002522691353,-5.935759567553204,-7.621500178535319,-1.1507510399014835,-4.855597872346895,3.4048340183554693,-5.499772066848525,-2.3200637751504964,-4.327666260953548
16992,,-2.7723071244931874,-2.069223606957145,-7.939742868711511,-6.982036144917827,-5.442601459140569,-6.224335344328809,-4.02345770587953,-8.515268021604408,-2.938353003771676,-3.7896328520664913,2.762072642649238,-2.2647987567447574,-0.188064429480162,-1.3384545400760155
17241,,-2.656987005957712,1.8811531894950984,-6.947643010068296,-4.873152359231855,-5.465803441192043,-7.627988942967551,-4.326788154533404,-8.375922269254982,-3.4141721524789803,-5.863531444781289,4.035243567974264,-2.4500901806834405,0.8657690973670726,0.7880113104149635
17491,,-1.8927420170993223,4.976098491890854,-8.836294143588637,-0.8306204812335509,-1.7316402113143554,-6.757122749592646,-2.999487609618645,-7.829171396966633,-3.562675253873984,-5.290065230483839,6.227224150364812,-2.235549286327974,2.749208992071044,1.0998480221313618
17741,,-2.6463822436193136,7.99516577240326,-8.964479763990184,0.1183339238618211,-2.302471547869302,-5.858904944633144,-2.6121250469181363,-5.973949591871016,-3.7792532166329575,-1.1257358730678415,5.919158525911219,-1.5763413207334651,2.614160120247634,2.409955042813177
17991,,-2.4096757972112544,4.909390722692368,-9.36187834069809,-3.2276782010226808,-4.856206865381353,-2.5262084010805874,-3.117408273916157,-8.626872486089614,-6.237977913704114,0.300332683128466,4.311608924281827,-2.364127337894482,1.1703986881267845,1.6822843910210807
18241,,-2.018023996793228,0.5116374021965863,-9.700634503205965,-6.12788835915385,-3.2970046189116307,-1.4965297471416592,-2.5558270094509634,-4.032931685810542,-4.396255949736069,-2.0826759668570776,5.128326750794527,-1.6853109273264513,2.0186943097727723,2.047026076686875
18491,,-3.78580452801136,-0.2039786987103761,-10.554771623565497,-7.388232336448571,-5.714234881114234,-3.883252727594122,-4.3964073723073565,-3.4491455015639394,-3.890508431963424,-5.829537728237975,3.578136422994891,-3.3852696470981964,-2.063824027093136,5.221653722554782
18741,,-5.560335528402365,1.6311114421733053,-11.18759461352062,-7.014041833715781,-6.666713457620533,-5.114006085614378,-0.3021322857302086,-8.610920260554577,-3.339907021452013,-5.242075364327788,2.857421095086325,-6.891947496914376,-3.5908889524097507,3.4321867294715074
18991,,-4.382499743547891,2.659393329463612,-11.74429640066908,-6.582818462552307,-5.835645789169449,-3.277357846865938,-1.5590064402953785,-8.577048554952958,-4.4560098982199,-4.051510651370036,1.726353273050297,-7.838254705297551,-2.018705001475974,1.4292203530782486
19240,,-2.987185820640628,-1.075823885403821,-12.055069579887034,-4.571130497563938,-4.874178481017496,-3.146196860533714,-6.626727495376475,-7.344326939661551,-3.31640358746078,-4.093762075442214,2.3767343560910064,-5.9214835699202855,-3.2016937562932024,-1.7518094963271342
19490,,-1.6704184141166696,-3.995172312067537,-12.163603959890848,-3.0461839330259965,-5.484637594435178,-4.577714412885436,-3.887690687461236,-7.941227061135946,-3.870384631688452,-3.5230711043740897,3.784396228367104,-3.227917263380524,1.7466948939934237,-0.3465038812501453
19740,,-4.169336489797435,-2.6906728300281886,-10.551359062026888,-3.226645210944332,-5.160191759679419,-6.416061075343845,-4.7089126635130345,-8.675047767237801,-0.5739820452232501,-3.2222294057265866,1.882593675501398,-3.7044109006777424,2.5557373398657277,1.428816706362105
19990,,-5.2406598315835655,0.1498763199718478,-8.405973253362788,-6.004012818163823,-8.762680395849271,-5.367225863324935,-6.256710574012851,-7.339908468985463,1.7006854689996176,-3.3680642804323337,2.547112657777801,-5.248671766959854,-1.6725928783460149,-1.0052689428017254
20240,,-5.2840826801781935,-0.2555882323426772,-10.389685755396432,-5.170464345696246,-4.923470299271957,-6.248523817346436,-7.483170549209285,-7.540893976427706,-0.659927781337496,-1.282090670518132,2.2652156077319123,-3.259528021165894,-1.6472084713129602,-3.041413727113637
20490,,-6.426994672963237,-1.5500681862753505,-8.206421361855972,-6.355749517810542,-4.770414407555515,-8.071743886616243,-9.3543087491003,-7.613858331010999,-1.6489737246420788,-1.3043345304449332,1.2143785485227203,-3.263453531417442,-2.0787755894831963,-7.396939271384958
20740,,-8.934355249816674,-1.389122816797084,-8.798203852191063,-6.185092092249454,-5.125933551496827,-5.16640068879049,-5.239950962584813,-9.74742939424199,-0.3532271664950009,-1.339293253123523,1.4041474994607352,-5.374493942716395,-1.0371649941612775,-1.7132009835382702
20990,,-7.608867813429782,-3.573468158865501,-13.36915521293168,-2.3878942608670126,-5.892364021741635,-4.184051467000593,-4.978654441413318,-9.620535018170564,-0.0186444796038935,-2.522925876083285,2.135321482869013,-6.585649380556411,-1.5912656950669335,0.5857350722346987
21239,,-7.926575411117036,-3.938244542274394,-14.459906996730684,-2.975054972171653,-5.965751506653482,-4.50488418993537,-6.728064533178035,-9.266131538978875,-0.6943121659896646,-1.6958554425048125,-0.5384757357564013,-8.083502095308162,-4.786718881850528,-1.94221574597814
21489,,-6.080513399051396,-1.8869080774276727,-13.32306942814898,-5.990558056256628,-4.94829650431202,-3.5175787829162006,-8.21725145687849,-5.355899124302507,1.0408993210092323,-2.089049355805238,-1.5892002559302456,-5.313286726207897,-5.40921323957587,-4.810583841681338
21739,,-4.88342640445548,-1.3674199379953242,-11.32103273534673,-7.1360207267260485,-5.854933352233188,-6.090336717337138,-5.956603756904896,-6.188535637192355,-1.1893467446668384,-1.863233087805648,1.529868056649324,-3.958567395354474,-2.838298615904129,-4.179718037326267
21989,,-5.156979948806066,-3.935427276733392,-10.165083734959248,-8.820852148896755,-3.5209823818892314,-5.306799039627172,-7.21926158251875,-8.398069138697332,-4.813159734120214,-0.7797444696978272,1.9999717583868777,-3.1086817665264563,-0.6479383422609354,-5.684452403867615
22239,,-5.755896297017325,0.3763530397177579,-8.733839453330653,-5.121184261291207,0.0260383477040474,-5.194219987473854,-9.446513935417222,-7.644027572245019,-3.7326494410352486,-1.242753953030971,0.5348635535636729,-4.177853834960275,-3.719362983517585,-1.9835636689360217
22489,,-4.572150888633528,2.681730454005069,-10.340271821507962,-3.2155252660563933,-1.1335025038732245,-3.808434965964712,-9.069166965364564,-8.86215540077237,-2.849312650934792,-1.05856935876789,1.1486026327322656,-6.231158814814384,-4.747676653954578,0.4863164400190067
22739,,-5.675892894601886,-0.5909094830073844,-10.575640372865973,-4.94818995062835,-3.930612854329904,-1.4594847803969415,-8.76165668591737,-10.972187202642358,-2.872923866350481,-1.2921143869072875,-0.4708625904806946,-3.606899246953669,-4.656308923009346,-3.3525663340524536
22989,,-3.356763487303409,-0.9555444729311052,-9.9656464123057,-5.030892797790246,-4.128400576751686,-4.126417700992541,-6.29079756873833,-8.415675876279785,-1.348020446201278,-2.565344025148222,2.654539419821928,-5.78361756489528,-0.846357622762276,-6.582821980922072
23238,,-1.893184447719184,-1.4634573757286715,-9.362992395333148,-4.627690987095685,-3.336713252448983,-4.506307481976057,-3.855107598294804,-6.820632372217123,0.1892785063487785,-3.112291130416072,4.425716516530274,-5.413965457446176,-0.947826088876153,-3.675561369843291
23488,,-4.855546842600621,-1.021379483698476,-9.460094159360722,-4.201836117705048,-4.2620464334760255,-7.521091358499973,-4.953069987429891,-7.567352036720654,-3.233235547792781,-3.1783277686988205,0.07855013915637,-5.116729350890878,-1.9923225641108144,-2.220877498637914
23738,,-5.4422946771899126,-3.184658495269069,-7.819400095107039,-4.812459019222056,-2.989366540229347,-6.67003841080726,-2.92015053268364,-9.745068399967042,-6.42855944805582,-7.386435499267455,0.9570377933253952,-3.491743609349584,-2.624768503745996,-3.844035816483171
23988,,-4.239199811673867,-2.5094916532576104,-4.085301669160216,-6.138830710933173,-2.5112469031132045,-4.932075954933496,-2.741682359791885,-5.597443362004917,-2.219301666749056,-6.573603556204677,2.3113707229221165,-4.263776564517628,-1.3606967482995964,-4.090083652339803
24238,,-5.1280442467449285,-1.785055078087868,-6.404603230198767,-7.751133781167981,-4.265809651929072,-8.818512073686161,-4.115219714628266,-4.676060459527821,-1.1301363404883356,-2.8279554333983543,3.4631149649879696,-4.092644620371625,-3.040955445853599,-4.0471816628324895
24488,,-4.111009477320239,-4.551488492355828,-8.97242306740104,-10.214969629280246,-5.27965966685255,-5.99884979853959,-5.852668298274565,-6.2248209812312485,-1.6284519778723017,-0.8268387801546206,4.886351773301636,-1.6461848879220553,-3.6393158263343786,-2.057733479974079
24738,,-0.5316763713361807,-5.682234497204189,-12.84678463319003,-10.646950950587456,-5.046283801096216,-3.885048072465708,-7.150551686888536,-8.063613863178729,-3.081196604290965,-1.7806683819409883,6.411483272796018,-2.678774909110284,-3.6577450591246903,-2.8959875524450505
24988,,0.6888348893001238,-1.5691820482169478,-8.378031344797114,-6.987876150430632,-3.487594333562084,-5.226797520971308,-4.982858319188418,-7.770939263337102,-3.1440505269227503,-3.894360419200365,7.202304516969516,-0.8291256684591436,-2.1176425538445827,-2.460718066382813
25238,,-3.036707543995945,-0.8983964117961127,-7.766706718701821,-4.689989783143632,-3.2379081696139607,-2.873848268829656,-7.073264584347935,-10.105547652994169,-1.506417516217657,-2.858836274263421,3.508389792048197,-1.743816788743333,-1.3632671998701054,-3.031740762823467
25487,,-4.274861526999553,-4.796571409541212,-10.611942491192767,-6.747833910853752,-4.822829927135252,-3.4363339473217485,-4.934874312445074,-6.68551772683759,-0.8715882282125765,-3.512093545611328,1.8700025930948303,-3.499911907790176,-0.4152479143472894,-3.51004786687702
25737,,-2.362950630515443,-4.501248640287091,-9.76025742031646,-9.034908967726269,-5.343450452054554,-3.613480854695568,-2.6260517963017143,-4.5255621279796365,-2.0199436563934112,0.2708338813375882,2.3723615656922243,-1.9734694696235384,-1.2616878210692923,0.4223736870134839
25987,,-4.585935779834723,-5.612276274194318,-8.990454237264593,-6.458146780321203,-6.688347032399362,-4.776528068769198,-5.134825147606193,-5.29766806038953,-4.821276083959793,-0.7280204574671677,1.3259428983965216,-2.7235557909546952,-3.972553492760345,-0.2639698917508798
26237,,-5.295025396537674,-5.821584135721026,-10.447678434793694,-5.1093550824987215,-5.903662417523582,-7.211577319019573,-5.668954156890402,-7.132335736218379,-5.834988733651501,-2.6738814790368046,0.4714057170935815,-5.443008739044899,-6.3062775517061365,-5.711123300606999
26487,,-1.3082785379388544,-4.759714494271172,-9.297933648382834,-7.285639097744426,-6.243252730067249,-5.694408304667031,-2.75523170772852,-6.551899164752578,-4.1612576619549255,-2.135172406043833,4.029708178014272,-4.812809926573653,-2.441805283497585,-1.9935477467169012
26737,,0.4384020765712546,-2.527682908712162,-9.459985519668535,-8.865531088571482,-4.101250494818454,-6.124914023228191,-2.723263496373786,-7.296145654180178,-1.5352699867339077,-3.500472555252008,6.156887694111033,-3.4287998277860576,-1.53879184189289,-3.606823740913473
26987,,1.8827851785831269,-2.6836146877296536,-11.58893711041102,-8.409498556876903,-4.098067010755225,-5.849113745615947,-2.324556241422892,-8.803240639004438,-2.5376580463850384,-3.498645246073937,6.775876896580282,-3.103955940472989,-2.423717410380863,-2.662490733340567
27237,,0.1934783492465857,0.5921061318723444,-12.289660102661896,-6.405801451619814,-4.939535645924273,-8.400695566645567,-3.567507022179916,-8.055589505588511,-7.399259545318973,-3.4957044565323168,7.392371033558609,-2.540147581407592,-2.411580199609076,-1.990192873555397
27486,,0.0174156273099447,-1.2858900519513528,-8.598239283456714,-7.9027077026272385,-2.6253416411200297,-5.384923877210591,-2.566611601353647,-6.511365001660129,-6.221728597219421,-4.651049440517566,7.385155008262468,-1.9976849832493184,-2.037261002186409,-4.271236230029586
27736,,-0.8688125265003989,-4.668648136277724,-7.397546074153594,-10.54470963569624,-5.104608583601741,-6.986828068867464,-4.020900764945668,-4.848650676101455,-4.016799887372081,-4.94246135143557,5.278623584153847,-4.260415356202689,-4.182438704162259,-6.3825663458698045
27986,,-3.6869474474399215,-0.645949794684817,-10.481778144479,-7.503654449931587,-9.572774002372569,-7.019480974411001,-5.443078331524699,-2.6570640846079834,-2.327393592960268,-5.574839862253777,2.860192627388246,-5.846968314996986,-5.438490245243031,-5.975623029161539
28236,,-1.4967738686444307,-2.6413434631347665,-11.496296451934638,-9.09056121787619,-7.37416656501392,-6.974645307539681,-3.581564459701805,-6.8360192490597225,-3.5970863962269606,-6.573365188629695,4.804042664778819,-3.1007160869481165,-2.3610058816377477,-0.9595683206822851
28486,,-0.2915771922153601,-6.687812577824204,-12.651007147289503,-8.865666471009007,-5.3612680892334055,-8.078885626660409,-3.586659301004562,-9.760821651271897,-7.543341238224403,-6.6819409124764775,5.5185268510047045,-2.8551529633374546,-1.7460092750512823,-3.1423236837449804
28736,,-0.3080635118402357,-5.270935315703001,-11.425243070217093,-4.563766738776719,-6.0940571047429,-7.435700944608133,-4.6187582024054805,-7.888777291512942,-8.045249863144406,-8.542329189116785,4.526467949605587,-4.908981085507143,-3.2074285717513717,-4.865194903683498
28986,,-4.354087426264838,-4.857365978956938,-10.925133315981276,-2.2847569998352477,-7.4658310886991615,-3.882790144990096,-5.062188085130234,-7.157923039812819,-9.23968630971894,-4.948299042946724,-0.3456230070156522,-6.763165356899204,-5.959257719896619,-8.016085370309655
29236,,-3.392631125980283,-3.8342800550582288,-13.339436963696174,-4.278314301551714,-3.622797241400029,-2.721870633794412,-5.793333574713524,-6.944749902341828,-6.566070670641111,-3.7459874608967496,1.358271032863345,-4.5489929103464295,-3.9663535894871367,-7.251911706620681
29485,,-1.548982749461036,-2.4400190943858853,-12.266462125055524,-2.079758505261289,-3.383063274043831,-3.7023695782807273,-5.903741654223134,-4.706744146672933,-5.957881101950361,-4.665523212526626,2.9398574129889394,-4.315371080177897,-5.149856340021989,-3.7916711473252542
29735,,-1.4644001093782846,-2.5985932878800555,-10.59626925331836,-5.626379148737099,-3.711657928338053,-3.835042758280101,-3.897658696619656,-6.989991961207358,-7.788873655707162,-3.2477589670736235,5.321334331331213,-3.544540321005706,1.6486822291180712,2.0358367232612866
29985,,-1.936738063977492,0.0520106361429355,-8.333015167216766,-8.508050430656667,-1.0497663567603093,-3.1982172853339126,-3.38020935614425,-6.929316156661939,-4.745422957347886,-1.4307397255661884,5.642197244723138,-0.1068730840793495,3.8501938478713145,5.582662638777234
30235,,-2.5206316415729377,0.6972139620247504,-4.451662698586075,-12.445550144447829,-1.2429153360434018,-1.1937793635421936,-3.921906460001108,-8.945129124089243,-4.088282191458354,-1.0561142179398697,5.706842695605788,0.8268493019298738,1.2422414681868943,2.756725363279534
30485,,-2.0318083740969275,0.4482004744459431,-5.856784608701618,-7.142190100794746,-0.7988329987847642,-2.81047773524382,-7.105978507955247,-7.341477673656207,-3.5520418365321667,-0.937827145568251,4.527219519128868,-0.6358734098303407,-0.2192716313283542,2.5826083566677625
30735,,-6.288058559299245,-1.1667380149218796,-10.266161954144415,-4.489933737575464,-1.6190305460934205,-6.734838947508818,-6.436012308766968,-9.19301955830821,-3.428599343044506,-3.454272431405628,1.4498255292422026,-3.807000359582125,-2.2971410518176327,-2.304361413643341
30985,,-3.0901074795916044,-4.289914705334418,-11.08957562335879,-8.348583463465038,-4.574227624823386,-5.854495545854151,-4.265396266973043,-8.845438212723625,-3.579558810471739,-6.20114514217037,4.744097699349998,-5.824008607768877,-2.960135377887787,-5.469089236729806
31235,,1.2014088303137584,-4.67348139361531,-8.736764090537967,-10.01528720193517,-3.191872543065988,-3.616934908295156,-2.732411658550576,-5.64335310766708,-5.071662287379545,-6.535483600744971,7.05648106094971,-3.0038050440478554,-3.2114518446928413,-5.157168139565239
31484,,-1.228395542585769,-2.6563282255324565,-10.032291365303175,-8.116766094570286,-3.871160179090478,-4.008603353812847,-2.965510066898425,-5.260995607900465,-4.791824467120685,-4.017441796293981,7.21954458794127,-4.233118098461098,-3.581682127423324,-2.941060838456565
31734,,0.8003140650241458,-1.1587169678571032,-13.995774095185611,-8.677560253367943,-5.594538504916279,-3.8032126279105793,-3.1329164980740343,-5.7061311854292365,-4.746588595241402,-1.9649872398297004,8.809254318224417,-2.5105344969563825,-3.1642839529133977,-1.1306154959439487
31984,,0.1560729477471984,-1.585766930534621,-14.12762778992577,-4.960526307023053,-4.006073672861078,-3.33967219018425,-4.127555103373978,-6.65615981445825,-4.566132638224595,0.0756286283864245,6.008012639759722,-2.2384467489835496,-1.2049122347399293,-0.2077213094930302
32234,,-0.1223559940324706,1.2846808500200932,-11.174936879704603,-4.634108792732047,-2.3725275079519355,-2.6616653656055567,-5.184200391839827,-5.783191067194,-4.671421544571853,-2.23503060739227,4.209973932272282,-2.8337802636562994,0.2871010910724751,-1.51429595880441
32484,,-0.1264350433767999,-0.5998106385338167,-6.669975238712633,-6.022800247103342,-2.0413712472893253,-4.705772924044153,-5.934439097992499,-4.173225182465943,-5.858995460869195,-4.825504415576392,4.718578824283856,-4.841698727096306,-0.7374193986503992,-2.033087906085474
32734,IR,-1.3760624216620214,-0.5689358964605266,-8.089782413692081,-5.865164536045798,-1.4874058008537223,-6.821520062020175,-6.492593272355945,-3.1447091154740874,-4.896709385474475,-3.669094698618789,3.4233590095851096,-3.114579048073747,-1.1040798776354896,0.395967126781277
32984,,-1.1896934284598633,-2.677523883058337,-8.146571301875932,-6.489309627672939,-4.479682256095084,-9.41367452661014,-6.298179454275275,-6.896389630858301,-4.558723162006356,-2.5854597477195016,4.788814953807682,-1.8376208528031328,-1.9421041886911024,-1.7761001515061017
33234,,-0.6655830485753662,-2.4655549460850694,-7.545293940880107,-6.128395462561275,-4.540744110538348,-9.707080034436556,-4.711122696770538,-8.747877403084225,-5.186348870339365,-2.232880785048413,4.9954026308381385,-2.9669020399238506,-2.6400902400169994,-3.897183523388512
33483,,-1.9681999086382445,-1.6792531809823663,-9.449304456003787,-5.18159472152483,-1.4128434355358566,-3.615714068280726,-3.4407150987873947,-6.1999285163326565,-1.9329412121254643,-2.701916807661657,5.516095255112385,-2.117570227856445,-1.2515690337743577,-1.7918010379495648
33733,,-5.106753343952231,-0.110777584802411,-11.49812915121423,-5.543328359377989,-3.09513864580662,-5.054421077785701,-3.203173440100238,-10.136587161988452,-3.1664421856798115,-1.3001748472473125,4.099625899084126,-2.548119044779043,0.8211283858318525,1.059512273327516
33983,,-7.148314912578875,0.2121412407141253,-12.583144349586782,-7.279432026533157,-4.501751491457421,-8.953918346237398,-7.013501672583078,-10.747881712051557,-4.662956043854091,-1.4820266020654005,3.0895231922468773,-7.2367184540144915,-1.374090590747258,-2.207300489237294
34233,,-3.300725307225391,-3.256288048279888,-12.083210315916231,-7.548261673517075,-5.162923758708008,-7.3717835095809665,-5.60644487356639,-6.959993773069502,-1.9588251287817864,-3.029938133597132,5.01578451225003,-9.973011620642287,-5.998754353687361,-6.314007649800143
34483,,-2.360377491480399,-6.471919965589876,-9.87939171076819,-8.630216819666076,-6.294198386833072,-8.327385481712389,-2.9862406446917134,-5.102633059182745,-3.3434965309797384,-4.305609786385732,6.349050152129867,-5.806723375030208,-2.64039194639634,-3.5497739311059675
34733,,-1.0794613803881097,-6.291270556445609,-8.90190109125849,-9.687075180319548,-5.905218742235232,-5.449046089852008,-1.3611676681800486,-5.372545414047375,-3.766603564036233,-3.392017809255268,7.252116192408304,-3.621137925469737,0.6778578699911795,-2.8120842662699648
34983,,-1.343477321486747,-5.574867241630473,-11.679303731630476,-9.003559539742966,-4.290765618685254,-1.950792889941201,-1.558652269282793,-7.309395992265026,-3.678852752930311,-5.018885716018096,6.071557774485984,-3.63331905533852,-2.799901977557844,-4.433017001725951
35233,,-4.6708067585537085,-1.5606754358900328,-7.535224299273198,-8.400208152589315,-4.021892414923005,-4.479694862379779,-4.6997423913209655,-7.131843063916908,-4.398871888479173,-6.181276999817317,3.8286308841268015,-4.986279554626788,-0.9727033727818504,-5.069671510304059
35482,,-5.083848890608769,-2.749668943388424,-8.775821399969553,-6.190941005117615,-3.5305676685132186,-4.413303474016274,-5.960480419938781,-5.356400384395329,-5.023237654487738,-4.211872110167945,0.8366167488116133,-5.38575618683963,-0.5559241000464713,-2.5486915881313346
35732,,-1.3793638016871106,-4.185872832115559,-8.747065880007742,-9.533132243713489,-2.760521129656489,-5.209361613111787,-1.7894564168948182,-7.195360417813916,-5.955549046848764,-6.094526524427172,5.620289375851453,-3.383817815966087,-2.9904109909340155,-3.865459778558292
35982,,-0.014286331685757,-4.908665890001453,-8.904874095442732,-13.05348633522749,-3.864303496739616,-6.092119424462941,-1.142777720777532,-10.748440643217938,-7.7954180761605185,-4.817950755784731,7.1564187000976585,-4.79371848796096,-2.574921121547855,-6.6193963975732935
36232,,-2.3631214942744165,-3.555532883401744,-7.282270872465556,-10.880826880865357,-5.196671502447831,-5.086712048398473,-1.0084857530053355,-13.0432230018734,-7.23731130589311,-1.756907496762001,5.949129509659016,-2.7232340097485697,-1.5789726474055614,-1.7757279506774966
36482,,-4.6545890364057225,-3.231193961520176,-10.02157573734278,-10.170048177670385,-3.559047740229217,-3.485573183741065,-2.3481013006610176,-5.9964245324952135,-5.842196034295406,-2.830476945482097,4.944277780170708,-2.2485534409595203,0.7111651709404264,2.2084229653745195
36732,R,-4.993273560116181,-0.7398173493812832,-10.872124533871208,-8.209506213874748,-1.128978612143028,-4.841764743907624,-4.060158386540656,-5.149781396970841,-5.961174014804726,-3.87044662311884,4.945033050836653,-2.3407346550558032,-0.2925923546205848,0.8196200299915497
36982,,-2.829295610927871,-1.169361598445828,-13.210905564367897,-9.323191613328357,-3.084059275935495,-6.007094617210363,-4.84823350113414,-9.476425630139111,-4.380886539962264,-5.190279614527734,6.812573479422978,-3.0929828779095363,-1.3428105260481868,-2.977887457820454
37232,,-1.849032421718372,-2.5916817217381807,-11.41316846390784,-9.680356417259985,-3.370655357909081,-8.090290518926011,-5.457160886365148,-6.70925941269521,-0.748152229260136,-7.327755204073499,5.648037409624983,-4.895188686865063,-1.2229435396936843,-2.827331364735197
37481,,-3.247683016032706,-2.9349984570446934,-9.091876636733096,-9.9624793840182,-2.2583583552784567,-5.792717294332361,-6.208765373041434,-4.34172360606865,-2.4076960565197894,-6.707385505852777,3.0929101078022745,-2.354325436916868,-0.1475381834431814,-0.9206833375881558
37731,,-2.367490235845192,-3.5151344725858547,-12.628637484344624,-10.693427198707216,-5.728648618931979,-7.369325725146863,-6.332825615721759,-5.100742802393986,-2.163007220296041,-7.044883559343943,4.409063279860991,-1.6028003539021531,-1.3380424357101153,0.2909826431314911
37981,,-3.0243739460212558,-4.617467075912852,-9.798371823730042,-10.732232740833393,-9.892567299778417,-10.3144803369885,-3.8583368093534816,-9.057278564770174,-4.734377385652397,-6.485707972377778,5.826132584430306,-3.066011281614718,-1.3377051487305869,-3.672600898422085
38231,,-1.054827267468572,0.5854456019004146,-10.884883963825036,-5.414458662777392,-10.177649820399274,-8.087198527157,-1.8720007825804807,-9.589645169526694,-9.017485013717444,-6.681570344788657,7.173293878596786,-2.4649072510701324,-2.624099618195033,-1.8989719871649724
38481,,-1.1695001284924016,-0.511270240941156,-10.95601568386309,4.564042403426577,-8.64674929236712,-9.566683810462129,-5.250883003938668,-9.506279660000958,-9.022100310945897,-6.021390263615992,5.5681333681002565,-4.448863713343989,-5.979977427407407,-1.5516301204123482
38731,,-3.4274604256726784,-2.3661880693487736,-11.60076409868174,5.881825992926482,-6.950123280553636,-11.79878851154298,-5.63008437872564,-8.286485192514975,-8.292805253071037,-8.073323695626362,3.85930394731155,-5.994635664200468,-1.822777073077164,-2.9959978877276288
38981,,-2.828080086557565,-2.276303206884408,-11.189756058311795,-1.2790894316557635,-1.914348255503692,-12.508506540399797,-4.9693648843266,-7.778466376700917,-5.124061388303166,-5.158345336929755,4.833191105505689,-5.719223008166608,-2.84818660751693,-4.05515900459964
39231,,-1.760744076207725,0.2590594333736128,-8.028478485178788,-4.632215703531452,-1.36827086412879,-8.061961039664219,-2.184120915634895,-7.899061080497103,-2.562232487371689,-2.3591610409164208,5.607059023423506,-2.8804623953887347,-3.073968525957405,-0.7812118248714377
39480,,0.7999885628381697,3.2319356500908745,-7.990043265890047,-6.104739785998827,-1.2464581392305587,-5.676920505538847,-2.712071919452649,-9.920205576507344,-5.400720663230377,-3.920981236418535,7.077686251332423,-2.3873424875216247,-0.0845967385943386,1.823050322732828
39730,,2.082484215998365,-0.7625886414750769,-8.6194270411278,-5.098951001349549,-1.5753389245846217,-5.769275021236905,-2.3388533836792376,-7.404920680212249,-7.4990408739969885,-5.304759443624004,8.632755523003864,-2.5701037804224325,-3.2098194962902227,-0.7567204517652537
39980,,1.6975252289466505,-3.8807355549998768,-9.315450347123358,-6.61342130678486,-2.082093556040545,-5.190698502157899,-3.7912426022698393,-8.464573706810485,-9.556226181070423,-3.931978955951231,7.6975520348305455,-3.162168318464962,-3.562586906400948,-3.823829574828518
40230,,-0.8083715857237741,-1.4715404588136949,-9.60074284837395,-9.330211675960902,-4.051101509708292,-2.319452041079382,-2.787324935450284,-5.735059611911702,-5.222959480756457,-1.3838756967734138,5.050395823155448,-2.98246106932785,-1.6806695517556869,-2.207376080624805
40480,,-0.8187807216401375,0.1507848441154427,-10.339199409124172,-11.815147409330509,-5.743928760743061,-2.204054372839363,-0.4401128223026869,-6.101320869579104,-3.7109407969681807,-5.525048600682164,6.478834606861586,-2.660266895369677,-1.6536784374681115,-0.9012647609584128
40730,,0.7189519563670553,0.0712120010624822,-8.933046633630802,-9.722854125182067,-4.722918229364961,-4.963472033488575,-0.6309638992083811,-6.997449298772256,-4.851085457345245,-5.675193079681415,8.060323847794953,-2.332679352332919,-2.7302077877421755,-0.0256171146162172
40980,,-0.1873905563203155,-2.390924649290129,-5.875885827854239,-7.398892852193822,-4.175422610961282,-3.862471572032272,-4.277805804669973,-5.596962867660141,-2.8568196093564566,-5.061901792168023,6.179678445421102,-1.236860489444102,-3.5543707221250767,-1.1042922871832077
41230,,-1.1759607818415954,-4.914448795565648,-8.138915555700464,-7.339414733468823,-3.3570044606842804,-4.309345053359651,-3.779177046042733,-8.774889314654557,-4.645552058342589,-3.843585245940707,5.0443493915503375,-1.7555453045283878,-3.794830729670263,-1.4478107813626138
41479,,-2.51546317163354,-5.259458269955349,-10.959294901850376,-6.924446523253781,-4.461955166056593,-7.966610801510971,-4.108051090955032,-8.575556918223928,-5.260058108333993,-2.234163027980707,6.586373559957054,-4.358304506410203,-2.9757865206803618,-2.56891955139616
41729,,0.5861967132294127,-4.455995938708966,-12.047876886767002,-8.837959894374151,-7.330702082999604,-7.334018543952222,-1.7114544053506369,-6.714248315474436,-2.446678891181666,-1.697129987136211,8.938502711392394,-5.551320357122793,-1.769205914721364,-3.3546869373089283
41979,,0.135519010663824,-5.178046772395004,-9.856218912555242,-5.169164719939257,-5.187342778731563,-5.9467673917522745,-1.6809674459472816,-8.4612888535707,-4.5136998211091415,-5.091654781260326,8.78427552275825,-3.465971498523018,-4.43202816752602,-5.55461230717408
42229,,-1.3765380466091135,-1.3729428863542985,-9.13555375582815,-5.723254612911691,-5.055355233623712,-6.427020643516053,-6.203560981910789,-10.232671987447931,-8.47491754845018,-8.355650431290972,5.736499282768151,-4.002525917385552,-2.615505034224196,-6.540608829833968
42479,,-3.1812344099852448,-1.7487658794636107,-13.626338095584495,-9.09041710743981,-5.127165997387562,-3.855092275204546,-9.552968470631363,-10.50692554630255,-6.5039641019708805,-6.170233537105293,4.067943207624695,-3.5057291981772885,-1.5866387723071795,-6.318299107519905
42729,,-3.445073340019696,-5.72214369119661,-15.89602430061393,-8.269859192378131,-6.394892132302191,-4.3190993214595785,-5.132370019565965,-11.429272721269834,-4.625947665419666,-2.508671366431401,6.149678368724176,-5.623723818417034,0.6092975914192326,-6.212216106487594
42979,,-1.412413006819605,-5.10135729729347,-11.780193635291884,-9.09891324787134,-4.898527448257163,-4.662843586654995,-3.241692276308905,-5.570442364165857,-3.1990964577987886,0.0597459134098306,7.065212061395478,-2.6476589748047807,-1.2140562293048702,-4.123773740202624
43229,,-1.5982803259395313,-2.269776047728289,-11.187640105576588,-7.418241300162482,-4.724909558860489,-4.150618044016253,-1.1837706214889292,-4.685473297269728,-0.8410598225163712,-1.418980160218638,7.479533262520932,-2.557488907640848,-2.542611907350296,-0.8753140237978164
43478,,-3.4921109722284083,-0.6259275793650856,-8.874693746502865,-4.514638671262375,-4.073841854066716,-2.6549555788595818,-3.032389439660931,-7.195663845931782,-2.4630846223255483,-2.189383898670079,6.60689469503343,-2.1591940759115817,-0.1769376082765725,0.4140192512465027
43728,,-2.609483596089594,-0.6571932805102627,-8.245444515688757,-2.227556595447933,-4.284996507388512,-1.1611858182838009,-5.828412446708811,-7.26684241623913,-2.9100787012076528,-3.028945798894572,4.739871912054852,-2.586548187837491,1.136171971366455,-3.70702894422413
43978,,-0.3869061127668118,-1.8224730958219797,-8.571176822212303,-4.777570419836031,-4.033996416773922,-1.5266762067716382,-2.6950037021285613,-6.742241485773385,-3.194051213130391,-2.784140543280662,6.641554676261635,-1.388915325009203,0.7917943238456339,-1.636253550467318
44228,,-0.5223778085595826,-1.1176298873505282,-9.320377490419183,-6.103491454007067,-2.869532698261945,-4.344556208118147,-2.64257624562986,-7.415908467259522,-5.863199381438083,-5.622878562875513,7.970848283252953,-2.638230382782412,-1.2377642827086104,-1.3508968041691802
44478,,-0.3918046622272907,-1.5889570770335306,-8.641600171092087,-4.227686541419679,-4.302172041646365,-3.867463195376168,-3.1607311579465165,-5.381556147362408,-6.474857696051219,-6.349222148531124,8.296263389922512,-3.273317903941387,-4.336700492054081,-2.1441872808524813
44728,,-1.0135302792409704,-3.125209574340142,-9.341720020287848,-6.427902012206746,-5.063913842806116,-3.601086584388473,-3.094450219667173,-8.220478232203515,-4.82921410320217,-7.990750668315529,6.799132406785654,-5.676763102458123,-5.376920819993551,-3.350006308759345
44978,,-3.336564454259214,-2.1388181363102405,-9.676880294621684,-8.389373324702609,-2.783723998030714,-5.363307342004449,-4.90959956902792,-9.478471254744573,-5.185795112403922,-3.8501522948167786,5.390841032252434,-4.114464735988417,-3.447895172547704,-4.724919024318411
45228,,-4.852285143177445,-2.074088936028988,-11.964583126273256,-10.04377123062463,-1.3889339064237944,-7.386263656173551,-5.974532663893114,-8.906609795252091,-4.222613213420532,-2.431850844488053,3.462976087607776,-4.366757202020973,-0.5230861174348305,-2.3277415837533857
45477,,-4.704610789207033,-1.781638552823095,-10.090353501925277,-7.092481709012803,-2.675552695505295,-8.722204374644038,-5.509432397514379,-7.479224828123341,-3.712203026551206,-2.338695837994995,3.5063411052058218,-6.994068479282875,-2.0904107118416264,-2.5709441021476764
45727,,-3.3139986926821017,-1.827357432525731,-10.630317929380093,-6.537888284635908,-5.087518461240678,-4.782621679613258,-5.314802091412051,-5.385919294941398,-5.076582562623678,-1.1426522052818031,4.250531846098706,-4.183321688674559,-2.5945619136103133,-1.436161578292786
45977,,-0.3745983354384773,-1.1206964472783283,-13.500842709177466,-4.063881939844267,-4.8296760907655845,-4.8166691473488905,-4.1119524876604405,-8.570213443766084,-4.647432677490552,-3.1932521074309768,4.951402631963745,-3.8372791100124815,-4.1807458313728905,-3.095058174396221
46227,,-3.563492369352943,0.4287624466388178,-13.060600984858024,-4.557734582134178,-2.76913922814082,-6.764703028120628,-5.636241683530072,-9.294406960799982,-4.415723683818783,-6.88319386238991,2.408339425777288,-4.387451610390855,-3.986135914062855,-4.39802861916705
46477,,-4.172709486159904,-1.369982257568335,-9.549178276597123,-6.928247469195337,-1.4210469760641564,-10.393037759583043,-6.527655820196712,-9.050374679196166,-1.0377992042666575,-6.89937620212532,2.4714104250639872,-3.592620073339182,0.4797954362373228,-2.590905004392865
46727,,-1.604550135551169,-4.230850249099205,-11.182343160237668,-6.415734547111142,-2.1477327653370786,-6.167190403758295,-7.027757076211076,-9.709741721245642,-1.139650209106724,-4.310928632142941,4.954671734520483,-3.289979920720609,-0.3706352465492291,-1.9645218924577117
46977,,-1.2425972599087882,-3.094170518093191,-12.395723585104804,-8.868719732840402,-1.8879220729749449,-4.838325997096095,-6.218779804758965,-7.917328924483704,-4.6298456509538575,-2.3089195672269818,5.349185606685819,-4.319780809379416,-0.5629161340181241,0.0608517718894738
47227,,-2.134912444576748,-3.547115834276963,-10.25348822346097,-9.434748100263423,-2.352051222466952,-5.411600317197084,-4.6279385695984585,-8.80283258963992,-6.424837455933564,-3.4002100821460006,5.27361541487076,-4.488073843003796,-4.184042460057025,-0.2085646582377219
47477,,0.0056624574788725,-2.957964849195603,-10.10967414715966,-7.761161068551869,-5.956501711575566,-7.516316217958017,-6.91389236098837,-4.920172550617012,-5.519743310741179,-1.0841645052186737,5.9214571662700095,-4.427217904765875,-5.446429766275276,-1.3873762239944445
47726,,0.9049696792854872,-3.140529255115342,-9.26328689320113,-9.407894690142593,-4.682505064523462,-4.739246401509886,-6.699393400938144,-3.88305167948092,-1.5547093431558845,-1.3597221949895757,6.173754087811036,-1.3429170148593448,-4.971828550933765,-1.2207072910733991
47976,,1.5694590389572536,-3.173575188215056,-9.65863962223776,-8.71109347402966,-1.4746347815299576,-6.812387186414366,-5.121323483419813,-4.034300480457157,-0.8774203200516775,-2.620637822256734,6.499150724958533,-2.077339800754252,-3.1934491973780084,-0.1863393995678917
48226,,0.33788934051356,-4.518509793325886,-9.052433397112754,-7.383661500812831,-3.339606138997038,-6.73193679230385,-2.8460550730763883,-5.473389365888196,-3.527651276768311,-5.250114303286799,7.885442712765415,-2.556193503655561,-1.6976677172656691,-2.290967769960974
48476,,-0.9096360453056864,-5.402657428089546,-10.435022157582017,-7.32354127809323,-6.713097202436442,-4.993731720328677,-2.029710555497078,-8.605128588588123,-5.275897723492873,-2.576839379376188,7.928925014040725,-2.5293086199964936,-1.2838791176438056,-4.433647181992222
48726,,0.3007673481006794,-4.715945804865696,-10.534581675486589,-5.636026012147869,-4.203833361092794,-5.447700056565972,-3.199775173635889,-8.218213513013314,-4.327011697765922,-1.3012537563102793,7.431183156999049,-4.643579353180407,-3.3629956174802134,-1.787878059574309
48976,,-1.7319670967131209,0.8359370811029693,-10.726497064103564,-4.404378842368834,-1.7521024070343407,-8.16286472967112,-4.320471234281004,-6.782564508548342,-2.178415414093028,-1.4644232153958685,4.43833697749028,-7.031255152686784,-5.737202670666496,0.6777675908252845
49226,,-1.04279564227244,-0.5565894905162814,-9.194062925074949,-8.4206881938,-3.5968760926419243,-7.222521523697129,-2.4197754105308342,-8.206208427186056,-2.4178119246193925,-2.7108266631962548,6.887080621280269,-4.076247126736764,-4.08828912559075,0.3819125499349499
49476,,0.0903108214937671,-3.251005624100473,-9.774431586975084,-10.076184049330452,-6.229298413412273,-5.769585045245941,-2.888270070509171,-11.18560391112493,-4.055885788511206,-4.723721986747343,8.820200468850663,-3.019961163948929,-2.52873138930506,-4.941864982503283
49725,,-0.7687470468466895,-3.897426978263246,-9.849861461355864,-6.349759796597625,-6.219299731822438,-6.170058490931344,-3.247042965482056,-9.304563412563008,-3.48430581865002,-2.9088068452949383,6.841096760568987,-4.324860210955076,-2.5278867396808504,-3.606573383355017
49975,,-0.7525039919776677,-3.41781915699535,-10.730330307139583,-6.840653918236064,-4.733535504133055,-4.03279541366219,-2.137113122330812,-8.033406957818421,-4.672211150180216,-0.9476285915489988,4.9605335314380286,-6.819344406937163,-1.7749396136445494,-3.4511689325359023
50225,,0.4115293577406615,-4.573823841171214,-9.971193682699475,-12.858374414016234,-4.182036974799102,-6.503851430633652,-3.643798491084073,-6.796350070350435,-3.965518572119324,-0.9110792514050654,6.2321108067278015,-6.096188559919789,-1.5826568611608445,-4.941039283099441
50475,,0.957203000892204,-1.2125028831502258,-10.225269972489158,-12.308471673864076,-2.0329685069332903,-7.070003841990448,-3.3864864908639927,-5.287701556593865,-0.4087589805029529,-1.363378933754024,7.402510624112209,-2.2931726651936684,-3.922013480363153,-3.955990752553849
50725,,-2.0573504946263963,-0.7211808403263023,-9.75453514436293,-8.345873044376505,-2.014356078104352,-3.982250910319772,-2.1644535097430238,-8.292121425918875,-1.0282324872812578,-1.1736813190278454,6.006910503065192,-1.794112064415058,-2.2922882791267702,-6.047924028273977
50975,,-0.3608753676641211,-4.7104854425362905,-7.680994245130984,-6.875978142302328,-3.444556896296216,-2.9743232646876843,-2.828688279214865,-8.654155408725337,-1.9945164677126528,-4.006143875996143,7.922341487985048,-1.74124762416887,0.3023231515297924,-1.9499292508572037
51225,,2.364074264637303,-5.783843354338122,-6.731763371096222,-7.404954739753254,-3.65801796559264,-3.93210486302194,-1.523746453599096,-7.307989480913855,-1.8674131790772592,-5.682445767472886,8.501265069389529,-0.953813941777766,-1.2053037420504678,-0.937727051935564
51475,,2.096523026706892,-7.902262394788877,-8.239437728442056,-9.210704122498278,-6.352599948269853,-5.139552002704284,-2.520703135240732,-6.445568410486755,-2.9327631109126457,-5.1443169886212194,7.2252948802275005,-2.663149299362507,-4.7953328728184825,-2.1979665068173864
51724,,-1.811062390188112,-6.619003548029298,-9.640581066320363,-6.489811615451309,-5.052248961665167,-4.175765078160563,-4.310678032414623,-6.337409466027636,-3.430209442176574,-6.0126541628631545,4.755929704098155,-3.973387280192362,-3.103352296781919,-3.8986375867221
51974,,-0.0496077456819724,-3.0767681967441485,-9.394470770914948,-7.16100054897291,-2.114431593190804,-2.7176892271459545,-6.058652004745038,-5.152149401793057,-3.643925927717373,-4.995160740580121,7.043983285459515,-1.8636035070080237,0.5084761466066047,-4.955266181686344
52224,X,0.0339501315148711,-0.2644404546145876,-9.090007033938788,-5.966468195091848,-1.874483691609212,-3.535152351550248,-4.562078804804905,-8.18367935114095,-6.12950676778892,-0.5004640275610477,6.169686796175292,-3.1198073583053225,-0.9717752986039788,-1.15833786859874
52474,,-1.2987870939345905,-0.4815810348863262,-7.819175611321855,-6.880179310241185,-2.918537608405487,-5.698163150279124,-5.744174637781439,-6.924897017575431,-4.14588222749474,0.8514105018053408,6.172775881933906,-2.52496576383938,-3.9288137015806193,-1.6989589298442953
52724,,-1.580963702139041,1.1297197677564008,-9.020319825317436,-5.919522285145033,-2.163263118385641,-5.908806088712915,-4.634943042212127,-5.10806842826327,-0.309699096897329,-0.9636693782751724,5.94606243747414,-2.225928621560385,-3.2882906497623114,-0.9877963944404012
52974,,-6.29294174727155,0.4960358658999596,-11.119329781491532,-5.815295460746304,-3.3891446120844373,-5.236066232461416,-4.431455438347896,-6.957934621014661,-1.3213859480484438,-3.527953715637955,1.4282340875521715,-4.609277644191639,-4.610804029950618,2.0109023587471717
53224,,-3.8423708416511686,-2.6669987762693474,-8.670210000476814,-6.736704137247856,-5.761567128196962,-2.020897228047172,-2.2287498038450697,-7.249445084402307,-0.1839943867680162,-4.400295833743323,4.558372816455188,-5.316677568079381,-4.046857306784406,-1.0998383474457656
53474,,-5.441487859798651,-1.625286740523393,-11.31068757732466,-8.657758733477905,-6.474856464478989,-3.997463733897298,-1.5113669310375613,-4.28869326644147,-1.3927054677787436,-7.817433734505027,4.450218206465509,-6.609244154289615,-5.008040591429317,-5.661693999860672
53723,,-2.902157785744792,-4.3815901287528805,-13.522362674385109,-12.822312990606084,-4.892587792968716,-5.194242016533948,-2.120895543707193,-4.760450731545417,-4.4450940611833465,-10.701675349057972,6.727199902788378,-5.852147425727913,-4.314159939495946,-4.154755249362736
53973,,-1.0866745195252967,-7.42275036584334,-14.035703918098855,-13.55249593180785,-3.5801296270555434,-3.133613692966996,-3.683610785198473,-7.372898959065014,-4.225858504855769,-10.034913809461312,8.871146291482578,-4.3296937467895695,-4.430004844139218,-2.6053389887453
54223,,-4.035760550695122,-5.638357526362437,-13.785636303736943,-10.375776918671278,-1.8769125595021765,-7.37981838241073,-3.786731332957172,-6.048305163128563,-3.630280560781452,-7.735808738700447,7.411073791323959,-6.7962756006743055,-4.696008460267925,-3.781739493380333
54473,,-1.453362552344627,-4.90438239091437,-11.796159923286222,-7.960708788282314,-4.5831614078027885,-5.531809437181798,-1.9028442914290369,-7.656557678835667,-4.388488260682047,-4.930631244242266,7.775820565535849,-7.259073406030129,-5.656161562779313,-2.399940067062411
54723,,0.369875420561872,-2.706390195242673,-9.543163854171002,-5.24829001484206,-1.6790300501117137,-3.039515369080717,-2.047758783402001,-5.159483744229791,-0.699683268141885,-5.566058918037642,9.386084426079051,-4.002169832725728,-5.03588917603258,-2.898148571513468
54973,,0.8452789916905473,-3.2825764389847563,-9.375249683989898,-6.945668916066405,0.5274814627452089,-4.366775105842828,-2.426040855603212,-7.104443223939647,-1.834544090561685,-8.359804194802097,8.615075463621052,-3.0165933201877007,-3.958304626274761,-5.317201466683654
55223,,0.384010470586364,-6.499649935946591,-13.47457400973121,-12.9669711071835,-2.125740649291736,-6.057607112653948,-2.9784716501366453,-9.465549929426263,-6.105190743655632,-7.792257555660505,8.232986576616527,-4.268845415775494,-5.265436976891041,-5.362446163409552
55473,,-5.50532336042499,-7.014369576886688,-14.959226196926563,-13.475012845281636,-5.355769411258957,-9.047484938089855,-3.244046732134048,-8.211119605562683,-7.394801316080781,-8.709932685178446,4.888848530537141,-8.974952116842152,-9.190130071081697,-6.412051102956152
55722,,-4.98620928803335,-7.112438531751426,-15.174977360720344,-11.338658473604632,-3.905555238954998,-9.07530337793291,-1.6738971593061966,-8.17716575084827,-6.444649379765314,-8.047289075380185,4.748824923826025,-10.26265719195731,-7.380555087588707,-6.87989938637572
55972,,-2.42803359309181,-5.434988095160687,-10.674274433528602,-8.67881679867439,-6.402151286235047,-9.143098890418502,-4.4679502357598615,-11.959033958593206,-10.000670946536143,-6.508753547075255,5.153794989768735,-9.094481391583738,-5.781655464039969,-6.7186645900242254
56222,,-0.0080134563689505,-5.948115425685181,-9.66202008953519,-10.695086299072404,-5.606139787968841,-5.6491590678102295,-3.871149849228272,-9.739112649977296,-9.30244758938966,-5.837568889650741,6.89894760493238,-5.471646663165756,-3.8770595282993447,-2.879628837416235
56472,,-1.0295371937623297,-3.725933378862021,-11.898164653188246,-9.276326398260531,-7.394335663316714,-6.862693835585717,-5.740830177894519,-8.004975604265836,-4.489512502969539,-6.856311092277062,5.793241147686084,-6.822661385274769,-2.988710623271823,-1.351099308198732
56722,,-1.6302134245874955,-0.0451515325997098,-11.200702253165042,-10.76523806604022,-9.229115294301776,-9.8533478304609,-7.54805898698813,-4.4409447762107614,-2.141649002384769,-6.418604778125338,5.6644737167978825,-6.513111695102772,-4.189550266355147,-3.455375821418963
56972,,-2.4563689244484017,1.1360150513803604,-11.8684960828808,-10.427353478738496,-8.881230354974432,-8.799346068432389,-4.745345095257962,-5.183455080151768,-3.9513684843396426,-6.432194691579444,4.911118682948283,-4.598085847755141,-1.9191839423225905,-3.787466251498037
57222,,-3.77250553385315,-1.2270354615999266,-10.288216900139602,-7.687010402885802,-4.405287470184743,-4.245054712886058,-2.2174528207207373,-6.9544216576007,-4.424086142641123,-7.469094426422877,2.245121746578618,-5.145922424586767,-1.629897522986006,-0.874478496962655
57472,,-3.9000228815357056,0.5200958716153474,-10.1153194345839,-5.250884198890321,-3.3930096798271507,-2.079037889084817,-3.848679097392904,-7.308857902770802,-4.926500755744458,-5.301499320945205,3.754764003679859,-6.004636151246904,-1.5883172715437388,-0.2836126382633558
57721,,-3.4016030329774827,-0.9959403963264144,-12.897583139942066,-5.404693735854009,-5.183184561748483,-4.4583166266717225,-5.957131214867269,-8.42662483649738,-5.494420352987323,-5.953030989630586,3.3117207744638,-4.87081701524143,-3.5314374260718795,-2.328168915213932
57971,,-3.311846942411727,-1.2773935215062897,-9.714714840726744,-7.134014410822125,-7.204169590099419,-6.993279837786472,-6.5457046250512825,-8.668127887039427,-3.854252543870542,-9.26831987081145,2.4999008535085685,-6.365919260104413,-6.082765023669982,-5.249747690783075
58221,,-3.167863198361664,-0.7899587176529292,-8.76030945938106,-8.693464683415614,-9.323941836795443,-6.158035419741411,-5.732399717925203,-7.612126776996582,-2.7497446869448696,-7.195932576030223,5.488172182653164,-3.970953320274712,-5.198571243799856,-8.464672369641429
58471,,-1.8107558750823105,-2.535144275688013,-9.163764214374057,-6.156008289438533,-5.676414668451251,-6.3025104939357846,-2.6773785790584888,-5.437172228022477,-2.5927481627263926,-5.188474077050774,6.8710185329902735,-2.227306911450259,-4.220028865472999,-3.32754051613522
58721,,-1.1877357853884036,1.4369621831339685,-8.550130292942498,-5.33134476826818,-4.554767704581431,-5.105892227136603,-3.988965640847897,-6.067054101634165,-4.281187553898111,-3.5763791363449373,6.429935217715979,-3.88136844774506,-3.849327842793451,-0.2040020483852381
58971,,-2.2802741811616176,0.7806369901388024,-7.569108808957576,-8.242412954046861,-2.4584529428638717,-5.146867677603433,-6.203819639173309,-9.63158021214037,-5.522957012980367,-1.9848690181487576,4.906144417163685,-5.044449798180246,-3.4769308764407043,-3.598759965663115
59221,,-1.4147054001939583,1.1087060659079524,-7.499863120854857,-4.153121632822977,-1.096847585557427,-3.0939036832148075,-6.136527284349013,-6.400248997731598,-2.5988376734121204,-0.8306568647035439,5.442451392999419,-2.7548488947443217,-3.0586497560493524,-5.196988419323993
59471,,-0.6916480921479885,0.2326691543683199,-8.406819211264956,-3.580343868571994,-3.868534691694931,-1.333127731148174,-3.118107174152809,-5.996236222632623,-4.207907322197144,-4.614879789646825,6.1339174084128,-3.1753635410653933,-1.5762295623843945,-3.006581324170055
59720,,-0.8717451182669684,-1.0493036428348623,-11.220341215872512,-6.102580074490004,-4.89002652650142,-2.02116630170848,-1.6801339823289814,-5.05261500609129,-4.90371966790098,-6.0406162879501775,6.848943482828764,-4.948736532215557,-2.4318422760918086,-0.5020413677460246
59970,,-0.2724159335438913,-1.0627129532871962,-9.811296933621175,-6.861043284876374,-3.278528272116927,-4.164802093851642,-4.237979779507954,-3.433163529784228,-4.686568055498176,-6.611144056580434,7.185392523424008,-4.781894556885495,-3.4171026383093475,-2.22831118560614
60220,,-3.0236852863040125,-6.352028756722473,-10.086977057411596,-7.723522625404355,-2.9574488315787466,-3.9091960618339137,-8.053658016910502,-4.380429089626508,-5.070089708457188,-6.065831220827455,4.572873865247872,-5.879482323459336,-5.840961393428171,-10.923130609323993
60470,,-1.703645292492575,-8.478937067235616,-10.798446379320508,-9.349199527189349,-5.743797190378979,-3.162600260117871,-4.11679851119913,-8.588906458902752,-2.132687272856292,-6.771406725124551,6.003835046788993,-3.707823665206592,-5.186739392362439,-9.8557212234771
60720,,-1.522602042705242,-0.579002389077517,-7.491957105934414,-6.306191490465686,-4.706263271410722,-5.086278066757536,-1.9310915580008412,-6.210596159309509,-2.393177312917413,-9.211124274600586,5.751892293256108,-4.555226299835516,-3.0841383596788523,-7.318904047754231
60970,,-0.7419786775366197,1.234839333302298,-6.410501710961837,-4.164820114455824,-3.788693932314413,-3.0216238853291872,-3.487865197061024,-6.091111441376026,-4.644514251991137,-4.915784632408045,5.168690324921031,-6.043925969475161,-4.755476010573172,-4.503179832197487
61220,,0.406808432599904,-1.8502634998629537,-6.727420930935125,-5.973163852061378,-3.2236404555074936,-3.452936150752101,-2.6043027308781284,-9.342201923632633,-2.582651152524369,-6.509482233645207,6.278949177748042,-4.600382782287928,-3.641712503721651,-1.0795149274872275
61470,,-0.5982642012209273,-5.611504912454137,-7.444719703238025,-5.173276795102074,-5.083999014306782,-4.8368339655161625,-5.599091156006672,-8.29454669669601,-1.363180962408817,-5.286603418471136,4.977558184837686,-2.944651181292355,-4.614656065202708,-1.813344081249217
61719,,-1.1200659400425448,-8.168645860375456,-11.200826772184724,-4.898547554968687,-3.0888787315266804,-3.6331524391930654,-6.397448611798228,-7.939475865168921,-4.480395984532287,-2.184069120366685,4.345860369864224,-1.964079837003242,-5.139568205564705,-2.043944099660308
61969,,-2.11975393102776,-5.170238425278479,-12.730304764400348,-7.325126995202407,-4.0555327949495386,-2.95515614818404,-5.975835127687814,-9.84332789382884,-6.5903753598945904,-0.6705526982719296,5.579767203188293,-4.242476397181786,-5.07036701057441,-3.454609357287361
62219,,-0.8114418066332514,-6.491652673537461,-9.297847101058013,-11.2513523201267,-2.8488123333501547,-3.537942089714238,-6.736968912387976,-7.620318069063776,-7.751703496808441,-2.871152884008149,7.01584974115386,-5.2849687089584405,-4.691909888495902,-4.555419767300113
62469,,-2.9996812094168286,-5.6024073434908015,-6.338576915570311,-11.228359121809453,-2.141738415241106,-5.178091152834908,-7.085138912003953,-7.850872098357835,-4.80877395508127,-5.776992457857974,4.843402521776095,-4.755403123337411,-3.339543882369707,-4.604521673292217
62719,,-4.618357629605729,-1.716444384849093,-6.913913663093459,-8.78268402875624,-3.690676059763872,-8.731358761887194,-7.071587393754108,-10.03295771378438,-1.7242675708991086,-5.775173963752186,4.930854601405806,-5.66639036336662,-4.58496031119838,-4.402800807761328
62969,,0.3227948271751477,-4.337069983658623,-9.279018883923827,-9.370707177879854,-4.776790968375671,-5.9766604010708,-4.999437408549556,-10.754278337467722,-4.848364105127786,-5.85714911527533,8.167416344965078,-3.3410515113610693,-4.640300226948152,-4.102890279359057
63219,,1.718800057458216,-8.672249723464592,-11.16965509376021,-7.351123188671991,-3.8580004819392713,-2.258508509997334,-2.7344278057377203,-11.000863933338918,-5.388604982419695,-2.74942303128535,8.691935289628503,-3.738400272348717,-4.258426462859188,-3.030292460016642
63469,,0.5843098456661853,-3.777614251381314,-9.526177273024206,-4.925516676606752,-4.587775235463231,-2.796013915950493,-3.377911555082844,-7.172213451208139,-3.700001517014801,-2.052009471487803,6.864536468121251,-1.9902065361084784,-6.85797523269993,-1.7158067495889353
63718,,-1.7005195144380396,-5.187302246011107,-10.30621437743496,-6.463935397275592,-3.320998837204483,-5.540721670685818,-3.67239192898092,-6.762211266214981,-2.210533725129644,-2.832577446470807,4.201918088507364,-1.53881769458639,-7.835396389145543,-2.8896932588339013
63968,,-4.446888862371231,-2.6072582452344046,-11.899710770385427,-7.719192751729558,-1.2747418004676183,-6.938046375699551,-6.907392397649458,-7.457966829874909,-3.9697719014777286,-1.986455476213972,1.7909025968190395,-6.428351243975648,-8.156838314139938,-3.071108612721529
64218,,-6.061714042220401,-1.5725840143120473,-12.671370321916646,-8.058472330545323,-1.7699482597346152,-9.302886164851852,-7.969695057623473,-7.374535618850936,-7.129036349761531,-3.16406604636641,0.8663610872103813,-8.639919830133637,-8.280823111434684,-5.479918379655748
64468,,-2.6742469843216865,-6.321393939843728,-12.709592931799332,-7.388408284953511,-7.270031450922611,-6.051022012952202,-3.479668661417562,-10.07780611822323,-5.236634569255827,-5.433241901264605,5.562574213777896,-6.544053341497007,-5.322838132337475,-5.818098208554261
64718,,-1.7447898765673162,-6.075081260580283,-9.730504505741044,-6.509531840697047,-4.29133789049746,-6.485615853340693,-3.0402022363127665,-11.743633961036291,-4.40020805847497,-2.669579842215551,6.12747692656905,-4.6221299182059,-3.861397379288453,-4.604335961501596
64968,,-0.3764830051510058,-4.210119510805571,-7.351947537043069,-8.313505268350763,-2.0593530250927143,-5.065699048079434,-2.9389446847002967,-5.497134543768702,-2.678815529125869,-2.0313067039671786,6.590414841556747,-3.4328989050268954,-3.591763580188198,-3.093398557774375
65218,,-0.6648960840665674,-2.424723834230843,-6.43418013998467,-4.498855625694319,-3.298189507138389,-2.012173474259921,-3.831173039945166,-3.987822289732323,0.0619150542066352,-4.595757149653626,5.2946409791958535,-3.2985513935437885,-3.631653855498661,-2.8443679075108097
65468,,-3.68050237720537,-2.217159412410909,-9.08000074904596,-5.647838871790579,-3.731122063947738,-4.6988689540785,-8.589762011626208,-7.000940865487308,-0.876439915359143,-4.880744782728702,4.005876654969834,-4.218980850049753,-3.996103894217788,-5.682553657338608
65717,,-5.80305656705698,-0.7810656620634855,-6.811883498814684,-5.771053738291504,-4.42273726696302,-7.238419822791114,-7.196440526064341,-9.408802922279664,-2.927747967048844,-1.0136894338753888,3.920759530425832,-2.926662370258275,-0.428204328626903,-3.933847149151439
65967,,-0.3379218805535838,-1.2832544678188662,-8.681541219646828,-8.840329843684007,-4.307860933610752,-5.508750574649348,-3.010151109445124,-11.068105045138037,-5.384181245702912,-2.5232549010062217,7.674983136996248,-2.311723861727128,0.3895468262397194,-3.0292435133387507
66217,,0.3211476932385678,-3.488969183095487,-10.812603085545703,-9.70240054299471,-5.366562581183134,-4.88740160888255,-2.025934603583519,-8.732303613726838,-7.729459235392028,-6.680182487796335,8.279974472672118,-3.500202972213628,-1.5256010613934885,-4.792974776097659
66467,,0.4714828047108632,-4.068897072887487,-8.652348661057172,-7.615033911493445,-5.269954313191125,-5.858702967336558,-2.9193322501332992,-4.842289542885937,-4.6496767864156805,-3.168096601480083,7.887437258660764,-5.561222397987475,-4.344963614904957,-4.002734265809479
66717,,-1.3450401724244998,-2.3101193596137835,-10.154112286402636,-5.392634250126176,-3.74097352516256,-9.3630699531623,-5.858826887173572,-6.3211938118390885,-6.3210776115230765,-2.1193697399933926,4.044928804557408,-7.836599870302592,-4.842679315841166,-1.1523926623578111
66967,,0.555762618421398,-2.424331061787888,-10.833493442772433,-5.606938522921307,-1.2257698768876577,-7.080856012797927,-4.206627022499628,-7.471886143119944,-6.930151841284944,-2.797775805131561,6.27761954337585,-7.544940117195634,-2.9495102524253087,0.4540845393941425
67217,,0.9758239147727796,-4.786898849380538,-7.667003913638048,-7.7522039829673695,-2.38235124860721,-6.010502266190855,-4.562746115832757,-3.6626660658733146,-1.8633386697909735,-1.7864154682745697,7.3065214752784975,-4.532180583089009,-3.8293270511252,-2.3271139249050177
67467,,-1.9251818042498128,-5.6960057833408815,-10.191113287919604,-8.984686920276188,-2.340213767320318,-4.870432681102143,-7.788487908591969,-5.166157276132516,-2.434913227964848,-2.8252447104670897,4.156254027777258,-4.641055147538698,-3.494100992443755,-4.733516305996205
67716,,-2.106198347891339,-1.8481727370440089,-11.95874144153014,-8.025335051643875,-2.273636390860323,-3.706000735610076,-4.610142272153709,-6.902214873812213,-2.898255217513416,-2.8228828393019527,3.764042810334322,-3.1015414247120803,-2.569133845508081,-4.201339725600164
67966,,0.4900966009486878,-3.056714076957327,-6.791231915229757,-9.350753885669569,-5.685955419246413,-4.213541694936236,-2.1353246713817606,-6.573269367104611,-1.8583533691613472,-4.544187116896717,6.366048375562188,-0.458243021109223,-2.229132843844184,-1.3444681648603956
68216,,-0.2952479377075073,-5.251813130637837,-9.605829287636489,-10.57573547316662,-3.572031663582345,-5.1782962003661215,-4.11892090052293,-7.519629654131831,-2.158826058680955,-4.7933151536644365,6.3225603806888655,-2.742235148396948,-2.9512597300485077,-2.206442658182996
68466,,-0.5960635661311094,-6.039378220408208,-11.076409840839911,-11.902981710893696,-5.629956975362194,-4.784912115396641,-5.791479043840693,-4.879448915563797,-4.033217988334973,-5.207831922991758,7.413832679775021,-6.290200638352036,-5.120360195397122,-6.411211887759735
68716,,-3.4398742194195844,-8.186811890871034,-9.875135338560916,-11.671330183750388,-7.365539044884465,-7.562879952541438,-4.663831713582475,-5.157807220657334,-6.1820387975239575,-5.001780918974177,5.423995882159145,-7.061294462969455,-6.035098339239582,-8.27621790822881
68966,,-2.063227860341235,-5.235916047501032,-11.681181681421492,-8.995570931619245,-5.895458836936997,-8.595841897496662,-4.883317726208252,-6.938297890971913,-5.682249833872123,-7.299497513034618,4.748944508853138,-7.570137738416946,-5.139742598225958,-6.612326607702946
69216,,-0.677067056140225,-3.7233037040630874,-12.312072768710449,-8.54107234495737,-5.241941720972929,-6.158483895820979,-4.869173274344735,-9.09259040227747,-4.284953578692916,-9.912018748338742,7.006807189497589,-7.405339528763593,-4.518533780554429,-5.315100022640681
69466,,0.2906080563454448,-2.8049925928114936,-11.523354854581642,-10.994152394278968,-5.65742688889183,-2.653301405251161,-1.8503843548140164,-9.497612551944489,-5.408343054998673,-4.4764386873999005,7.888731231385233,-5.306531130623196,-5.3409265486805815,0.1610597961435131
69715,,0.5968011918710756,-4.68907970501795,-9.41403020188202,-7.881945241828228,-7.958523039573603,-2.948474278420953,-2.790150497703986,-7.99724627488815,-5.074032049052651,-3.321174771784559,7.37782486452884,-3.8422003697081335,-3.346741542526216,4.531038586563142
69965,,0.4885034244814789,-7.3590922047705565,-5.085620335030545,-6.792893485175632,-5.99343779574352,-3.02620187864033,-5.978943421950399,-5.91021942102918,-5.107923208492329,-2.857146853748808,7.081965225821689,-2.211008571650129,-3.880976896793106,0.7095855475864615
70215,,1.4267298045553465,-9.203106724063426,-6.178525855988607,-6.725353584671122,-0.5205756831751982,-1.4923030924388214,-5.8728441265959495,-7.370587373128565,-4.813045197301927,-4.225457001370005,7.77441790634125,-0.5890007638508138,-3.1724481809732823,-1.884997395796447
70465,,1.916231409395792,-6.120217061342244,-8.781797139621561,-8.697633484451456,-1.3264518138281258,-2.9814908185903044,-4.973114584314957,-7.92944179794493,-6.76203558407053,-4.081833201212169,9.55338766790972,-1.4581434744858892,-3.661823961448925,-2.438783788138629
70715,,1.2659623602235792,-4.993517640620722,-13.121682733321167,-9.548370658630043,-5.032491821252325,-5.572992655146618,-5.598674849136551,-7.5110131145476,-7.10499783789719,-5.456546438508162,10.10317951100254,-3.115910369065744,-5.145115514121593,-4.031840315419854
70965,,-1.4948171531955488,-4.8586493562969455,-12.903037551747708,-10.26403862769408,-6.775251189005623,-7.006231188784485,-5.650521567953276,-7.907572970734737,-6.721159600674986,-4.707659615949192,7.025675542579808,-5.897579998714496,-6.955986681065378,-4.532765704641698
71215,,-1.033342526464617,-5.814328856988321,-11.854857220144956,-9.369608158617377,-7.199659219103252,-4.351923074981572,-4.615433121189482,-9.27589228902252,-4.814700084201469,-5.665402797645091,6.159370371411683,-5.087850693437895,-8.593158690045641,-2.793434110018818
71465,,-1.7770054165905496,-4.155309666606515,-10.796503174746196,-10.6970517698906,-5.097456310223033,-3.818378320860431,-5.187163200734346,-5.214619085443298,-4.2284107114683644,-4.879397612849633,4.657032737499199,-6.304282322168752,-4.97044278092415,-2.28355948429216
71715,,-5.242711396142685,-1.3937930151726543,-11.230020968459156,-8.85402701730605,-3.424582406644588,-7.016289671459177,-4.045314298067629,-6.210416498774443,-3.5161349596330926,-2.8741945681157564,1.729121349526913,-9.306157325055736,1.142097999001512,0.8434325068137271
71964,X2,-2.9891348928514008,-2.4716335404074603,-12.518941119844138,-5.476348255942454,-0.6288854788098617,-6.867720967359997,-4.435354681118499,-7.282336399148631,-4.9571367511188384,-2.4007939517919525,5.167074956514488,-6.139123704236721,1.543209027382878,-1.6602575725117292
72214,,-0.2069220986673624,-2.716404547931448,-11.220353916384358,-5.977599009141987,-3.0740015370606333,-7.147029146722809,-6.25378812897744,-9.482153044837258,-4.529944408770173,-1.8509908616153248,7.065455168319179,-4.272749616631497,-0.8656744287734631,-3.33254412347999
72464,,-0.8846604520154101,-3.287802864268931,-9.80490967880504,-5.864002084311251,-5.336644749295655,-9.412537995181076,-6.611728954284636,-8.054651902524139,-3.3138869366970574,-2.025373822228576,6.085607094273758,-4.486276198696491,-1.121172924885268,-1.8761044730527452
72714,,0.2367875461429351,-1.529058680055362,-9.553651851516294,-5.527956508731119,-5.203883961512909,-9.920098249866218,-7.21070621643273,-6.1785867298062165,-3.2558383201327104,-3.070799553683828,5.859971283825253,-4.663794748262299,-1.37363453495682,-0.4909919388995402
72964,,0.338386118343316,1.6850800604384786,-10.39205247631889,-5.339007714040193,-6.066390410794117,-7.036697041975007,-7.380695443901853,-6.218442590277751,-6.287492258353905,-5.189912406869662,6.338421135332407,-4.5533435774788895,-0.0340146649116061,-2.2519906737915307
73214,,-2.332372966103104,0.0817922636618787,-8.66134976384725,-3.5781308470730675,-3.816694709863832,-7.752693417728365,-8.335874089026818,-1.3693030177965166,-9.485186399870488,-3.1367763833873283,3.0131681064742786,-5.5209884379101695,0.2668867492929246,-0.5392871373177188
73464,,-4.7085839163516665,1.7892685291079249,-8.204666588305908,-6.269158991836972,-3.366368152806422,-4.579412968989354,-10.3626153497144,-2.9294555882004025,-8.497275089373279,-2.471961431901852,1.671796091176352,-5.2402413880182,-1.2954183434768545,-0.6630106145172999
73714,,-4.135437409940696,4.240535209384526,-8.829070275161971,-8.042609616427445,-1.0434132628114052,-3.5925279888040778,-8.03919019547327,-6.151059288552053,-6.2199528101699535,-3.550404454067113,3.080892572588936,-5.982028629165004,1.2846183660178865,0.8423969034844048
73963,,-4.1901081256345565,1.512049187886002,-10.238525366974248,-9.497638152987353,-3.623158075203985,-4.544934685643094,-4.94772831517928,-10.71485205013065,-5.913325882838171,-5.154450343755107,3.9015546933653327,-4.071931274775537,-0.8750088185963567,-0.6877036861498093
74213,,-2.3593497053190404,0.1471189128966321,-9.86404880258619,-9.054286753150782,-0.9641013390268844,-5.709680188127651,-5.912324499623884,-10.23398812938301,-5.568538492868935,-6.0388431487825045,4.181187481046662,-3.110429432851942,-5.244828356352674,-0.8762151288909404
74463,,-0.9212634970069368,-2.309860247431748,-9.664374619168822,-5.295075548663416,1.0313406963473113,-5.550261390647917,-5.05010458756253,-9.381378106111812,-4.690643011477224,-4.685112702010999,5.490126063336422,-4.460084953125251,-0.5025014858953666,-0.5690288141791509
74713,,0.1838552871001844,2.949003210995162,-9.135916875475855,-3.139894248024621,-3.5812571332032856,-4.436090712708612,-3.074051205820773,-8.54087284332276,-3.3436941987073348,-7.252735840408329,6.738745866539409,-3.5189357060297994,0.1457229001774083,1.903332217833751
74963,,0.8072532686981073,2.237144228498241,-10.58193752803266,-6.855658245022536,-2.2989932848919428,-4.675076067228756,-3.134700550081642,-7.800669551551086,-6.5322434950039625,-6.13851584746489,6.889356534240028,-2.705218469094227,-0.5212445766555218,2.307703987679762
75213,,1.602039077516024,-1.503015777399531,-10.249954070593272,-8.645028667827244,-0.8010486933024228,-3.366637682252561,-2.3183804121360163,-7.651295673636334,-5.64521688384027,-4.976334397279799,7.417245151966019,-2.046129414728872,-2.374516134801508,0.1877155711823469
75463,,0.8914049861854662,-2.844195489362944,-10.003659594621409,-6.816222281276109,-4.385813542136691,-3.052874168791223,-2.6727106441357,-12.576026218094771,-4.384897193102842,-5.214921237693559,6.957549483200614,-2.6321479423751457,-4.2721014106006425,-2.108473143494757
75713,,-2.9318288191340622,-1.356417000171508,-9.032818162262512,-6.245169451311833,-6.987492161155119,-3.954061506646812,-5.038932961934522,-12.734739646484408,-6.440345420000387,-7.676983911765514,3.877217902874136,-3.565348535357502,-6.682266889319792,-3.5965548390738427
75962,,-4.821646084732042,-0.7650813966081789,-6.748160691725901,-5.647351820329484,-3.0118160405851797,-4.832858160441748,-4.342151786749256,-10.159306134530397,-8.57680301768571,-2.8899717572936505,3.647514742436967,-3.781193448245889,-6.317436177920168,-2.7440550207765817
76212,,-1.3492398757087052,-3.791625226639879,-8.554396138221161,-6.354252234858811,-4.234879982741569,-3.344557966080651,-4.726373860893104,-11.77688504750508,-6.204398831152542,-1.151173453698925,5.5319608345668,-3.494623110663292,-4.0806069174664925,-1.4506895800124182
76462,,0.3385301119419925,-2.0714239455094257,-11.700830789264066,-7.063730473638895,-6.493678741362441,-3.958887673334514,-4.759782610028949,-9.503200107981485,-6.631828228232093,-5.326993543113856,6.116549698058559,-2.117672565547759,-4.740295680318472,-2.002814006087031
76712,,-2.229389808002126,0.4668276249523548,-12.968593813406551,-9.750487830998631,-7.17611822294665,-4.34879445158519,-8.197074423585523,-7.243931571979029,-5.438205576730708,-9.56371025009849,3.320385453816352,-5.726073484439594,-3.154616579850957,0.0979563618248742
76962,,-0.9046774397668848,0.3561442979048832,-11.863492652030578,-5.861735362903139,-3.925243131130307,-1.4588623329271644,-6.500594850333668,-8.594644004712372,-4.188383212021629,-8.139614777022878,5.937286388962507,-2.711443092257248,-0.3560479629584311,1.998019525582488
77212,,-0.9530162446210576,-1.2366600611686518,-10.227637946808636,-7.112708496846095,-4.520064359777532,-2.144259335704754,-6.936766434290744,-9.982288244213455,-6.761047746707062,-5.091717405024036,7.014623206000513,-2.049410507778963,-2.6626300526906794,0.3463191059574174
77462,,-2.8597021490610097,-1.2781872900596825,-9.205761036665312,-7.772954780231914,-4.795728815671939,-6.012218859493764,-6.602042432727994,-10.988662798904272,-6.173283091871278,-3.1073314506673992,7.330818329534372,-3.909260706332524,-1.8782523391126684,-0.7451792613239794
77712,,-4.597077294460058,-1.216811614955809,-9.972228203305193,-7.872406011111775,-3.6555855360662792,-5.435928191658932,-6.92539272288734,-10.837373934307092,-5.794419104173584,-2.1459030619865764,4.638570936362135,-3.864393134722575,-0.3837266453562955,-2.1989378723668707
77961,,-2.516476876081634,0.5241687012190902,-12.785618260159175,-5.748434304696813,-1.9535662175736663,-2.6947481243088727,-5.781015613912373,-7.237784545155733,-6.355834710536895,-4.610395728432449,2.1411736159335115,-3.4162079762175845,-1.559313889131935,0.415758830769191
78211,,-3.0121301851194544,1.611259605472759,-11.268166842739983,-4.965908613919108,-3.7457694189866233,-3.7041982334393535,-6.257183121499549,-5.77406011379026,-7.980075998518875,-8.983582693284424,3.1742417654979045,-4.454310130323557,-2.1128536185026743,5.634112126873305
78461,,-0.09649646064833,1.444289894429376,-9.944161320342191,-7.53832053117948,-4.00845472294052,-5.398689083050878,-5.151720676418279,-5.004977417937045,-11.555893168527414,-7.905114471417102,6.559504518296375,-3.348747634801128,-0.332375760135336,2.4104775858993834
78711,,0.2734354941636888,3.2786226111798964,-8.77664114502189,-10.010203396462495,-2.025892048813968,-7.318812729863313,-4.541082766324447,-8.535594142569723,-6.008940543853512,-7.982260629400784,6.653275785756449,-3.0271913278637514,-0.4263071314660847,1.356471098912336
78961,,1.0652203798390594,1.9647848081629649,-8.431790916261775,-10.805963307285866,-1.7483868241622704,-7.777463225438847,-4.768613451400712,-6.842632611965716,-2.754603145239453,-7.017063438465733,5.770300451425175,-4.817399863691405,-1.7084157835427696,0.3215118801695144
79211,,0.540260589940756,4.713030384543113,-9.678642312149709,-5.244988148519216,-4.88759218807496,-7.471795190117101,-5.100514932778961,-4.696225246453845,-4.46810059868881,-6.573870654790515,5.260312096884928,-5.484433806075247,-3.2407880300127063,-2.8692166496444047
79461,,-0.7251940516225206,2.397889281722519,-10.240338110570269,-4.5783571019059135,-4.681618674724023,-9.669842857635498,-5.644752634849071,-8.094124684824562,-6.629980093589562,-5.039335507975525,4.3409683966815145,-6.426303780521722,-2.7785114519802683,-3.091459306209507
79711,,-0.7282273267075258,-6.934438739588585,-10.68087304998768,-6.959612248723355,-2.00393072711916,-10.080693681290724,-5.827989894703762,-11.847649721990798,-7.319989796201288,-6.919110957842696,6.571049473438273,-6.788346282862786,-1.990828982593897,-2.951364796643288
79960,,1.4335400354291608,-3.24399050773645,-8.63685750587299,-7.712185689088262,-2.313355381101837,-9.04237809733552,-3.8578207343482926,-10.471768887494438,-7.338046260596799,-5.06585413729103,8.231070532425546,-6.567202330758244,-2.9270530065279354,-3.358887184894583
80210,,-0.5395523419604505,-3.0557996719707243,-12.39489572218542,-6.971936640483954,-5.104457288181039,-7.40575331651751,-4.679925626333321,-12.282093554802673,-5.081635246751582,-3.876106468822513,4.853929292714682,-7.411376093537899,-2.415902082367316,-2.545596326607388
80460,,-0.983996305946968,-2.7124387406066,-10.854185257139424,-5.775666908376261,-3.182643377029468,-4.225813984483359,-6.686102673316493,-9.776859546922443,-5.607450386716245,-3.1466048163347216,5.178099858179197,-2.9413273315253727,-2.812339573104917,-0.7977656873554708
80710,,-0.1864160760096961,-0.4762382366389897,-8.556860056572038,-5.15908731911865,-2.996140798378921,-2.9165933102557826,-3.470129165024672,-5.292749611940398,-5.927957330937728,-4.671549327929193,6.532526602786374,0.4079011960276876,-2.294724938711783,0.265121150199725
80960,,-0.5903574950957476,2.148349413751534,-8.551228966862066,-2.7988337911191827,-2.776762982846363,-2.5173821731884143,-5.250627848145962,-4.8098492593215205,-7.221942140978013,-5.4414872164019465,5.969139310396324,-0.0100579177902273,0.1965619588001231,0.3243850348084863
81210,,-0.2681092299770843,2.0908060628856013,-8.450264739420199,-2.646886416876128,-1.949640727417861,-1.067788663689684,-5.665894496836742,-4.003205122119228,-6.094442435506588,-3.9818343865922174,7.385694154049736,-1.2622672694360637,0.5396644746290031,-2.720518411620362
81460,,0.2250174945515927,0.0060523024513884,-7.185452089474444,-5.704607640554715,-1.7148116059380327,-3.838066654321578,-5.843679716096682,-4.595395345521387,-4.270869383550059,-3.947515971456237,8.532981834021239,-1.6883863177829768,-0.0172801580027666,-2.934986270590578
81710,,0.9455421558720396,-0.8905966151819251,-8.978111760470245,-6.852218752586349,-0.5346807721404991,-3.255168560111668,-5.9777594595058,-5.696524475524849,-4.814915508978023,-2.720325487610093,7.335727185985653,-1.5563280843223732,-0.990717687954824,0.6154962829561453
81959,,0.2943959966706104,-1.0810741834807376,-9.695805028583177,-4.881556919876987,-2.761821130892316,-1.806712780838584,-5.089122741403171,-8.204979480074462,-5.065668581139175,-3.9390733436669705,6.805035190959234,-2.560254246457203,-2.1251983205615343,-0.4299811426884926
82209,,3.1306587242864703,-1.531090763320098,-9.59044798335501,-3.499760667969058,-4.156324749844161,-2.4144253556081545,-2.055469517804096,-7.284885406586859,-5.108787979309283,-5.534284921241133,8.88527267212005,-0.2115880921632993,-1.483302271597564,0.3770522343395111
82459,,2.3099756307561634,-2.021781492727383,-8.83694613087205,-4.2690178690528064,-4.419613471066222,-3.4267243167708505,-2.4522765064101613,-7.729277573150169,-6.15666482240477,-3.773187570324457,8.582403221868164,-0.7544136113084733,-0.9802102369189256,-1.7130197942675027
82709,,-1.098852910224028,0.5925311226581258,-9.022441297697185,-2.6846419780841613,-5.008507520174676,-7.682073248816179,-4.215597156398062,-8.664683914741234,-6.790879385149456,-3.432592472644827,6.31131146263801,-3.4897354965178717,-3.4542400041426173,-6.588578697931266
82959,,-3.3027115268727583,-1.2295214129169167,-14.799692170339382,-3.304128535100705,-4.689681233529268,-5.736145986538991,-6.943437647753492,-9.844427396505802,-7.936978958010258,-5.4201441545691935,4.121092236808738,-6.387069386004463,-6.075316536958661,-5.076663269250333
83209,,-1.6241355622713305,-2.608477828770197,-13.818447286362185,-9.097288140303164,-6.046137945435216,-5.781674242419603,-9.343527499999086,-11.442784020565073,-5.21755338594671,-7.221226024477914,5.408367412677126,-7.213981668278717,-4.450641589123817,-5.745115875639348
83459,,1.5670695790430944,-3.5923383515720158,-13.663785673362066,-12.723135021814777,-5.610956752025386,-8.30486112884268,-7.502321583317672,-8.245448038513686,-5.903409922444133,-9.49004227644428,9.539099202392032,-4.708577922723107,-4.749934176274614,-5.31178097580214
83709,,2.1007730931537045,-2.362023272788724,-10.483999545498204,-11.405121315813302,-3.689477737071702,-4.347528141128835,-3.5896776068942056,-6.057647853666425,-4.422890639431085,-8.019626315122238,8.532038186750526,-3.948687905764763,-3.1014387553471243,-2.4385736198733245
83958,,0.0498104533698582,0.093550997821355,-7.943778516656463,-10.189639080519743,0.0482161926280665,-2.587270814782616,-3.356079847493141,-7.336991432868023,-4.170351314595528,-5.075764138747193,6.325173536470958,-2.786850187477807,-3.7702120064558415,-2.428801949877653
84208,,1.1705195354479494,-4.075949654618175,-7.383930262071651,-9.780122837535153,-0.3605506242575252,-3.170947152185485,-4.098597751592709,-8.605325986000738,-6.157657809088493,-2.882219503320824,6.541007470937725,-1.6387975930654908,-2.5126649617666224,-3.0660907298963176
84458,,0.9636290451429024,-4.403331852500688,-11.072089041218009,-9.203755192040596,-4.334376848979902,-6.61091932796427,-5.901907804492879,-10.567235475886337,-6.501469984212798,-4.170121940190153,6.919090518003856,-3.7197847026527455,-2.964027757414627,-1.9675266317854632
84708,,-0.2550881940499635,-5.554006534381638,-14.457100064741033,-8.623169976471805,-7.310780107158733,-7.93409487498535,-8.878575678858478,-15.288598567525046,-9.637660359278929,-5.864841376322653,7.1785980819434965,-7.248896511163771,-5.094109870984564,-6.572383340431975
84958,,0.7466927094961131,-2.9852172236745544,-14.395560845198109,-9.188618504326271,-4.590088822374328,-6.370096834253901,-7.2019063295973895,-13.045880100986157,-13.38608405660808,-6.905457834763999,8.266837932765972,-6.84878603063585,-7.426765777467318,-6.033527974360718
85208,,1.6439390740860218,-1.0726230739114448,-12.496695043805934,-8.506827033273039,-4.782866406932586,-5.775531628873328,-6.040902779520775,-10.12242543612757,-9.647047084497304,-6.025957002451126,7.931655997668833,-5.391558675240131,-4.695370508625771,-4.245166880083552
85458,,0.4143463009702223,-1.9898585227600352,-6.840548461094,-10.072296262692117,-5.186146784792474,-4.564873722523611,-5.098898867999488,-8.469020131711234,-7.909475564653624,-4.947880417116148,7.015388925755879,-3.451568159842662,-1.9620712165304388,-5.724548941157695
85708,,-1.198707841337854,-4.058463590885491,-7.670055998711252,-10.332581369007958,-4.058486319208781,-3.6104741199594703,-3.130894909114923,-6.144761178007903,-5.685066376479608,-7.223536635127465,7.510522113296173,-5.099136949616977,-3.282798573735948,-4.929041060903715
85957,,-0.5313799244796531,-5.29545611145743,-8.485208156773876,-11.80228959498882,-5.292582144983733,-3.3844845182711527,-4.087060470109952,-5.804613520737315,-6.049816704369225,-6.564392350288591,7.457305710864413,-6.875360567776956,-6.1970310100715045,-6.610132914811921
86207,,1.779905970676766,-4.825778979835009,-12.042714274272722,-10.757481649409362,-5.119757733437557,-5.475012023454577,-9.117456725951032,-6.465131294635201,-10.218069553163469,-5.193414579691669,8.329583161074286,-5.151787293843415,-6.825272215417183,-7.695143993253279
86457,,1.1310837637843347,-4.275032150110553,-11.16646216269821,-8.672024994224932,-3.7836432939319353,-4.446631623105503,-7.554423491820171,-4.960634264634364,-6.118554800320718,-4.194511954310285,7.290594692273178,-4.9226455363099095,-7.782279106038839,-3.639832898250813
86707,X,-0.7216996716309488,-1.5721903109185873,-11.085747345656458,-8.823244673279646,-2.5366833459404137,-2.2706654344158723,-5.524733874791177,-5.608745266466405,-3.934771587345573,-4.083749275620383,5.600371478077757,-4.268437062532684,-5.839289131136889,-0.1746227741121285
86957,,0.659815127189492,-0.9628909823962704,-13.059569615175658,-10.573539080620662,-4.038845430186868,-1.64767493664207,-3.727434142605877,-6.680895092283726,-5.140925374745191,-4.4597380593975045,6.643285248517344,-4.46332060567636,-3.8413671040401214,-1.0766888131893884
87207,,-1.1062034897823445,-1.359005958336349,-13.28810173498203,-9.029055234751809,-3.618284756699217,-5.610648042092169,-4.837676145046473,-8.164618251686337,-5.982766219928781,-6.880063746856909,4.846061641890021,-5.108796143198729,-4.212138821248606,-2.5755897343521306
87457,,-2.8131399089462965,2.2177455712422933,-12.71300833113684,-6.070939067688799,-2.1430739783554325,-5.7351895128081685,-6.777593645774823,-9.505692497176748,-8.902925968249045,-4.4386311440537805,3.6082637224751,-4.31917126199366,-3.105195667942425,-3.864097047386068
87707,,-2.081269368853805,5.664799090741375,-8.460883389365264,-3.4149617414068176,-1.589340660127385,-3.2382880820211604,-7.94792409158215,-6.411280206417628,-6.854179599354523,-3.350778717950994,5.608641388590968,-4.798492750615577,-3.008832474033316,-1.86666353523218
87956,,0.7494153717061279,-0.2221313757814308,-9.301894705371977,-3.98186493975911,-2.8564265726807263,-5.874461085454486,-5.671183095638477,-7.384091927422086,-5.829606078993334,-4.58399024455532,6.608800725055092,-4.395395395582175,-4.338364855527696,-1.117306558617369
88206,,2.307292507463594,-7.060347267375824,-9.653131726727397,-3.1141650737464825,-4.086236422602296,-6.844543557084871,-2.1785019828948364,-6.961868001026704,-2.3169449545020497,-5.7285331355944304,7.805904639875749,-2.48404294281035,-2.400634163745316,-0.3049540450041262
88456,,2.394880274227045,-2.965783491259783,-8.668658366941239,-6.838501201454617,-7.981681444564957,-3.331198240423156,0.7837336632979635,-6.9266993586108585,-2.595427960888755,-6.16176545492107,8.686080268319142,-1.9250076718046527,-3.273288809883181,-1.5626395044037902
88706,,-0.2814022407720036,1.4676941401842782,-9.788653596464384,-5.127678945654278,-4.668844919947401,-1.8233078979018156,-2.783812663527857,-10.240243284195088,-5.468807543017114,-6.419762086367074,6.747786920880737,-2.5228581748107644,-5.820943603013165,-3.1611245655382114
88956,,-3.512501017552521,2.1188918405679527,-11.86659965795575,-3.735653827360049,-5.042425882713912,-2.093565582683594,-4.250902164149951,-15.209173645390024,-6.964155483289614,-3.1544618612719506,2.9795816218528275,-2.9537778922056077,-3.975508886016799,-1.0133671741451673
89206,,-1.873658426225895,0.4566578768301019,-10.149914037697092,-7.1140057860699,-4.375553947179634,-2.6898102045570504,-4.954913237276159,-13.163241871098752,-8.431342341108603,-2.507388857162533,2.2049764725561456,-2.9826601217621973,-3.860128200801725,-1.947293611223563
89456,,-0.5292090301485043,0.602891136084063,-10.454786510648582,-4.790652610537409,-2.899298189534849,-5.295273050372643,-3.975972781818937,-8.875528598896873,-7.547524400291134,-3.3169668795312406,4.81427171087511,-2.860752947015128,-1.1437216541880928,-1.6374377866174683
89706,,-2.9185747035951186,-0.4867951136152662,-10.847781301570958,-5.996328869003841,-6.458530501874349,-7.878374747575937,-6.055250483651601,-9.932669114346734,-6.840089856390348,-4.254153903990551,3.857222186475573,-6.385249747773455,-2.542243418575169,-2.0596353384992256
89955,,-3.958215323871356,-3.0034056579035178,-8.674108702820176,-10.381472960907605,-6.386145458492306,-4.688245323467082,-8.042011878967793,-10.712589257188256,-8.236050776495214,-2.5133769009651843,2.6799768973228035,-7.404752286142282,-5.13958297127874,-4.615962256951469
90205,,1.6491341049670427,1.2840072545502,-8.809113983072974,-7.825534908171733,-2.0961729127305064,-4.142072626562071,-5.933930343496726,-8.660749960436899,-8.577999822641694,-5.630897520549092,7.07235374263589,-6.117301742512764,-2.179835496446369,-0.3391575522956899
90455,,3.573385665599711,-0.1858680474537985,-9.22172113226808,-8.140364942831066,-3.692724681696911,-4.73548543747392,-3.8327276200481752,-10.557225089636066,-7.509650826505165,-8.537561104673209,9.328147220930791,-4.498833868352472,-1.0243698372620502,0.1591981174803683
90705,,1.8673418589370228,-3.1191033472656997,-6.884619735778651,-9.023686837584876,-5.253932205545755,-5.797329627805333,-3.9629168882138144,-8.0788794738334,-5.22314234117978,-6.253939349380132,8.447100666965575,-2.367411992520973,-1.6514889310776697,-0.008218746925478
90955,,2.4108219324435103,-1.152520015754685,-6.150013443950558,-7.844671221539614,-3.39266621242028,-3.750247752851112,-3.2718222384512208,-6.322714377405361,-5.756534345007674,-5.010494551658504,9.021011852268671,-0.5362137970162354,-2.12673236659195,-1.3289008556304038
91205,,2.92799822360414,0.5260545395064429,-5.582598726921546,-4.296860646025273,-3.699801106015639,-2.850060403511456,-4.068871182672883,-5.943832432058947,-4.7030746285730265,-4.164765280649276,8.507917140151779,-1.2200463415657494,-1.5298252447753458,-2.448626862569806
91455,,-0.0303812094153776,1.359803520590673,-6.592126142275124,-6.583605325633165,-5.490766601414199,-4.2191872832560176,-5.029838822094135,-7.153029619079411,-5.394823336604395,-1.7478596686120644,4.997212491320208,-2.5083860225168184,-2.618895528655334,-2.918288583176806
91705,,-1.981744642987597,1.1009713824111045,-6.383588045666572,-8.674463643910615,-8.924281587592837,-3.37431566290092,-4.304504968436311,-10.000555584824117,-9.537989998662272,-1.6904786859865315,2.2973801272602703,-4.318961804059066,-5.437621413015535,-2.764363696249561
91954,,-0.706368749485431,-1.873912610867248,-7.2432359148709,-7.413567429340441,-6.840064761171059,-4.503569243376694,-4.737895808142482,-9.963055999143926,-8.81421856939814,-3.3731816125114333,3.9954730014008906,-6.819619325096115,-2.1962649776120537,-1.4490743906234846
92204,,-0.0788585764702205,-1.0659188236683197,-6.855677066595247,-3.314058101039792,-3.6395412409060848,-5.372183433229425,-4.674370174413781,-9.819569693814376,-10.022178441593285,-6.513694216261678,4.221221641532478,-6.257928664579126,-2.6287550145419254,0.6563172469498169
92454,,-2.3377965371385674,2.0073039927061678,-6.957900909227124,-1.2138306659055025,-3.791554469305627,-4.437393918358637,-5.532022318284894,-9.80911906642715,-7.541295304796085,-4.040292263727279,3.83751182494996,-5.392103742170039,-3.790938750400701,2.7583117974545184
92704,,-3.982695421326677,-1.0041753648167946,-8.774215444716525,-3.262041995419107,-4.577192666422675,-4.542988701886472,-4.199398663566801,-8.127126753829442,-8.077507001319288,-3.0836833451862287,3.2460603760728706,-3.754660022923244,-2.198120655736461,0.6864844159038642
92954,,-0.3201543825549965,-2.391048915026781,-11.358923744987742,-8.668094974219493,-3.375957096746593,-1.7726652358462909,-5.229092033359369,-7.953875378528772,-4.146524600950729,-5.369066551449871,5.706132023963361,-2.763804829662403,-4.449156608616107,0.5955320999204756
93204,,1.0922027504866605,-3.257835749474318,-11.47020619692423,-4.424092683058306,-2.7777226273667166,-1.5071157867365848,-7.641201088806353,-6.405596967019912,-3.4572522511644674,-6.097877384300599,7.281721795857283,-1.256637203644625,-4.274509425242531,-0.8245608697175987
93454,,1.4264494011673146,-2.7687448957142458,-9.382528649621038,-2.6936298423561467,-2.406425351803765,-2.7315376064985424,-4.777020474493459,-5.062558107354124,-5.2437241676023785,-6.247182437907198,7.583549734472884,-1.1529202612188172,-1.0638146288550807,-0.5768283032500314
93704,,0.8682630546654214,-1.6089392356125272,-7.837934047475849,-2.806331632220913,-3.224090708554661,-3.13812424980351,-2.386539615253524,-7.453727331969234,-6.73112563582476,-9.65580392072592,7.457561773136305,-2.9121662426630266,-1.8873589814582796,-2.405735548140176
93953,,2.161642687142089,-1.8053004070640264,-8.67760254384322,-4.496307202494519,-2.7781625205327827,-1.8357150713220336,-2.9737200940080566,-6.56145432893184,-7.033207814829254,-7.300332651658578,9.553542342178984,-2.5960520979556225,-0.8500670427186232,-3.8504083970526217
94203,,0.8993444480142547,-1.8705051961662411,-7.6976128015351,-7.175185649166915,-2.938502647139259,-4.188442592363307,-6.053734773090563,-8.022288402198912,-11.11626013644164,-5.030643312691065,6.983492469658826,-4.467337691525754,-3.0783500093270524,-2.617966092603845
94453,,1.5716039040194454,0.767477934179797,-9.185399944206846,-5.237026018014767,-2.0726992079515254,-6.109284257038459,-5.021948855909897,-7.954811044286902,-8.987326018194123,-2.280144902325574,5.849453446785283,-4.877740507732499,-5.218572236140082,-0.3735620757731027
94703,,-0.2556519071033849,0.6177671829862339,-8.418204853322571,-4.192696248156571,-3.276335294135885,-6.227523223457775,-5.685034915873793,-9.337348874678293,-6.306661573626218,-2.6534893473260635,5.242089013428202,-3.9738362290128726,-4.27808474711108,0.8626284163509508
94953,,-4.004017030169594,0.8005759596884574,-10.979682998202149,-7.009019090678779,-3.6937200111384834,-7.528521485545248,-8.297844699923084,-14.999536536987211,-7.61222444185726,-3.995811130029754,1.9248799461971615,-4.422408257243494,-6.567199833598052,-2.9705383867495967
95203,,0.3510696070631452,-0.2081694045024777,-11.038411560556147,-6.728853823577971,-4.741830414688732,-4.7462452525072525,-8.785649027042474,-12.818652154932364,-10.663621810616348,-2.57738171706632,5.735715123796324,-3.732774248902296,-4.511768687579297,-1.4511404481349346
95453,,0.2726634707959663,0.1336134593659361,-10.195140156809352,-7.910467271583599,-4.565753142547166,-2.725267168145904,-9.299621005458237,-11.482322203064612,-10.377293840297384,-0.2836983032015672,5.761101974040449,-2.8972396699875915,-0.4619915360355008,-4.734639936825799
95703,,0.4442628629177503,0.6363443994599762,-11.63108790861198,-7.179947969622754,-4.746379033484198,-6.646305446879195,-5.758820180931652,-10.70353703519771,-9.403289283435566,-1.2131313350802335,5.321365905737091,-2.81987378479936,-0.4434137486114392,-4.005627494215446
95953,,-0.484693311662828,-2.89653532563488,-9.55296156343672,-7.695569823988205,-4.446701066510535,-7.585131626186817,-4.895439357893122,-9.766416563116282,-7.387095396335656,-4.1513028295644165,5.079721142089962,-5.53678744856748,-2.8833282375934197,-1.0895034667805856
96202,,0.8132619638989304,-2.5145248104124835,-7.857979360721542,-8.927222480727941,-5.752537396004548,-2.1618491126295067,-3.6996296538439424,-5.704600485900903,-6.173723008893616,-5.093060012936483,7.330227530412509,-4.912246111339074,-4.830609171920836,-3.004341497156882
96452,,3.217743746813826,0.5911738397811157,-9.08664337743302,-8.38826121810894,-3.476332888437029,-2.178574684296392,-2.6646549042422194,-4.062504261629835,-5.076290288060838,-4.6472613624466375,9.244871802859318,-1.8706811596339925,-6.374383082114953,-1.140586796448722
96702,,1.3922567303723508,1.011623090883533,-11.056875838026642,-5.187346937477257,-4.65246374360042,-5.471229048075607,-2.772087108173423,-6.385727788645012,-5.263969827532723,-4.385023732090988,7.69679153078176,-0.9837300584573074,-3.844372979706629,1.4033114257022736
96952,,-1.865859925747067,-1.962040560888882,-11.761430234299503,-3.849139591165056,-4.140172985492948,-5.163748312265625,-2.521073745139814,-8.677952312996377,-8.285782132282604,-4.898503660430121,4.59994560503608,-3.513687300920531,-2.586013557248012,1.4327782674429788
97202,,0.4819741045423794,-4.390696546299405,-7.467909409000385,-4.703254765498468,-3.442668860380161,-5.562682828153886,-4.415360884753479,-7.430407730777029,-8.6605648564791,-4.3534254166713,5.565038403943484,-3.338762626745834,-0.7177926676040607,-2.534566713471268
97452,,0.0358197747253577,-2.087151584076908,-9.460975861307729,-6.053022781985547,-4.908518390793361,-6.794425854590704,-4.9247935497624695,-6.52219801931666,-10.2126220387443,-7.405538210019095,4.135412249191395,-4.588096050206529,-1.574545928939173,-6.6907641253341845
97702,,-3.224530223111039,0.4206964303852434,-9.662258141887063,-6.704626221160998,-5.990275715746591,-8.033193172123118,-4.301859413257479,-6.193264056593265,-8.733145743151644,-6.645517705573094,1.975923163681674,-5.3664236672642,-3.2968171899605765,-3.5241898122072017
97952,,-1.3125381654403754,-1.5659390332668657,-7.415157637031237,-9.550841171333072,-3.021759472910959,-6.1922205733022775,-4.900268943891385,-6.182971418697236,-6.705807448210549,-6.066564352055666,4.866254538876205,-3.2775335619382195,-3.1758450667738245,-1.7548851104355203
98201,,0.4505205135919523,-3.673693740896904,-7.017668638204299,-8.78567349838471,-0.8723205222140608,-6.01725162630299,-4.7055681275184105,-6.043663789637863,-5.776276263289418,-6.654021590132677,7.969409508189189,-2.727251840855922,-3.588220619853076,-2.292882232396222
98451,,2.2579051033930906,-5.696465798030453,-7.653981882359147,-10.121233421342913,-2.8831864090856807,-5.911068183416931,-6.565445715072072,-8.296463487865312,-6.596882826493373,-4.027373298575816,7.795912420255103,-4.916900052882279,-1.847493298310896,-3.243520536426208
98701,,2.05553497031134,-5.296539349725959,-9.332962471274188,-8.32315053726343,-4.376736854088109,-3.959181956148231,-7.143086225471844,-6.423778656079645,-7.358353007421939,-5.026099039438698,6.424406232303688,-3.6720969289411447,-0.9178294269109112,-2.97533395523313
98951,,0.8916793154878939,-3.6151556764946906,-9.985071690155278,-9.206671386263537,-4.194746551529372,-6.090473334811009,-5.403317844574142,-6.523775289831591,-6.01518137022491,-2.3947881223453225,6.471344494574868,-3.757158467302456,-2.5289420476562423,-3.5233053677315813
99201,,-2.451137056949432,-5.501313999422401,-7.882160305877162,-12.735206413989022,-5.2492853912054604,-6.909564502736085,-4.157734331048184,-9.782941043880005,-7.6208272762092015,-1.3492117670980313,3.24138343741348,-5.0153736071058415,-5.419203081915156,-2.9634077476198444
99451,,-0.4052512087234325,-2.6069908994660844,-8.92054713274354,-11.194549433991629,-1.4644580162659988,-4.868320815190651,-5.319890606365533,-10.048505449567791,-10.291596226788718,-2.28433661981436,3.915729241233575,-2.3858919805421106,-4.243710154765598,-1.6467366706272693
99701,,-0.4452296911741681,-2.869629099253535,-11.472146334366196,-4.388837791362716,-0.8498407503824199,-4.336144716912881,-8.978394011235133,-8.917071179151577,-9.058037804693209,-3.580386876724048,4.607781897570403,-2.6512898652443746,-1.4665037432807626,-3.1473561752008665
99951,,-0.9950109568058376,-4.068946183310407,-10.9734588617634,-5.127561540666514,-4.329780036465245,-5.545118081729717,-8.59199563640804,-7.35890680355544,-6.586262080667199,-5.564661005696625,4.194825137735741,-5.941295773132377,-0.2717440367751542,-4.592917792127537
100200,,1.751649507736147,-4.3080533401808685,-11.061836567665877,-8.583928155290694,-5.400090430678295,-6.4208957364851,-7.936785620144741,-7.568540701682844,-6.713143671106327,-5.84163376671873,6.478996833023287,-5.792146134175956,-5.272313399312958,-4.200302506239101
100450,,2.527578773706622,-1.4778400239598075,-11.60085691951558,-5.9247382235230965,-4.070385858028704,-2.4641425871025584,-10.507067967656427,-7.465805715754929,-9.254156065502354,-6.287711582025937,6.48509150692222,-4.016358396536862,-5.436093645334932,0.1429406480702477
100700,,-0.3239185521131961,-0.4491408714483818,-10.12991312244018,-6.783693881973719,-3.988676270182453,-4.0466947034843255,-8.241605646927407,-3.614576725571471,-4.717013274805042,-9.224970106740887,4.840162818379087,-3.971422271295315,-2.8284833559096563,0.9600842119133906
100950,X,0.6757570581390326,0.598210201608979,-10.944894224628086,-7.019122578999438,-3.477222984277386,-3.403343737134968,-5.442508514340737,-5.1803616996860855,-2.0449093575994297,-6.256273456565919,6.652196652904827,-2.229384207227789,0.4735508281553143,0.0435797073057555
101200,,-0.8217084286605504,3.787422127515916,-9.749779134125536,-6.682566110623775,-4.719613706648323,-1.994163101754195,-4.609170345872299,-8.983118501747033,-2.539854924206621,-2.589441104152057,4.338231086835743,-3.240846828898277,0.1751784275451376,-1.4960560418565456
101450,,2.683667016425205,3.739859715904233,-8.481715315076997,-9.558837732558704,-1.7632076663787786,-2.307818308052555,-4.420009634880126,-8.578424653519658,-2.41871505234168,-2.438275700472908,7.542776937986942,-4.10214729983838,-2.8785397002201867,-0.8406492639025538
101700,,3.063596091359789,3.032449787180789,-7.293087404250313,-7.388310602383522,-2.123187201884773,-1.9323401792382904,-4.85190337327646,-8.264895638609273,-3.3433277944877204,-2.0724717784378823,7.39667782925957,-2.966941506759733,-2.307855080238697,1.1863707569529065
101950,,1.8678567763071443,0.951018496378073,-6.919262804827204,-8.221106071303568,-2.432826063399352,-5.361482669807299,-5.105346163760933,-8.590444424560355,-7.540727294405297,-6.599034513007704,6.338894141583129,-4.007934016545272,-4.667016739941995,-0.0428201782261299
102199,,1.4111798181911508,2.574986615024065,-8.355752145550596,-9.12647800396664,-2.618856768551041,-2.1425858762304038,-7.543760761162303,-7.801857039980385,-7.204033151301214,-4.63882435789245,6.855154538926138,-2.7530006010612955,-6.502230292719008,-3.072249227949335
102449,,-1.2733646367661984,2.673632388629985,-9.724368492885617,-6.975901717950168,-4.512083856551174,-3.824375286925101,-7.981682074843746,-8.635701207248408,-7.281148494076577,-2.9435075370307446,5.046725072243355,-3.267639850248788,0.7405857246010508,0.0996955230423943
102699,,-0.2496600048678041,2.3125922328211987,-10.217665155674151,-4.445056058372306,-1.239638799457095,-5.73823894252545,-5.27457222752541,-7.285440698929206,-6.542008072523551,-1.4067533618636792,5.408527965945719,-3.090385925640184,0.8006170266459518,1.0325889676491338
102949,,0.6894992535111633,-0.8125054313212648,-10.671462950311213,-6.527129728448981,-1.96265043146175,-6.842549165141765,-4.558964969312926,-6.780520116317158,-5.413882448989272,-0.9408791349695528,6.626467780903106,-3.294749376443523,-1.3663694364809778,-0.9379501805484995
103199,,0.0551705405617665,-1.5117824018448127,-10.311765194313406,-9.070528905140534,-1.5365456085081322,-7.046957004841384,-4.290983676537817,-8.03726400065388,-5.819352051093045,0.9000223321460659,4.940163277185242,-5.074055785029586,-1.930839009333437,-2.9368242594312
103449,,0.7768319368689803,-2.6815714664007277,-8.214231183410096,-9.475732556892916,-2.306048582860523,-8.03534817075558,-4.968086089811619,-8.55032445782636,-7.183291816238283,-3.53673211795173,5.169876214817166,-2.0271365785685265,-0.4594060408198374,-1.4095654276249958
103699,,0.6355370157387403,-0.4829431344805622,-8.18861833256174,-7.259486623009405,-3.8082632042088136,-5.292416827775871,-1.6889528807964873,-10.933951533828974,-7.161600464683905,-4.019345069278735,7.315934090057484,-2.8675875106173,-0.6237619748452218,0.4037142685684914
103949,,2.511950465713359,-2.708290394276566,-8.917121963510501,-7.723636118136184,-1.8169393826296216,-5.4811271866555415,-3.4303779534271417,-10.2256914711412,-7.128637576483959,-4.050075797896873,6.907678419130882,-6.66079239150823,-1.192301673942332,0.4850140483980458
104198,,3.8105584376841417,-1.1767107984909035,-14.566853906131865,0.5532318170450371,-3.1814315714056614,-5.415845285122228,-5.102639868895639,-9.521014577704342,-5.197957454446205,-2.2447861192061764,8.18138885997018,-6.49416460519077,-2.766388414969405,-2.4628254525876967
104448,,1.7714537690235674,-0.240887239994669,-17.034722613831036,2.412528102301181,-5.944405681599495,-5.688513833612378,-4.35020700889738,-9.33252373635964,-5.321167887029796,-2.3199846337173997,6.927676755392982,-4.464371488375097,-0.6600370871733313,-4.37863022587096
104698,,0.869666578976074,-1.7957495920737796,-12.407575131426167,-4.03581947944129,-1.0670464613388326,-3.5646103574388963,-5.753837441724822,-8.784801575024812,-6.788579433913728,-2.618142262016306,5.432109183785087,-2.9100089232788395,-3.44692083673276,-8.842461821125497
104948,,2.412756991208166,-1.2819467257297157,-7.478010462819621,-6.68254695416725,1.1856715430750335,-2.855976206786186,-6.030882551044835,-7.978412789722414,-4.3664661209695455,-3.155932230373539,6.733744913857322,-1.1881997964263034,-1.712587225783908,-2.824978734110832
105198,,3.2232222542897304,-1.354949543272291,-8.11455271993615,-8.531423155665097,-2.1134159142317968,-3.052871105628197,-5.248129102633574,-8.086698047622976,-3.268718150477397,-4.342768830709918,7.967529379938814,-0.9965816234383288,0.1398735442631934,-1.5259098086742149
105448,,3.864756158538838,-4.339068472158798,-8.604015279333728,-6.517964364141489,-3.6754500824291862,-3.2156902108434595,-4.968322977069074,-8.424123539602324,-3.985592385288699,-4.534645659004177,8.903573381465513,-1.1607067125276287,1.5896802316914729,-5.159046146161527
105698,,4.109636985266768,-2.5121074918166424,-9.506896332901636,-6.026072548002126,-4.497901484920047,-3.2904236556168125,-4.480312296657534,-5.8858868281553,-4.619909564335583,-4.485130245967922,9.144262604916737,-3.8570593273587472,-0.3442278525664679,-3.6778896815833217
105948,,5.012906268346539,-1.562522483424872,-9.83451235940723,-5.993685604472288,-1.5354020775617816,-3.234106643022069,-3.1071971340221234,-6.941451328721191,-6.542983302895222,-5.986173212024905,10.285820032594463,-4.414883543054956,-0.1916658043312158,-0.8472405229832224
106197,,3.070795979180532,-3.547976479743371,-11.05021086942144,-6.984700758353456,-2.304599125581185,-5.005252490485436,-5.703308843339339,-7.306639143847962,-6.47963956852911,-3.5714007393079426,9.186438650459172,-5.199200075551592,-0.637075704727706,-3.5115937682707883
106447,,2.7497479063401404,-3.461220306722293,-8.13347886801714,-7.1379914713113015,-4.316152652968077,-9.391640859307463,-5.8697268801408455,-4.4177934886443895,-3.7569295165975007,-2.988130102791237,9.7215317689059,-2.603131163767233,-3.343009889462075,-4.362741231944015
106697,,1.8181065085514576,-2.716684382253403,-6.244166024828189,-7.154769206901262,-5.91142114173533,-4.792448319760245,-7.67668076595702,-5.801188969748506,-3.9780623971296536,-4.944269871992715,7.701003438443276,-1.6628781512108426,-4.079198134379912,-3.2270348975480143
106947,,2.276551080698998,-0.328649680112798,-8.630239459141887,-9.833048520780912,-3.711409673860968,-1.6940646822820846,-6.013132988997541,-7.587108643108175,-3.681776546905005,-3.40062765092124,7.289184808844861,-2.59991009563856,-1.9390515210372083,-3.0529182272486577
107197,,3.833912624802309,0.2360319246091329,-9.331349025135538,-7.662677343007189,-1.3232951970654647,-4.405335091597207,-1.9224497473377824,-8.224444515547354,-2.6873362028844747,-4.454142080477777,7.890148719591039,-1.9423958002570676,-2.1419264165419656,-0.6461582962935275
107447,,3.6539867729493833,-2.504693342135807,-12.504356576081168,-6.97283098538755,-1.7614803508505412,-7.42135741699056,-3.238303692780139,-9.650482235858432,-4.311125055390117,-6.392877587371134,8.074630311183466,-2.3599575766731755,-1.1204418782489245,0.0894030567201165
107697,,3.555835675435948,-1.3372226388099684,-13.173967169913205,-1.8371729836722928,-1.3043577766581247,-6.979899697906584,-4.916377481325622,-7.902860294243256,-6.365878758048717,-5.638894506359523,7.972543074829642,-3.1299200825389004,-1.178562139879041,-2.259672500826508
107947,,1.386631434627309,2.755670544568009,-6.842695048022853,1.4605927635965337,-1.806324531827708,-5.0077610123475935,-5.539512985192278,-5.73116991718215,-6.429359847797096,-2.294451591152129,7.005388034800659,-3.9689284130008224,-3.8028097551122135,-5.309851619366467
108196,,1.446366600789416,1.7854797033170429,-5.964662464569451,-0.889683497027204,-3.749678346092404,-0.7817759542466564,-6.550213348175877,-5.7068065435190585,-2.785222523701406,-3.135065341464747,6.311869630490557,-0.3305125983368289,-1.0291553739127348,-0.0975275749850241
108446,,3.065117104162998,-0.7610609508036541,-9.448429732697338,-4.996861359185109,-2.128687471725617,-3.927029037725717,-3.044774704262929,-7.642623746087668,-3.9182235248491306,-5.520975909009832,7.241034656328836,-1.4006190204310476,-0.9562016255752684,0.0384821381741388
108696,,3.188305553780886,-3.9621911320714673,-8.94647171937488,-6.751722404230589,-1.861685266480091,-4.406245127528869,-4.019310118344778,-7.40102706476377,-6.291753659457138,-0.9875339384461854,7.590099968000246,-1.7485960279754709,-0.1601409333871757,-0.6504980380979847
108946,,3.71711231477186,-1.688684566692101,-9.81744711432362,-5.835266547630361,-5.262078400169626,-1.5255548032462931,-3.8755220753688366,-8.263307602383959,-6.291613585517732,-1.3906254282909662,8.72877479530635,-1.6904688761182582,0.300763129358854,1.8078378444332517
