timecode,event,eeg.af3,eeg.f7,eeg.f3,eeg.fc5,eeg.t7,eeg.p7,eeg.o1,eeg.o2,eeg.p8,eeg.t8,eeg.fc6,eeg.f4,eeg.f8,eeg.af4
0,,-8.467847526854504,2.0143505987918053,-8.701046605146969,-0.5327282304238777,-1.811355066864348,-2.875316297425436,-4.754495009752628,-4.815863472302864,-2.292590269041473,3.798845069303384,2.723796759025316,-7.17356669655673,10.483259441600536,-7.716306032619958
250,,-4.450363065931072,0.7546215894770316,-9.937726792611931,-1.1760424123865283,-5.943804285660391,-5.143773639947415,-6.504298520612006,-6.931077396143623,-3.9345120862112433,0.1843634537762127,2.4158699410611724,-7.9480955745788675,7.98645168219071,-5.749553520271956
500,,-8.096138438390954,0.8880965426436327,-10.343211490690054,-2.3180257012237515,-9.753838478062812,-6.083580090256584,-4.5936813830377785,-7.425608988423953,-4.862987440632996,3.567126847397608,-1.8806494780999696,-8.258312848017631,5.593903626768123,-5.997034665130112
750,,-7.833906183453418,-1.0017136789768295,-11.288710791257207,2.148466270378861,-9.11892307003473,-6.74732675349351,-5.440386628005848,-3.7182579023097024,-2.6012382210830687,7.951188122914266,-3.246451702722564,-6.122560088273356,5.132913752973243,-10.559691544729668
1000,,-6.841713414547945,0.45036064253448,-10.561420731069248,1.1546376601984143,-7.7024446491939,-4.5132533025774695,-2.88150078728791,-6.147825652870469,-6.475199800563348,4.946630995911324,-1.4173673101809114,-6.44073226399355,3.0340903708136704,-8.587042744528414
1249,,-8.259110403009041,-2.746085957506061,-8.481524314339733,-4.913669213270487,-4.651124132105167,-1.9514732860203603,-3.125020495172124,-6.952814239474355,-4.969877839418774,2.962604652463792,0.2840963104004179,-6.017227219730327,5.976826520030668,-5.626925997351395
1499,,-6.937998587145385,2.153609697008409,-9.468448771016146,-3.582849272831404,-1.4698005621702934,-1.8710280059029776,-2.4996633360596703,-7.615192341646559,-5.252210229729358,2.58989067709573,2.307891507858141,-4.852829072064044,10.174261868626202,-9.22192842880902
1749,,-6.439211655541812,0.5253156781431075,-11.165754657221893,-2.9431180527683147,-3.434476075868747,-6.078948838488012,-6.386401654069031,-8.66828436228641,-5.742125491898192,5.9408238378338485,-1.6769566172583312,-6.269469269019593,7.641031954968902,-11.20657188047603
1999,,-6.619781919859735,0.7610204482642242,-7.664306998864253,-0.2488104804339627,-1.6023001486967436,-7.119366124713872,-7.0017209705750165,-5.606432118769264,-3.2541517812939444,5.648624952612834,-5.095730542747004,-10.505605178272337,5.44070010967249,-8.491153156665556
2249,,-5.991374881656406,2.3116028280142102,-5.370318329617097,-1.918086551511664,-2.237604631615569,-4.311499695334547,-3.058370584498222,-6.3891389360748665,-3.4806476563379807,2.559103076837837,-1.9171063647577096,-3.31847074274784,5.944368930678695,-8.402034280684575
2499,,-6.560786778502045,5.3375863831332,-6.058297725940647,-6.231477839974678,-4.797933685980523,-5.652465712454666,-3.793736865123583,-8.522162459023319,-3.918897614736784,3.0738282712462124,-1.168762710463539,-3.197905002392063,7.147393666301496,-7.47702501377176
2749,,-6.966860276703379,1.9667408967707436,-9.963526590725005,-5.196061825160361,-6.1709870187912585,-4.620120395556876,-4.142169897871687,-9.187399963632526,-5.170806129285857,4.935932873506995,3.3507566649478875,-9.090329150187854,6.988390952222437,-6.849910960946123
2999,,-8.327105143493199,1.508242508116717,-7.683038054284483,-4.166037013838707,-4.103852390430652,-2.0794521973346227,-4.372462172600797,-5.237687705593375,-4.924439367040886,3.6712192326626742,2.248958745819923,-7.716040173514079,7.625064425081644,-4.1594392964839
3248,,-9.666393665743332,0.7595895710457122,-5.341980387495636,-2.5376148158228693,-7.268797276815606,-7.532888425165609,-6.740798906750035,-3.254266315636668,-6.082962268685956,-0.7414457750195481,-2.3784844745606226,-8.176186115540343,1.806083148388375,-3.9425016053275455
3498,,-8.79566618019379,1.9573682611275207,-6.390027732526844,-3.720074615008419,-10.417795114412094,-4.27262828230801,-5.794392386693329,-4.984795491462955,-6.437037068067893,3.631010059653289,2.245556374166058,-8.918518887704849,2.6335841523350068,-10.18717307173704
3748,,-6.248902665801962,0.6550255901955493,-10.41832876806109,-4.509062181595411,-7.369995097439689,-2.655916542513334,-4.846262687559119,-5.298028431222887,-4.43296146490752,3.7241639172437657,2.6526946566954104,-8.935863790357985,3.761309120934966,-10.701082638890082
3998,,-7.484445889191598,-4.851840751632116,-12.539279347569332,-3.034144517588441,-10.250455387896505,-7.6918519769760305,-5.702842117433598,-3.000769809055763,-3.3489053634490555,1.9740348618223116,0.980562111555486,-5.378150414341263,5.2193029881112265,-9.026246902749063
4248,,-7.572306786466186,-0.8305059879084431,-10.552060671669995,-5.77885185831419,-9.470985433756722,-9.457729124115916,-6.279365397938355,-4.074168399313181,-6.238804757375841,4.278171060625773,1.1436390785035684,-7.061656324384849,4.077614691219437,-6.360874574408836
4498,,-6.451463148415235,1.3609461636451687,-8.20608549433032,-8.259304941875042,-6.221175005794434,-7.663744633446475,-6.695368400329492,-6.480572393529556,-8.03079043208484,5.148698698785141,3.2389933980210337,-7.924879065629666,2.780516957851646,-7.165798171427712
4748,,-6.133675539938115,-0.6231356618919435,-11.687329471808589,-7.45712771443575,-7.821552516549919,-6.374065219318576,-4.861256585258795,-6.691474691204231,-9.281571403816452,2.27181368148539,-0.1578663740093435,-7.204377451644271,1.9511945177233336,-7.030353375659189
4998,,-6.773248469830177,-1.2891658947664553,-10.710347085741937,-4.479574972975959,-8.33181790526584,-8.617502182959338,-6.353000306096412,-6.223160075670513,-8.429749266412749,1.2055013375746,-0.5024828771266597,-6.563171502458536,3.244162650879121,-6.569840362048169
5247,,-9.46681572395766,-0.6092718986108487,-10.714446829176952,-4.114893188225342,-7.243564524385074,-8.789762374160585,-7.172019444946312,-7.0798161363092245,-9.820674264723,2.5837767422683413,-2.356459298125582,-7.4378756425821635,4.532717280605096,-10.84327862245212
5497,,-4.861574124632217,-4.205438301832455,-10.859906091232444,-5.990181461932078,-8.341314559686131,-8.996923136265872,-7.515373496041443,-4.627554703793077,-3.999767487676635,5.758035304221563,-3.512797352599652,-11.127253510820658,5.255170241213896,-10.933763637606384
5747,,-3.471878593532048,-5.066082400349542,-10.938233082702611,-7.964904944881739,-10.292956776464704,-5.14019300487555,-7.448005246614837,-3.3349188367273976,-2.6467321748665635,5.129105961158737,-3.917290688519186,-8.269448804876182,7.770533585833174,-9.719459430547818
5997,,-7.4576209126696575,-1.8937455742782396,-6.449589046817984,-4.66519997845247,-5.634721054678703,-2.8536697759278247,-5.799249118814976,-8.339035029318405,-5.959830769788938,5.5976979471809765,0.0775352378536814,-7.359758396026795,8.100291593029919,-5.060183722202142
6247,,-7.794034498740467,0.2269347434217771,-7.207761069425756,-2.4458086845153773,-2.994505879684734,-2.084487022623755,-4.321115165237185,-4.517868661249108,-1.675862367030643,4.672006125311997,1.3443350808860668,-10.67251652904024,5.687702253145995,-3.418186499569557
6497,,-7.868926509365986,-0.7889622939769548,-10.155425351080252,-2.788723123798,-8.600571213733746,-8.522608684549052,-8.861665017590978,-4.984780791438605,-3.507818487079869,2.3212948078708044,-0.7175445006246933,-9.756031815351108,3.383402408133885,-6.336523979214497
6747,,-8.934781909054452,0.0453506038283341,-10.80177903733696,-1.976426553060353,-12.197857377262038,-5.587978612391145,-7.21210503815416,-8.396766902192912,-4.787218733270617,1.0899977424042682,-0.9052719046100032,-6.82124548429022,4.3236527986257,-5.273395323590639
6997,,-7.898589064140839,-0.1900362770332011,-8.038787682345754,-1.375059766216173,-8.785515092745534,-7.362939275377617,-8.452297421613785,-3.617980909486949,-4.660379771278237,1.6697392995229,-1.3014546492451793,-6.57358816602919,5.386407916596044,-8.11233038910607
7246,,-6.729908607775348,-4.140992687109587,-7.990506065031813,-2.720572841568773,-7.643607802946954,-9.813583477263048,-10.28964887074489,-1.206875783562236,-3.5404798671683784,0.8107189263723268,0.5697045705202424,-7.772781069400798,5.565674429796007,-11.497551814076976
7496,,-7.148771588163997,-1.2187930477091249,-9.11872459551488,-4.508207427420132,-8.299196898048805,-6.81892214291643,-5.424912905353123,-5.49385591649818,-7.933652474620175,2.6061466128007185,1.0659405074987909,-12.589887622302182,2.2043267952366867,-11.578838205362514
7746,,-7.605040915295219,-1.7622281851675217,-8.92345091492983,-5.467745244821556,-9.265636296390214,-1.110656994992004,-1.975451703978142,-3.651121228472464,-2.2811725406257324,4.444962519292794,1.7998178380033023,-11.867901387484066,0.4128410888015568,-11.086406530708022
7996,,-10.856335615211956,-1.3112069423177997,-8.579250998886035,-5.482669858964771,-6.916764112317672,-1.2632750996484188,-4.307721048089599,-3.5000005541592207,-2.0291552450706574,1.5224409873467672,0.6803510459800424,-8.557154001727564,1.2865791159781006,-7.9604873312446625
8246,,-10.943603617584296,0.0508096563784837,-9.373922087591346,-5.171783051756278,-5.973202315579672,-4.779227082611061,-6.951071978884489,-5.961468664451889,-7.242213054778938,0.0894151031958327,1.8997971830179747,-4.744514355540313,3.726364361825061,-6.624737022416605
8496,,-11.42167324548475,-1.633544878450124,-8.723131193788436,-6.615527317433356,-11.469769789099026,-5.650819639079518,-6.982365153633428,-6.132557267888218,-6.924816808369209,-2.184907031809145,2.58177020734909,-5.8018631150039255,2.995608143228949,-9.619278837665933
8746,,-6.80240972212101,-1.4898700017988182,-8.642063840545598,-7.042791971941913,-11.321186035351111,-3.725437155152387,-3.6681242428662992,-4.988647249987129,-5.681104737441497,2.3111564503312207,-4.840164926680052,-10.868520922502666,4.689709290897844,-8.810456131965054
8996,,-6.251725642179983,-0.0767980936898478,-10.8889582236244,-5.0953061510886135,-9.382112116769967,-3.5012972102148447,-3.6673639975307086,-7.508249302835872,-7.914260631915391,2.9295731765288253,-4.393971716822748,-6.525008980690284,5.879350662053112,-3.2643939618365483
9245,,-8.195137318480363,0.2802501193578554,-10.039357351175816,-6.991048654093516,-6.450143446082427,-11.076403269850967,-10.572685884045434,-4.981986958318879,-7.395820311539131,-0.1432770451704327,0.0628297871490633,-4.872934311197438,7.310906456058694,-6.654108835668636
9495,,-4.899224775032526,-2.8856254293998798,-11.141186642981896,-3.763990281681684,-7.795670507973917,-11.583129414077602,-9.143977649298318,-5.193332538518154,-5.439879579108292,1.1849682726142583,-1.986274931627657,-6.062844216634714,6.132051439198463,-9.12409734968954
9745,,-4.495884369873483,0.109522286155589,-8.531069405699007,-2.2875366706940223,-5.573441502445212,-4.021202444535236,-5.823991686989089,-6.847227912421676,-3.677050833907618,5.029329427532318,-5.253092147380404,-7.430010010672269,5.817955057340358,-6.622117950236564
9995,,-6.047845616067863,3.343914122493315,-6.49901848238475,-2.2840185169091205,-5.48477827208067,-2.609622702388264,-4.190595585435696,-9.21126766213206,-6.370813115027163,7.232678997576503,-4.8235653415611335,-7.46177189016207,5.647433414540311,-5.42891605208668
10245,,-5.561145752563391,4.992627767031864,-8.731498958078902,-2.6434208265799186,-4.012516751438707,-3.908960941994232,-5.055383075405201,-5.6176533770274855,-7.5740994094124705,2.479725764998641,0.0379842213465041,-5.157297114012538,4.6800775529338825,-8.065731498585315
10495,,-3.026396984481144,5.548968395313789,-9.584915171978237,-4.036770112323189,-3.9881166556599874,-0.8393740763252298,-2.3101959225632256,-8.408297992579204,-7.149751406195255,1.371829489191621,0.7202606806026126,-7.880118446838908,8.05962595110486,-7.747199331006236
10745,,-6.655838296457657,0.4474547341586934,-9.386848991700203,-5.516756832253222,-6.502572454994336,-4.769790403583748,-7.248287132801576,-14.656585447681795,-7.32720365095548,4.068762830237916,-1.509383271473962,-7.902778010979455,6.854095080875068,-9.146938620875073
10995,,-8.34936647972724,-0.3688410174383948,-7.46272262633232,-4.376080279166827,-6.755472832555966,-5.944726699468359,-9.087532712910374,-12.392367601843112,-7.133817507157463,5.191740944260351,-1.9724124888198484,-7.303833251182858,4.189922394755033,-7.995234954457135
11244,,-8.808354424267256,-1.6460867188333173,-10.359392843969175,-4.588596135046786,-7.069221364141577,-5.358868163539142,-9.643116239764693,-8.609430710896065,-6.701861018178059,8.479116164908664,-4.178748805045073,-10.282752106431335,8.15884829531578,-5.917523202543318
11494,,-10.404316429575768,-0.3745600459569446,-10.628180301448944,-7.563062307806172,-9.385061307860983,-2.840948025115864,-10.940173498785366,-6.310307454323814,-11.286053101531534,5.1783814528478604,-2.691711785741839,-5.833626035457687,5.097349984041214,-5.533735812639229
11744,,-5.912634216073288,0.836485979095004,-10.542852122383357,-3.636777594163739,-10.27995271605004,-6.008567214724792,-6.79885500515777,-6.187228212052136,-9.36747901060576,3.2066184313926858,-0.1993843230585264,-3.762046471626765,6.897167897770631,-9.574341479248332
11994,,-7.873576632694245,-1.91673249234966,-11.73845238662734,-2.564577999777224,-4.700375646955747,-3.422300584580409,-4.829061422793026,-7.658570217840123,-10.156096707498484,4.019304722360289,9.69275284697055,-5.966602702630879,6.177832975084328,-12.345955463319864
12244,,-10.64026284755995,-3.266800838541901,-11.333452398596748,-3.810894938182755,-4.020617959437533,-3.9487487803353063,-8.858453712844748,-7.774264186977567,-7.082041186967497,2.6382256302304685,13.54024089617954,-8.879040850112967,7.269219769811843,-7.846835767355468
12494,,-8.189604656982043,-0.8419066825146015,-10.21500714642006,-3.7871450274822713,-9.253576821625396,-2.500933219941601,-5.117142799986514,-5.044240803159567,-6.3630157990984095,-0.8430224028745642,10.805915346554574,-9.410824513794234,7.763788722122996,-0.1811541635517802
12744,,-5.541619613906451,-2.393655541959488,-12.029097287158947,-5.032106147753861,-8.455153439047699,-3.278174704048311,-3.943693631742209,-4.951468362634691,-5.461712400982114,2.713830315149491,2.188458892514536,-9.122521775654423,7.725772941009808,6.681418359118302
12994,,-7.993946386630602,-2.067010186306176,-13.046819449460358,-6.319699692817097,-6.9489439275896805,-4.760259547690605,-4.951381852788338,-7.684810606366228,-5.760757110834659,1.3207870371437629,-3.3031121146653963,-6.131154216162823,2.360779079164353,1.8929532406486251
13243,,-10.639854573369176,1.0144044929755782,-7.468887709533034,-6.618182409210641,-4.731264401122942,-3.4269390598362626,-4.313793169544161,-8.532052102843084,-5.596663989725801,3.973934450520453,4.087128442603271,-7.9345282697727555,0.5937355249457403,-6.374953494774132
13493,,-7.034974725094131,2.938581485289946,-7.392694717463797,-4.501359032236624,-5.847307942250865,-2.814022470864363,-3.167506497892222,-9.815130250807636,-6.382796323194696,3.9998566455089017,4.080845251585894,-6.944913598646072,5.6949921423662095,-5.9709692447123
13743,,-7.358825871538464,1.4233722660043382,-15.052353571956871,-5.182166776604344,-6.095905518247643,-4.77833935498141,-8.15844183175657,-7.030740079835707,-4.807646365759331,2.0312302210153885,0.1629756203296135,-7.997981013045368,7.915323524871313,-10.640760037501751
13993,,-7.285952952187848,0.3348359013040957,-13.968995396523962,-4.843405419854932,-5.933326477715171,-7.324510374902021,-10.848793777238171,-7.759511573569635,-6.855185983865929,2.923549576091817,0.4562934808466419,-5.210563410714448,7.068779619174634,-9.704496411529504
14243,,-6.623318096739221,-1.6652886142408745,-8.541355891330152,-7.556457577791097,-5.970030920849486,-4.916375576073568,-8.650409467132903,-10.113255666227214,-8.255173127415528,5.0207391819401685,-1.900471253885848,-4.996923753428008,4.416492209614051,-8.694762728387005
14493,,-5.174895519586563,-1.3800149211823645,-6.136841589558291,-6.038378416244421,-9.932695273731724,-4.951206879872511,-8.357342970929217,-9.32653333693246,-7.481846532683115,2.721632196267463,-0.3826991622865727,-8.36182469156787,8.46015452950128,-6.700251975550481
14743,,-6.215284104498654,-0.1352469509450123,-7.699073800915882,-2.460558508613672,-10.858561332160516,-2.0647134766660398,-5.09583454150733,-7.49646046564296,-6.295743463469651,0.0227288822267888,3.7112191695277694,-11.381534291147393,8.809464635051095,-7.362659295295383
14993,,-6.4980296457063,1.0587602625342891,-9.48359191496582,-3.722677123267269,-6.697920114705247,-3.327606620859096,-5.286370426953825,-8.063287188753648,-7.672681205453157,4.359635118868928,6.312820017117467,-8.176347552586998,7.30528377503733,-9.066132178532962
15242,,-3.3943108451332145,-1.8823027149654612,-7.419380269068036,-3.994641236594752,-3.674844916415117,-3.1514407170759946,-3.456865750530293,-9.120535874094932,-8.336984548590618,5.872603456814696,3.367930023968117,-5.657790934773056,7.199860256987389,-6.772554831335787
15492,,-4.357606688818517,-2.7064247491168087,-8.903504787581346,-2.276070205171477,-1.9010792405480208,-4.132462695658963,-4.454148821336588,-7.750133939552088,-5.688453021354994,3.092152078101314,2.7216252854289644,-5.594451392227036,4.977876907812114,-9.529257646742526
15742,,-6.556734596329762,-1.5712808138134762,-7.523024877806771,-3.359553671622611,-5.809182598206574,-5.360966169089371,-6.479798537123561,-5.34812210146419,-6.147437660754116,5.55840228350309,1.629555248351554,-8.76934624830588,5.594476921722956,-9.135893898482031
15992,,-7.337802200749593,-6.8298144091930615,-7.072200003331036,-1.974432907694216,-6.300702826643754,-4.591037673093645,-7.941784693455203,-6.543992775259747,-8.112507284625872,6.959056312276354,-1.2817161366139738,-9.10771901898249,3.485714301443755,-5.522419152072844
16242,,-8.204233689525683,-3.851186529182337,-7.635581528777485,-1.7507802410326136,-4.80299448741415,-8.506251055966287,-8.004242721798803,-9.297711691757236,-10.075648534311824,7.403140803082133,-0.7037817565895879,-9.413800840214051,4.782825863835701,-6.306962878957057
16492,,-6.500752444641549,-0.92178592269718,-12.032489959663868,-3.9260550934808895,-4.623625991566138,-4.391220255834616,-5.469485898064956,-8.170241854170957,-8.90304937253264,6.576129516834399,-1.1244634449908713,-8.714313243148073,7.715086270689376,-7.795831109536505
16742,,-6.638058659909454,2.3335226360397647,-10.411508678559274,-5.369169715265784,-3.1728576856372293,-2.6811815079797565,-5.5272339884867385,-4.478789534422053,-8.292791751897536,5.57515581366656,1.1117258557679903,-7.0018458868790105,7.0646830339267686,-7.945630992561128
16992,,-7.920238708590763,1.967350203686515,-10.609992181025362,-7.186959082007731,-4.360820742119226,-3.0245068058176923,-7.879410377107126,-6.526431495219947,-8.241504245816827,3.50527820803233,2.065077053873784,-7.845848226439504,3.575854920321469,-8.317064711321953
17241,,-8.839312179335083,0.0674082865078533,-9.228142176808262,-12.823449455884411,-4.725668127838821,-3.039051681137685,-6.324084122710291,-7.119525384731739,-5.26934169580281,4.000878810184137,4.013150799181291,-6.177867772757849,5.815415532039792,-7.805152067773625
17491,,-7.298466964920892,1.784124201490648,-8.731800766381925,-7.744858474392302,-5.322825688236406,-2.264633540588469,-3.5634775839861064,-6.441500435613125,-5.520473827284461,6.131455592055712,1.9162681991235924,-6.565581930863441,4.157037930542354,-10.406253129319252
17741,,-8.850682944295567,-0.1594266891603148,-10.73610010562678,-2.3354211566912912,-6.707196835382119,-2.270337410401396,-3.52229140293448,-5.654849597780823,-9.13186762328018,7.081623791843233,-1.6616009352838204,-9.28144497372172,5.400150107654516,-7.862155348959877
17991,,-9.969396760478212,-3.47541216845615,-9.443081136083734,-2.3332132518029463,-7.68833389546943,-2.5300315434971488,-2.6072122479496573,-6.064480304004233,-8.745636345044696,4.331439846508213,0.2625154246931557,-7.288905556573866,7.040974646670575,-6.275621578156043
18241,,-13.315152080319638,-1.6261898982794576,-7.209487139452153,-5.56376806562224,-5.024972859248283,-2.3849551898350456,-3.1970157679010085,-9.53805718346621,-6.570646854410195,-0.1155545193724806,1.5087770415445756,-3.6110172547675248,7.653851594566968,-4.185462542158937
18491,,-12.085657471002747,0.5609339548968352,-9.52193875016604,-3.7379620707250414,-2.173535505325736,-3.2289382282742496,-5.264248287339645,-7.077659818048218,-5.376368284740771,-1.6674218975155664,1.8259686350744129,-4.601788469805592,8.93699222862763,-5.12334009676192
18741,,-5.886761322121713,-2.617447208281765,-9.317837832007482,-1.4493656747515735,-4.555144292741354,-0.8620604514756985,-2.387604882097732,-8.27761802331163,-6.940442481333891,2.2660745888744445,1.9806607467758348,-5.3255347052494,5.697267751429137,-10.188523634516343
18991,,-4.97918009075195,-0.1715910759821133,-9.116644458739268,-3.6714536093284496,-5.633232404085337,-0.3263895079839571,-2.977134974879279,-7.740936957227932,-6.65612593234722,4.760026485903468,1.550016343192029,-6.142130814110174,6.562386476155772,-8.458432141950444
19240,,-4.709349630114233,-0.3876705726944828,-11.593375289052233,-6.311791111212518,-8.246858281299286,-3.3703692548340527,-6.457893501741959,-8.909216018623724,-7.59656370003031,3.767502804136339,1.2452235085841887,-9.16230418012036,7.992442207508635,-9.842209003838484
19490,,-3.0936929019760107,-0.4053954487365057,-12.050330725529726,-0.16729125653493,-6.684364196450425,-2.4004479136554604,-4.577474115593874,-8.742620412542944,-6.297882931990025,0.5366958724406747,5.72593461378492,-10.419421972719457,6.061532890309918,-8.768145637551694
19740,,-4.83291240707341,-1.290071865791431,-11.13343245961833,1.0584872235735026,-6.407701575879756,-3.4842938841960924,-4.909437462829535,-9.100755494349924,-7.050444320144362,2.7950341298184296,6.336862887997264,-7.797974267142768,3.696199978407143,-10.0138770612719
19990,,-3.406187880424925,-0.4689249949415957,-8.166776243726945,-3.327366365823814,-3.7723384206530426,-4.351953863077338,-5.544733642728266,-9.253018671100122,-10.469043341604667,4.316085931078711,3.456117454267804,-6.76630897888953,0.2597082328597612,-8.772702709599498
20240,,-5.570446517271739,-1.0295499097033716,-6.794313306840096,-1.4775906285460008,-5.81139022049181,-3.600631173527737,-2.733814719038495,-7.479468161328665,-7.736489995969581,4.475669698597117,1.0531983847566206,-6.869308677202385,2.209754222595085,8.72727243169513
20490,,-6.345840857865995,1.5755407080090398,-6.890466344484926,-0.1747929640998027,-4.500144012162279,-3.7348310436466905,-2.495555460024834,-7.257947996355368,-0.8274864139544307,3.2975125944880683,3.339108830260535,-5.682360366344838,3.6319628911389823,10.94986945089826
20740,,-7.114672841565705,2.043220632137585,-9.590548706130376,-2.3388494900432333,-4.820349256616808,-1.670200565193241,-2.761572169652831,-8.088325088957966,7.56113268774175,4.625754407885551,3.5198428539125706,-5.330091105231038,8.409122215610198,1.181144687265934
20990,,-12.360414030962875,0.2449917874853621,-9.841875592116958,-5.039333278621024,-4.905826071065468,-2.717330591246566,-3.533714595301593,-10.785694625601373,4.081776677854203,5.005666939084829,4.81624902911358,-7.826676582421173,7.494032927343881,-8.933508277442376
21239,,-7.885031573417471,-1.2914170283146509,-10.338662315213746,-5.633906018483305,-6.389747002315738,-6.9633581638974364,-9.875453225749729,-7.750995041399133,-8.981870415664016,6.582236602718055,3.2786384706105425,-8.41187359761267,2.34530417522802,-9.144494852812006
21489,,-6.617385525579413,-2.293522815189597,-10.118054926755724,-4.405956726176222,-8.671644986571309,-7.350623648672202,-8.225213873149833,-8.879733122249245,-8.750855768312032,4.903869000166877,3.012731986856764,-7.343352802754275,4.263782474700327,-10.126508056903212
21739,,-8.593161888329723,1.0771394897615103,-13.026607099959032,-2.597378577910315,-6.800225144396741,-7.991748984085973,-8.174614794405514,-6.594343450062622,-7.825294353905168,3.831929410234177,1.0402505598136316,-8.308392174029361,7.013532796556601,-11.251296143761628
21989,,-8.845067297882128,0.9211248946076824,-13.62716438358107,-5.519770428196679,-7.3741820510459055,-10.825621980337225,-9.60798734049852,-4.577845672309671,-4.488792012776373,1.021161124439721,-0.1395515334803571,-9.9532019655391,8.338235122489696,-12.846245251288405
22239,,-8.193983579910299,-1.4188666816871542,-9.71634483738146,-7.33464538082464,-6.960855310139293,-7.829244682156472,-13.69891719101015,-7.218827601209197,-8.22094710644254,7.619629046646246,1.126026746619597,-11.149869582965223,8.56970991424445,-13.09137051094008
22489,,-10.292667232393926,-0.2705573632428918,-11.056885840562362,-9.59372800463352,-5.882184125037208,-6.228397019734004,-12.014786399791188,-8.025544356733624,-9.986000043599969,7.472493218357265,1.7679011900546078,-9.995023583854666,5.8646797355793705,-8.860463729260648
22739,,-12.16998057047136,-1.6028653606194885,-10.313881827357786,-4.492867827743057,-6.5359713714894605,-7.926035431333055,-9.727111421489193,-10.5308958567033,-7.67600266166133,3.2684924776253057,1.0055992976643062,-6.963154863395021,7.686311461885815,-5.784791137807945
22989,,-7.206849093857053,-0.4553204000051303,-11.102631972350732,-0.6102890184801647,-3.4170224298502627,-9.471031768501284,-8.573187153968801,-12.365742421705374,-7.214514854952602,5.057004717213911,-1.9992006962130395,-5.587903586417412,9.338429725453402,-8.817467257569003
23238,,-8.538452911285416,-1.8622072764135555,-11.998597594911065,-4.529002678244798,-4.162319340363641,-8.460882810501175,-8.618846622293924,-9.471035898119425,-6.272805614009458,0.4097358368068494,0.9007086079006212,-9.943554123847296,8.082728705599624,-8.161137703513733
23488,,-6.837970714935286,-3.1141308787418915,-10.053642345934628,-7.901070560188912,-7.400213157090416,-11.088854536993768,-9.06758078066824,-11.050074839163852,-8.412364858935028,-4.660014739063129,3.186266199566389,-5.719346253597664,9.1190919770938,-8.17620966282886
23738,,-5.313464532188775,-4.2188924540656885,-11.556277589531344,-5.976017408831843,-8.10393116380457,-7.361160988414009,-5.3238886907082525,-9.309859675689047,-5.962644202952489,-2.4907553211462723,3.0029058876746544,-6.374138006466021,7.225860657155982,-9.594845777881396
23988,,-5.865175332612486,0.2968262271616463,-9.093805497298446,-4.063335984098815,-8.327426240610038,-6.384356590195562,-3.7812763830823855,-4.506705016374212,-6.875965052662767,-1.9895606462225763,2.055159878197834,-9.876533902531524,6.287814510858961,-9.162248200823123
24238,,-6.111885241705314,1.1621461588593327,-7.866195287435894,-6.40868621784929,-6.745215807974433,-6.932772410670336,-5.262888883625499,-5.152432537529488,-7.743217339009849,3.362809253388444,0.7455895141138903,-8.203430492717814,8.14171510516662,-7.4382124517324275
24488,,-5.113723456555164,-1.3736703878991543,-7.448228214700285,-7.786421749410769,-5.14058934633559,-4.405499867848334,-4.993322699555941,-8.061982150445315,-7.741005732377822,4.640418142601863,3.947187369269456,-8.305511138548436,6.876979278545237,-7.276409348240916
24738,,-6.453618445092658,-1.2045883576653833,-8.79482216373265,-6.207820174089095,-4.096874641516884,-4.644467508962855,-6.031069411639143,-9.804570328931886,-9.136250277943688,4.303063937316062,3.82806184630696,-5.302111664549538,6.436643922691814,-9.104865288413327
24988,,-8.374808148671653,0.60827813454313,-9.907185827449606,-4.68432571921431,-2.112683262700876,-4.537810809537134,-8.326378515846454,-8.772241563035271,-9.754507694342418,8.418119729487834,-1.446393833772044,-6.167942030623319,6.562822893696611,-10.327527528959026
25237,,-8.70097008266007,1.488371334412928,-10.590374119537763,-6.623556845438055,-2.7772789182779944,-1.4615024005755364,-6.088348136103959,-6.908246932961869,-8.97409716064087,5.676380637507839,-5.871918035792165,-5.795592715172926,7.593991558401325,-8.726313622953151
25487,,-6.814942463229501,0.4442421636757823,-9.320458370130426,-5.816033394193768,-4.775222722535923,-3.324034378176344,-7.245289806246293,-8.032876277390558,-9.408902570070673,4.450623478792775,1.587385301429569,-3.9197087616296953,4.773199447071095,-6.594281606442584
25737,,-8.80739445798245,2.6900881022985046,-8.147337577074882,-5.083153343776972,-4.275647838027305,-6.853004031119102,-10.131928997710968,-5.673186194622797,-7.456244564557792,4.938585847599766,5.918272393041073,-5.76029771946025,3.2242680182530044,-6.372091014539861
25987,,-8.630978663743422,0.9497409638731348,-7.029804710704815,-4.779551393928211,-7.093227202311155,-9.23605182174483,-10.7390016319997,-5.129376358991394,-6.590399524681035,2.8445317877658067,3.988757549713714,-4.233719964409751,6.575519393503928,-8.730881519293908
26237,,-9.264492190202812,-0.5485317757387399,-9.824189652334304,-8.568017261049995,-7.466512356936085,-5.768447603318249,-11.09912730367152,-5.999127863994129,-9.19312195629448,4.920465593260785,3.5635007181233203,-4.398611494246566,10.147706091647208,-8.190306303955943
26487,,-8.82110861067673,2.478507043052841,-12.587629002743272,-7.716217221759836,-4.010732972436381,-5.090213783463923,-7.754421340668676,-5.542941691350601,-8.111203964235528,4.337381065409234,2.155473669671601,-3.505839546056629,5.268749938559489,-8.403748182965675
26737,,-11.063263831584006,0.5935417717917597,-10.203657530630071,-7.996672036639465,-5.658047552638124,-1.6154051905438338,-7.266847132663776,-9.909550054748424,-8.36147026862166,6.4826048499845,0.0864156028267194,-3.7539761017172975,4.730770227475692,-7.780653139762261
26987,,-13.750905590525322,-3.2966985752545352,-12.076475760662852,-6.3905951305719055,-5.217977977372437,4.756045805225409,-6.676790824130428,-11.033339581234223,-7.340462321372581,3.234606002665509,-0.5606773277382358,-9.084381261537542,6.321704640454893,-7.459762516928166
27237,,-10.002772729537046,-0.8863577596202934,-8.590497637206996,-3.401265208455244,-8.129129381439757,1.080991196258235,-7.502602498153425,-5.846644014372092,-2.328260555671811,2.516964260513896,1.185238353934826,-8.233980059617497,6.537515217197627,-7.746420798898611
27486,,-8.203858431303344,0.2724858934908403,-5.712057046308877,-4.343850643171602,-11.307116171005706,-3.118600859600173,-5.379534455320041,-8.437024598500141,-3.264285670832413,3.9954432729622376,1.5039619439941407,-5.770769727108903,5.441708239087354,-5.747750381755864
27736,,-8.089916357440202,3.839906136726902,-9.231433399165612,-3.743628978754722,-7.191224930875561,-3.520921510069929,-5.271499677165943,-8.136796836190836,-4.66201373366657,6.840074270934946,0.7823046857263215,-6.1852221697690375,2.825911693053266,-8.62486976840755
27986,,-7.96877619077798,3.290758224358764,-6.499549323553855,-1.4045758438623266,-4.978162347285664,-3.9205998691250383,-3.8113981541256607,-7.423112139765385,-4.033260505327374,4.378693510421244,2.2666828214808223,-4.282703131641927,1.1237800236328848,-8.919591604958102
28236,,-5.249988194717093,3.284686156146408,-4.66677624941871,-4.046026963929266,-8.22566387597725,-7.150909939135026,-7.014576469742585,-4.893940508630108,-5.603248919950744,5.833607543160888,5.087710651286673,-2.273711782204612,9.52563048101309,-3.200184597479158
28486,,-4.602007199766974,4.367943675562884,-5.5089257618986505,-4.156399889530277,-12.588367608726546,-6.162477170888076,-8.232370885454197,-5.675436557593779,-6.187592449797501,4.001244965514024,3.7259357065160073,-5.912041205704588,10.354378180701652,-3.090299544221785
28736,,-6.112542625340332,1.7823275010027828,-9.583501899931868,-3.652589987143052,-8.435828154903781,-2.9134670158904967,-6.270912659772475,-7.117885385421705,-4.8568542596197934,7.129254010169928,-3.3747744337744194,-8.395400378101902,4.756594264948082,-5.010522338482572
28986,,-6.586273897252051,2.0478381839764466,-6.754662764020203,-2.325180776744433,-7.946109599652544,-4.725191309574795,4.336338184145957,-5.504137016569995,-1.764966155269463,7.242833357676199,0.5093218478859944,-4.338030858446949,9.338953506936212,-3.285518313361217
29236,,-5.855541044041457,2.5594726233851754,-7.802799966995685,-1.6153225585760012,-7.416678728914858,-3.948962014381623,6.5876582622678725,-5.012742780311513,-4.719623718790297,3.961602038850254,3.185641537243283,-4.251828155304541,9.285894207018808,-2.8996452481493
29485,,-7.2834605037900815,1.6673271018294025,-8.425886976453164,-4.723202523809126,-5.383555350331881,-2.186902989407417,-1.5412219312710285,-5.965601181674577,-4.1734306380517445,3.828272930380081,0.395696241127375,-7.8617294227187875,5.884665086416375,-3.760306590089857
29735,,-8.041935620355812,2.3342196968221227,-9.187701028190338,-2.7026016843677967,-7.059321449175586,-2.932881930654565,-5.831910619998794,-7.540075378764195,-5.8865676827398286,3.492184693666252,-1.4784014127043932,-7.301405649415502,4.693453366375681,-7.05482915260426
29985,,-6.868252720839758,3.2383427563902947,-8.399330475336127,-2.311186215160268,-3.075167374326328,-4.266923232681481,-5.735689878710407,-6.277761412283996,-8.687143404959588,3.5328074466893127,-1.7911927810377613,-6.603337538759564,5.550331277482745,-8.410314073754897
30235,,-7.43451720420709,3.1959679638454483,-10.63432655365934,-3.706411502261626,-2.8755910459638923,-1.77683215073384,-4.819648951176123,-4.246797837637118,-5.796939087739497,2.345997343288082,0.3118303391502364,-10.90389890814457,7.397538013111258,-8.138730627146865
30485,,-6.481902559712408,-1.1741215092107111,-9.81664155150027,-5.5884067266199775,-4.055664914849094,-3.9643298027631015,-5.6986327040431926,-4.856954536680926,-5.196065550698714,1.1282155344479925,1.7544172703061032,-11.55246468327775,8.586682738291252,-10.33843836707214
30735,,-3.287208909020265,-2.322422326613896,-8.314961352858841,-7.621892087724976,-7.227487159097352,-4.703366393608687,-4.8445009482661625,-4.214828698805126,-7.9056656771582094,2.234836566669557,2.422509183447864,-6.599307063932654,8.06526063111262,-8.209786489952
30985,,-2.5967473024100407,0.9494103963586618,-6.035199484127008,-2.108644459128726,-6.198686324995913,-0.7335036556192882,-1.782520050530627,-0.3326322722937841,-3.292738754498459,3.3878118127929757,3.43499627891531,-2.981450962865446,7.036939794232571,-5.285191078752229
31235,,-7.93917676933158,1.0667137897717938,-9.290464253929454,-3.1363163366440423,-3.182467615795792,-1.6577159854164925,-3.590232772312314,-4.529989671668735,-5.852645576832315,6.7669961025040015,0.9295863398939144,-8.089468393300193,4.347968805044962,-7.220699515162919
31484,,-5.127580875485541,0.4908842295635093,-9.092231818214708,-5.425329688773407,-2.398293790842198,-2.324944074934468,-2.47699921659092,-4.500599669676328,-7.054947706725191,6.887549100315964,4.804130803408067,-7.629297211681423,3.4693015523304918,-11.084834254762086
31734,,-5.9402095757845,1.4853230780977849,-7.659942235360607,-3.2547127309783868,-0.990206265960768,0.4960236626405031,-0.3791200189639993,-5.520074206702623,-7.859553788273297,7.846794083376096,1.996573113152126,-7.342011036642349,6.993462448819776,-9.356654835624584
31984,,-7.440979150222922,-1.0182261018742338,-8.575349225947393,-3.746886698301189,-5.017612894641376,-2.202529035100589,-3.4605867848187906,-5.59232833760227,-10.873798188716348,8.034114169707102,1.1919470624223256,-9.151163981576024,7.502612032869679,-9.139645659191885
32234,,-7.993154348037685,-1.6091316754108638,-5.441198453570378,-7.582907591676687,-6.8920403395405785,-1.945122630969793,-4.330438802105624,-7.346200721827243,-6.362153513186868,9.28257476626601,3.376232014745708,-6.123267963764395,8.422205548459207,-6.914272073530908
32484,,-7.155156638565126,-0.5159876436672457,-5.222793232083713,-8.122874963483113,-10.299958684190967,-3.9511257486676463,-5.272279684706909,-8.848286283105832,-4.265597688512635,3.0119901269398426,1.1896318247890674,-6.6198309722968425,9.250615795713696,-5.753184377817564
32734,,-5.29720865807702,4.917826758681359,-5.833788101559859,-5.701167434665996,-11.042529967576746,-2.521655557763146,-4.769867050366958,-6.8828470912773945,-6.340100856049961,2.1781417074122005,3.2111896002052864,-5.965416540722987,6.885995316122376,-9.571131087342168
32984,,-5.688215272876289,5.848196496554662,-4.456497040082126,-0.409434695923038,-10.485677928936171,-1.6192786274092918,-3.471177418317209,-7.147016307644602,-6.238345978170204,4.158674240360042,3.302084816174885,-7.356618268627589,7.870625819470089,-7.577649761111039
33234,,-6.566213658472064,3.34465170054657,-8.043067122886589,1.0519939308585615,-6.747063961036246,-0.5668555877653259,-3.050597576726889,-9.711723611343514,-5.746829657383838,6.364695082946897,3.157718832504756,-7.780146211935966,8.288781273229771,-7.782272156373258
33483,,-3.808466537636432,2.8523243522187736,-8.605087044117852,-0.2850059232108635,-3.784302858811581,-0.7853185227610464,-4.31708871591831,-8.245651821685215,-7.479816536969153,1.953092941251695,3.820367857758416,-9.51432441040534,9.089174742695125,-5.852317681204769
33733,,-4.624806993011421,1.879459819335973,-4.905545097613434,-4.532201127911248,-4.985956333492666,-1.032375054637603,-5.612011614680272,-4.198351367105903,-5.091391297874726,-0.8365562582682612,4.0222787321444375,-9.557110052052638,9.40297275258802,-3.9227883636622174
33983,,-4.394977221978874,1.5970310535776011,-5.87231109652929,-1.9621291701090255,-8.979171035756245,-4.9372674046692016,-8.967587057750254,-5.485414743949194,-6.806102662059724,4.576976103196357,1.256903347316742,-5.770723528493424,11.388802104577822,-5.878983704360929
34233,,-4.127261340335778,1.4034000129302897,-7.940864026609833,0.4211778204886075,-8.477016620201544,-4.059768879105254,-6.11647903912202,-5.532789268372465,-6.1468367447489,5.6677148530310575,-2.8685167708015675,-3.621029427986495,11.534595469771345,-4.94162717101088
34483,,-7.831378197593076,-1.7871265440203998,-11.020000837726707,-1.3506766905760992,-6.017591895397889,-4.725708146691309,-7.529600781444948,-8.132142176692673,-5.737094793197298,5.56430537957454,-1.112282259106072,-7.454268225695145,10.14949214572994,-4.647640699985294
34733,,-10.736518521991258,0.5040994679783927,-9.71205008131082,-3.8830201165100577,-4.4518896645609365,-5.0203907670672665,-6.076347205925528,-5.463661251418692,-4.26982260301024,4.982741015922371,3.977494480741118,-8.751797008767046,7.893877060493017,-8.452876399919296
34983,,-7.948624984915606,1.8018656379243985,-4.892332458822724,-3.487905055157376,-5.1835548828427145,-5.279242462085646,-5.169805053638759,-6.084775816673398,-5.176778507011475,5.351982845131733,3.2978255936161105,-1.611033461469139,10.400348483335664,-8.512000649090762
35233,,-9.2448504863213,4.298053437893325,-5.06101282106971,-1.980674030315615,-8.524640391199688,-7.383605918993483,-7.101396391832422,-6.811847610543016,-6.799910051559771,0.4151111363073992,1.9082649962675475,-1.562860288197168,11.246715762100935,-8.686002630533743
35482,,-9.267774382189527,7.065636618784087,-6.737248628887472,-1.433850422328538,-11.115629238170474,-5.061110350844382,-4.70918310426275,-3.991384785443918,-5.328768252986851,3.174701520647885,3.2994131196863368,-3.8981471533045617,8.838199248852355,-7.615498499090858
35732,,-11.832355519626134,3.782797957144112,-12.428285515467069,-4.152557535198144,-7.717719366834158,-3.4535431847840306,-4.385682011129079,-7.370722478245236,-8.209269276102283,5.471940670178928,1.4247723402403245,-7.560061384070816,4.805502247253386,-8.678579492138947
35982,,-12.750494478855094,1.203434310638518,-13.123622853427849,-5.970032779683656,-4.898087036424961,-4.774438128022467,-4.799499120708884,-6.935439752861558,-7.661869609461975,6.008446171460217,1.0826759182367658,-4.785197114998192,0.7420218050451217,-11.222954718140276
36232,,-6.054913054350145,1.0413976096136304,-10.024540639817229,-8.414102303743519,-4.8908699625193055,-1.9286063594109384,-2.279341121724478,-8.622779900356674,-8.97059286301082,1.1314093772718616,1.5207680917697095,-4.461656567666141,4.130090595783483,-6.511910142432178
36482,,-2.2257239128898183,3.691624148979219,-5.055541853195777,-6.151327233600826,-1.0098046323981364,0.0949495510853078,-2.35327081446124,-11.357601428818654,-8.95601306167583,2.7296021995784274,1.3477739036397705,-5.613055062458416,6.205253888023179,-2.104672656044458
36732,,-8.160888922647263,1.163196456206072,-5.596099379468323,-5.3465687083147575,-3.5672400809382725,-1.5716360260534192,-4.593672018136319,-7.926622241118562,-8.516711675069043,4.215878497530462,2.3091774544517585,-3.6728803892261386,5.130527781857487,-4.169420980242778
36982,,-9.2677997691636,2.275859062368492,-3.750175162132245,-1.4021081382392655,-2.593857390144395,-3.573382451055468,-5.271671574320021,-7.826351381153268,-7.026462564590112,4.658175210069099,4.000611104586247,-5.425272543739638,9.479862121928932,-7.173158360582736
37232,,-4.35528546541957,2.7811566949417106,-5.885627616936669,1.5645553637202,-1.730358923198492,-3.368675639003964,-4.876802430825109,-9.084776132245484,-1.5341281808531932,1.4954392933795675,3.1524410873670483,-6.037037901680959,9.968030823342335,-5.853439025498841
37481,,-4.90318088512098,1.397075596727249,-6.844168838563932,0.2306818823844682,-2.7021069075781394,-2.6196045364935188,-2.470845225390017,-6.055180422301133,-3.538165442822732,5.058495785510571,3.838658074460063,-9.12438323792682,6.4824405416749205,-5.310396990019104
37731,,-7.157799358488911,0.6775497540277732,-5.5972335400329145,-0.7645227673282974,-2.6074196125841835,-1.6919426182230424,-2.522007900596285,-4.473919866598301,-4.981844920688053,5.494249193144178,2.6190959283947275,-6.746769279054804,3.8407417473127103,-3.6495105030164137
37981,,-5.622068841097264,3.605012628083224,-4.525548230225099,-1.929602472712396,-6.061842278047952,-1.82512897906271,-3.2564582057269176,-4.133531789827317,-2.3396305681723764,6.73471927365952,3.297684866405313,-4.149519242876269,3.583800794732645,-2.442503282040007
38231,,-3.4040925423195474,4.130600539297176,-7.43467392733829,-0.2497658375889158,-4.023990114971834,0.4661739746839474,-2.4236373665157247,-7.764508468799924,-3.9142324549125567,8.304079332824212,5.61750489793906,-4.715146018470468,7.327705896836584,-5.902646325993573
38481,,-2.058079582342617,4.186818173709661,-8.56363229422894,1.7350794806962262,-4.010520958537973,-2.236304442872126,-5.022702279607797,-7.19723131659067,-7.663843480559301,6.375184989923371,4.419546581449288,-5.14497661872382,8.470617590760115,-10.486481313487586
38731,,-2.511434594419563,4.006177897919125,-7.962757763852924,-0.4804869221116445,-6.387353206627631,-2.3033714012896893,-2.6932324993746053,-3.126968417764628,-3.737625652180591,6.239018309945486,4.372586038439682,-3.376519899703769,10.425066697102556,-9.836898357586096
38981,,-7.391194390409533,4.010414915830039,-7.399825607659364,-1.5259454446207386,-5.488914331241313,-1.5703403151774065,-2.4135118702941605,-3.3878912472759475,-4.161206789615429,8.301716940473515,5.85955194971619,-5.269033993015181,10.531048316723853,-6.850451382669331
39231,,-6.578129231207525,0.5785986677621812,-8.29018718956679,-3.509190845093832,-4.458071610175453,-1.24935955996409,0.5837144215339378,-4.245049509881151,-4.602970204526468,6.355719632162014,4.612380303402849,-7.143203701390037,7.22645837244423,-4.250584267848211
39480,,-7.235375947032049,4.195719916917525,-6.103422710157976,-3.2304359491415617,-4.0023826735077455,-5.068265707098387,-1.0041546176225986,-5.95338252855046,-6.186487735316357,5.622009404684906,1.7779116688468752,-4.553312797564492,2.9200604393910523,-5.046269197732527
39730,,-6.863997933610106,1.8416424588396585,-7.635242070256601,-4.948054190783394,-2.620872371419072,-4.336084763527093,-4.829084520531898,-4.823706298189868,-5.741073078123326,7.28109377477138,2.5521707256129726,-4.4350985734458686,3.214952516216432,-5.157149900042468
39980,,-4.71008528177819,3.6806763640054863,-10.896536886876117,-2.1663486129190663,-2.8089018212456125,-1.8474307910012504,-4.281002807862544,-6.486040690976599,-5.140340331529334,6.399696490619128,2.516740415172241,-6.971592233699382,8.233424888060702,-8.419431290987045
40230,,-7.371372836678481,1.667745349995645,-7.980644913651505,0.6714641214758893,-1.935451113894863,-1.147872470094316,-4.325301246469948,-9.44236277314868,-9.21139695445628,5.052388175418157,3.28844048843287,-8.682515266658,9.353396195645852,-6.604884684333788
40480,,-6.63905272584378,4.954646081507801,-6.797823901097246,-1.1967502234037983,-2.9538790877561976,-0.7998636939774113,-5.393982810979672,-6.211442983145633,-6.458265549343588,5.106196631238781,4.812845528034912,-5.701073162433471,5.412576378376157,-6.800398262912408
40730,,-6.342035172405929,6.182021595578833,-4.873289682073533,-3.1736448658718963,-4.694022294447367,-5.397371620807895,-12.182679932242351,-2.823182779066688,-4.998369473288529,2.785289729452235,2.393241988731099,-5.182181979774172,8.974469859876725,-3.656236905474275
40980,,-8.538490087871475,2.191314925534772,-7.197833002369843,0.3739365528491828,-3.835392460688125,-2.2877572455740385,-5.474918500653128,-4.713358294979298,-5.230256975842568,2.7627405912390195,2.258075261020512,-6.861726073229079,9.732283999995344,-0.5647125343849668
41230,,-7.510965557448539,4.537199849267555,-7.569771933931283,2.94428295119124,-6.429423911597457,0.3666499760572826,-2.559131044772368,-11.9944006046454,-4.757127097098401,4.060303916949504,1.6506641471510428,-4.823530602851972,9.786915401416042,7.944061337922413
41479,,-8.421152721459423,4.996643622403466,-9.167160241690542,0.5757405248324008,-8.150570863755137,-2.775211229998927,-5.792632152752415,-7.73632896014699,-6.02011427999413,2.222471376784797,1.896239899376142,-5.141845595245991,8.777777245811246,6.365962705261757
41729,,-4.8549158770985255,3.725387555884545,-7.5175072526882145,-1.3069029210622574,-4.521050491225195,-3.185509288908952,-6.466936341795634,-5.701006235281898,-5.535171760871149,2.7155927874275845,2.420730553783669,-7.308053793884559,9.808158818963,-8.742170830811869
41979,,-3.338816084743645,0.4988584277998099,-9.899314284074745,-1.0245623207540806,-3.5632162361725346,-2.566242929271737,-5.505829383237632,-4.65688328167802,-4.772900408110324,2.1091506853927378,3.286380559198661,-7.810935631095846,9.98331125685592,-12.134726815194066
42229,,-5.071866871970451,-2.860199377820833,-8.347631741504802,1.0692763388473518,-6.9483249185746345,-5.601772760970141,-4.183361583441473,-6.87845970583743,-7.559133590029936,3.06265623388227,1.8164784964330567,-7.061951422013922,9.450333592329628,-12.398256883697886
42479,,-2.3618517001727506,1.6635835894788134,-8.00299722942851,1.1799319119216063,-7.572912529674999,-2.190256890995269,-3.0556505004417014,-4.869870905561779,-5.762238396977926,2.3272848661795758,0.6665260631240127,-5.693573149368364,8.64871363590946,-8.69154531355424
42729,,-6.551144695178039,2.372873989179359,-10.219271013051198,2.0168971314793103,-2.3538223666672176,0.4114367279162351,-2.417054538070533,-6.579083688061159,-8.294657343270874,2.11306122885037,0.1681648397998408,-4.483563971774539,6.688981036593921,-9.236629599991064
42979,,-7.409244954164192,4.32210739003804,-6.656876784186768,1.8220021498154093,-4.83761621689725,-1.162878310187401,-3.698711905552861,-8.699666481494472,-6.978219183002433,5.130916670821045,0.9542926126058108,-6.379312683967408,5.557396827427422,-6.496709873417284
43229,,-5.139779037585575,7.27328733519472,-4.148119812639767,-1.752902620624583,-3.762694581764872,-1.411928851058759,-2.6032213391090107,-6.154909321469685,-8.248329376792402,8.464622163137918,-0.3605570780995838,-4.471357366696954,4.862979565075113,-2.4396646924556493
43478,,-6.977618090815571,4.984421518732681,-5.112925943168358,-3.738803455744123,-2.165292767995805,2.321588569597523,-1.3423305504554186,-5.116121936735626,-7.005955562708932,5.631224769601319,4.174063786264856,-3.153691880599606,4.579331962399928,-4.507885886006605
43728,,-7.796890985813281,3.193322636072759,-6.663074944023024,-2.88581932651687,-1.5924269887037132,-2.555489883900478,-6.063903161662849,-4.290388753096861,-4.154245934348879,1.546865494044341,3.708253308084423,-5.531848375444842,6.199775015985097,-7.438641222857546
43978,,-6.516188426429648,3.082801426009021,-7.108388318699785,-5.199212106509517,-1.982795831617819,-7.112165645448789,-9.746070691952758,-4.5780753316766525,-3.96327415483098,-0.743218582893011,3.1702966490129936,-4.87221386419641,7.55645114961712,-5.64916595057187
44228,,-4.7160948099680775,7.055733479101628,-7.2561807186073075,-2.987598138211448,-3.772476694449659,-0.2298989710441522,-1.8526984111520015,-7.261803168965825,7.408977509583088,1.2536553055075308,1.6820594075191335,-5.582104481606736,7.848580827671742,-2.546894981102178
44478,,-3.166901478041892,7.2831273384310204,-9.942764503303476,0.0013097273668013,-4.082396433053604,2.2381944396395608,1.2283493959107794,-5.646704138409713,8.151703799615804,3.632581215471789,2.197422127026061,-6.048854674112506,8.626907785476236,-4.5039917405706
44728,,-3.7768479759397904,4.075155787736196,-8.45019696045759,-0.2916304727195391,-5.99775759818753,-1.4322826390337782,-2.3683059811025093,-3.96980643468848,-2.3833003416873133,2.442637781862878,0.9615381209273522,-5.654332890352853,11.001080718685676,-6.729589449482042
44978,,-7.66877027307487,1.318283986846731,-8.810529838355077,-0.4482854477920266,-4.148516919942001,-5.848286479776737,-9.005738170598198,-4.481506241657785,-5.761355055111236,5.527054414751352,0.8687568470371922,-4.079483619980291,9.002165367114468,-6.661065062089159
45228,,-7.900905246979618,3.579428259478559,-8.315769392573365,-0.8889773974752059,-1.9679857139871637,-4.240347348071472,-7.423963368441333,-5.844066028992632,-9.20488846531583,7.428580579822677,2.291974880410817,-5.154589551777066,4.69588231688718,-2.96757418015853
45477,,-6.898125685742835,6.393839056583771,-6.856006908643505,-2.494205577372797,-2.1699850409783465,-1.8650732583537188,-4.580660513641939,-8.9867211757437,-12.011319394172965,5.467604685366244,5.204105061712139,-5.62094542014134,5.029142495961829,-2.51006642350734
45727,,-4.009189505311342,4.139357798210508,-5.0922813146016885,-4.463582113657038,-3.2703538690118688,-1.4036483159422573,-4.417293324212025,-5.979154026190818,-11.232507252287853,4.714461030713613,5.271579217555924,-4.2204023564540805,9.765767309015308,1.757079371556155
45977,,-3.7445154726028393,4.851388818599159,-5.098521179516503,-3.2290962104860714,-6.840881728746107,-1.8712697150245936,-4.2777575441145546,-2.474643521286046,-6.879311890276848,6.455102345956174,4.59953407424765,-3.411390107219325,13.036848559403207,-2.95038154031295
46227,,-4.021632912626754,6.154815851155315,-7.930196489038453,-1.7516410087310157,-8.333794578481918,-1.2157013577752902,-4.07414684923394,-3.4504710147814377,-6.060211127589986,6.552076269436059,4.081623752368071,-6.540185239003931,10.496532294484552,-7.558659378004311
46477,,-4.984566789767039,5.26922180156347,-7.677001456677349,0.7545209558358578,-4.592723239999041,-2.4787032668336666,-3.643136586200512,-6.9676200065117655,-6.94191993785285,6.392175682426008,3.41917804159755,-6.975418129708299,5.24342622146977,-9.580900536506402
46727,,-5.533718092871805,6.502784351588461,-6.078176454130246,1.673632637197218,-0.782589726228565,-4.717579273881008,-5.351706134106568,-7.355819180078384,-5.903770681526116,7.407452974460355,-0.6119981990792109,-5.426164391464829,4.629209755313748,-9.278742112680586
46977,,-5.785669448406758,3.3087181446490623,-8.907257923268938,2.0547783053066886,-4.391295835091816,-0.981144367396964,-3.4902970243565363,-5.74777359690858,-6.521580497067675,3.4994337206209307,-1.0157318321933495,-9.891456312234611,6.545545264541339,-10.440639661352517
47227,,-6.87641331032056,3.359933020597332,-12.157981944226218,1.2947010846187104,-1.6231556898463948,0.5572765311352913,-1.2587227333409747,-4.540867248912487,-5.532964311296599,4.285524493029362,3.588123101845075,-10.34417603356582,5.53959652087658,-11.15291726933386
47476,,-7.670085299043055,5.2164035938418,-11.212821584448193,0.0614649984642541,-0.9705216960338058,-0.6853791441216701,-2.980788700669563,-5.48765511203896,-6.070047789871435,6.975806579083661,4.8034640386500325,-7.482061484688324,3.751466340878495,-7.564203122979686
47726,,-6.2312571169801405,3.05221713221606,-6.0283993660359805,0.2743091346747995,-3.75533950733137,-1.3000339951158488,-4.832856606857999,-6.608738838935231,-5.457814515972834,6.487996193412533,0.8586759000862764,-3.727061635544295,7.018615367127147,-5.920335048992463
47976,,-2.2644171417507577,1.298843153280118,-7.141931864604373,-1.436095999370912,-6.813843065589483,-2.860954681841802,-7.48337377357311,-5.728985557045871,-5.630659843193585,5.571278549645134,3.254218938456928,-5.1922658468678815,8.997022931168452,-6.606361720043185
48226,,-5.228689718457924,4.242979226242082,-8.249088847246437,-2.042404275253073,-9.062025760548654,-2.765098204816954,-5.8081469991629655,-8.239541463871694,-8.397534209617959,3.313136591534988,3.8230414707644673,-7.144121303433635,5.0910239794135865,-6.01185947852874
48476,,-6.612834257592601,8.362830972183522,-7.729253138597318,-0.3165660791613134,-6.115581310595454,-2.956607034791116,-4.253430502043679,-8.585620102566754,-4.929238831659744,3.488238713336857,5.870383232121838,-5.388965917579522,5.861961667155287,-9.665481567311144
48726,,-7.253616696930567,8.544289046934466,-6.99385016601755,-0.5538633867526774,-4.367698342456191,-2.23976493643275,-3.6827483446686,-6.203795249090915,-4.729121911623145,1.000751824707022,4.408608657314105,-6.888659024047605,6.054789078708147,-10.691720013765346
48976,,-7.402113937075963,4.017846919008136,-11.35287033425305,-0.1388234979163784,-5.738003362065678,-4.548977432421808,-5.204321347930954,-5.2968276019438045,-5.88687673566866,3.760077661527341,0.2980615821954411,-9.980848056952189,4.636314889409256,-10.14698548984753
49226,,-7.672347279353575,2.7418752231881376,-11.274253994673469,3.235218679008516,-4.437207408958435,-2.469291040066979,-6.758398169445337,-6.7885353422108246,-7.005844266740173,6.365732992685304,-3.129125601735039,-6.694662872879958,7.690317602907442,-7.7147828777073455
49475,,-6.313072677021624,3.363479007236576,-8.107514029029074,3.3191564106424973,-3.863918199357407,-1.9445659603564471,-6.486509906778539,-9.22071579542532,-7.071320041674544,4.08801380418928,1.2488909880250127,-7.108715243081388,8.404855195817872,-6.413248184008187
49725,,-7.326557205772031,5.438631104643035,-5.142902227519837,2.8317925649192155,-2.1795605076907067,-3.1835071812432902,-6.117044528551,-5.921062534815321,-5.58926676704301,6.352569517757325,1.4475886141703211,-7.707686921651772,6.650661063751121,-5.254339226810291
49975,,-6.883874273178452,7.237217690313274,-5.049701964513021,0.6258652593731983,-0.2192767572110413,-1.7231121067260786,-3.6486075526763937,-3.1386273122473893,-4.429918970472745,4.414229611553838,2.180579367178757,-5.326536129146104,10.14631842633511,-4.606057403079299
50225,,-6.062093905045627,6.289872696024277,-5.385853556505707,3.7441673436121703,-3.9153607057435016,-1.3360305510498218,-1.4484877866672987,-5.909630306140094,-6.476903545528485,3.4131834962764422,5.324649393274016,-6.766294778303177,8.50186732294745,-3.616136142158012
50475,,-6.167142615943919,3.741971801138804,-8.119045731296985,2.6002935102934104,-5.074467841814759,-3.655128672875934,-2.393336341235968,-8.43564707161687,-6.585796601340032,3.3132386519464707,7.609973610475992,-7.484142807236417,3.515318954481596,-3.845706123236188
50725,,-5.136185808132707,5.371397945420691,-6.899857269127324,0.8177495667234636,-6.971504789853912,-0.7566351785620241,-2.4767560018161445,-4.88235044067898,-7.242356323703135,-1.5598351735767613,3.922943539413001,-6.569225679842429,7.446331469773186,-7.517999680428382
50975,,-4.5028952992453775,11.212609481097402,-5.036812481969193,0.562009829641216,-7.133785296535271,0.8803920133764426,-1.430484006767654,-5.444564915702172,-6.911201503594043,0.4869121792499478,2.1529751600345866,-6.263813782974836,7.769472058481476,-9.88497959494013
51225,,-7.79770030310321,11.888733081140382,-4.5092985748640615,-0.8361430126562309,-3.380384137662589,0.3966077272956357,-2.549915990823725,-7.627387303055063,-7.020723026292494,6.18999230091275,1.7645853690977955,-7.926284136286026,5.794534724692792,-7.088296721770241
51474,,-7.353562970488064,9.828137069236352,-5.765637372219822,-2.7783806839114757,-3.2297061211857825,-0.5782866691565973,-2.2899355322173665,-10.159881133134164,-6.498826738004512,7.937190719617021,3.88995342737279,-10.11865417184233,7.824982006165362,-4.507164748748318
51724,,-5.230039812383187,6.679856700723795,-6.394602825749627,-3.565144588097467,-4.751017015122772,-1.128835190291852,-2.8947253636370385,-7.017084468812974,-7.509868159808494,7.246019159969616,2.8558459430901832,-7.527706359915019,11.801407079698812,-8.716481452430159
51974,,-3.739602287845036,7.588625678510292,-5.4764651837382505,-4.619543659265678,-4.551774403717446,-0.8455105104420385,-2.68549762244042,-5.445602907575263,-8.43427013110264,6.308083178501175,0.7071403803989302,-5.508055386551378,14.600061506092969,-7.903001908537186
52224,,-2.387437506380289,8.11785722429194,-4.986504150143007,-3.1789920499445063,-1.9706809615175136,-0.3651016676764895,-3.684459460108083,-6.955633614513652,-6.403816831068126,5.074265826367102,-3.1024145174923445,-6.7318287470343785,11.785938890321802,-4.625699456591343
52474,,-6.565967989576854,6.816588499466022,-3.520915597298806,1.952824326155898,-0.7082006767660185,-3.173822744698802,-7.742513895158471,-4.247852304069485,-5.11242282710249,2.0771925728509157,2.2374915657469048,-3.996363735309076,9.448894572078371,0.6717837237737645
52724,,-6.019193261647397,6.055857614086532,-4.090028977167312,3.3973318796320457,-3.3797719653926874,-6.215560495835132,-7.960634601611254,-2.956410679616777,-3.9414705497420286,3.9162021926604886,6.394996711250877,-2.0247468454490964,10.894543534253852,5.134051261861039
52974,,-5.742856965192984,8.154731039429278,-7.887324858064321,-2.991145540640596,-4.650657339445317,-3.629989147542296,-3.58790606014126,-6.062776581101148,-5.297807168916371,4.971566431265771,3.802502981027312,-4.2214174256341135,9.344882602463343,-0.8857759903759145
53224,,-5.007222956708368,6.253143372973695,-5.947797125740011,-0.7647154616903822,-6.539472004684952,-1.5311881877727895,-3.077581552191221,-5.821612471954266,-5.949266713768761,5.107044526189444,3.731728600060961,-5.75751637573391,12.05193368105578,-2.778325268224806
53473,,-3.332612042923629,5.056204412488706,-5.820845312369624,1.1806339423960068,-4.882862990668356,-1.6549278106298169,-1.5343999893075402,-3.4577150820456497,-4.683775148254502,2.061032150676996,4.5941451376282165,-7.589543887638094,10.366581500967827,7.289770016205159
53723,,-5.655250027486176,2.38303810064754,-9.308319221251132,-1.3595067200379316,-4.42104319129643,-2.802387103981518,-2.909027768167004,-4.997957192537876,-7.524172629477526,6.0084600321457255,3.8798327214433503,-9.073834583071108,9.25671083177688,7.976829614727945
53973,,-5.128948570077516,2.4421141851731627,-9.040784011425307,-1.9659169259721485,-5.809223899889276,-5.187861315566115,-6.445851622176999,-5.621777254209674,-6.539624953789619,6.611378473977303,2.759689192018408,-8.6044094659197,9.335465238799546,-3.082845179174406
54223,,-5.208502803330576,-1.428943756180807,-7.040557497143192,7.716442556045651,-3.853442164546011,-4.621259322851018,-7.465024154373251,-5.537484211864065,-4.904540249371307,6.127659884313169,0.9235278461486996,-6.472736510217155,9.635866971308843,-8.484963034432285
54473,,-7.063661392573079,2.7419605672038583,-7.33515202540993,9.448233806488126,-1.5741895599759332,-4.143877863670795,-3.515423793076402,-6.01463888269603,-9.07621079965459,4.413578121671334,-1.535161306205691,-5.322165933998048,9.790089414630852,-8.465486929985886
54723,,-3.1717773872141524,3.74636053668117,-7.862972616601778,1.7279601994124574,-4.725177703069139,-2.697823282116346,-3.617680349335053,-6.054073751412563,-8.752379949728065,3.7680162533405066,1.3448880498278388,-7.970759492768512,9.073596242169303,-7.559914325673455
54973,,-3.813163783453917,3.919912767721709,-9.546826261233122,-4.143969232590043,-4.245571515997348,-1.7253867203665345,-4.624743090106447,-5.658943344084419,-6.760003517882912,4.830555059538836,2.580581627925062,-11.040378459682874,7.9812015709868,-8.144858611387178
55223,,-4.758589870430594,3.2140807434056184,-10.571299322487596,-1.4023145493610667,-5.1104049276673535,-1.7931217645238964,-2.686254139198861,-4.141042040122799,-3.930910403183721,2.4748819585540707,-0.0057129432066945,-4.147441178071003,10.382477137170774,-7.928307195284862
55473,,-1.9935091837440972,4.195721843061709,-10.843352976108536,0.4494598942723665,-4.053700591042278,-1.4575706153609649,-2.6041696380499277,-2.648553230337885,-4.013670026476685,3.014668989824444,3.966062740489711,-2.151951198745659,9.927335209828248,-9.821747658440025
55722,,-2.9435178930679955,7.82080506573468,-8.19596280540804,2.624977328082978,-3.7604766939101295,0.6092886513145985,-1.6277267337203605,-5.267447949678222,-7.033038424538159,4.385431527423802,3.30457366039816,-7.883844999025321,8.692617750043244,-10.938306695391296
55972,,-4.414767342597342,6.049810281825159,-8.424291101403336,6.151325014647227,-5.789842628822253,1.5526925343006617,-0.9745126757255818,-5.950360088304327,-6.8601628164925454,2.393471318928294,1.035439086855892,-9.01951337825953,11.989839737800196,-9.188171289504051
56222,R,-4.219987471075189,5.533962452279395,-10.11216649406824,3.223758401665421,-3.393390631323074,-0.0632652623673456,-3.016874150802172,-4.185884696529424,-5.506144919778916,-2.219022247103202,3.542110565256316,-5.997112945788299,9.068295121434724,-6.90108064438779
56472,,-4.912332994414765,4.72491354866512,-7.540327381416196,-3.85017582192862,-2.717288495502058,-3.511072918955694,-5.219049965329331,-4.30534391754512,-4.450674920107984,2.293413154092572,1.2187508526538453,-5.289298976865768,3.0622996180905195,-4.34224566070652
56722,,-6.074277186300044,2.2998917312559044,-4.720762379603088,-4.312650432335761,-5.285162634858479,-2.7619283029123016,-4.823166139705509,-7.42597941341794,-6.274409848324211,5.410820140618443,-1.776106631548187,-7.040278220675152,-0.4924131089415709,-6.897578029183689
56972,,-4.712804019141857,5.170413814378279,-4.236303234733752,-2.9518317045598605,-3.311324253981608,-2.809817043767401,-5.317764850534394,-6.999527631855838,-8.192732669307908,5.322446929588979,2.5389555767971266,-10.666265123536576,6.284290691184964,-6.766970815044463
57222,,-3.990518329674313,6.835525614470716,-4.244516605325149,-0.233363178663797,-3.235378515965237,-1.209216253815981,-2.142188341896894,-7.1789726519408505,-8.394716413654056,3.761647879029389,-0.1622725987462525,-7.201373188114895,8.575928664152917,-4.1210954449492085
57472,,-5.4874828891062135,7.515093985747665,-4.395418053355961,-0.2277112744059688,-3.644164978528266,-1.3612028148198505,-1.914568777526923,-2.9252911218117443,-6.594857513748461,2.7042457715831905,1.3134232990850068,-7.576288846119155,8.76062776790424,-5.884978371314167
57721,,-6.849458208711097,4.310888735533099,-7.452516872468875,-0.1408375456493735,-3.0759061619609387,-5.156602641404722,3.550107526133904,-2.563013583114009,-3.38097690275403,3.921717580519343,0.9569319490497395,-7.242879600965778,10.673662701775804,-8.001204519115127
57971,,-11.363800132829054,3.939220861548252,-10.954637525255915,-5.196380617389764,-4.4247256825235,-5.629015862774608,6.27906885216934,-4.457380018366108,-3.3273338749405523,3.851715583117155,2.1873458227469373,-9.501600593742484,10.227269795025196,-8.41822449854168
58221,,-7.612893942424287,2.4837525146752064,-6.87535157689479,-4.217191368855011,-4.490036497377144,-5.839670855856214,-1.179379028325472,-5.534281752328748,-4.64820934901995,7.482826356690621,4.683582804528001,-12.727827233024742,7.36425081007905,-6.422887203445584
58471,,-3.657405325328334,4.402620095109948,-5.412665530381572,-1.7452217145047146,-4.068168103553544,-2.765307963841978,-1.8065654310316384,-3.391528890392669,-4.403952747772784,7.88510988037293,2.731298351665985,-9.63976668960902,8.674373755440461,-4.900302280899406
58721,,-1.715818698021757,7.575442614587564,-9.037237935807058,-3.5155967709424187,-4.460508825484919,-1.0564840076914284,3.983759449407052,-4.345603852972718,-4.952306527863222,6.267426015492962,-0.4877620222027314,-5.945180564229061,9.13160387445709,-5.453635652819288
58971,,-3.889384678869342,5.291727816532354,-8.239908872311124,-9.687818953147172,-1.8023971079100285,-1.4604299314119042,2.4165279886455284,-4.267085398002571,-3.8037059524648287,4.497516744260734,0.6532756347433963,-3.9918825887812712,11.563559452226574,-5.618613620557847
59221,,-7.559672917187442,6.862422537302738,-4.2726128471336535,-2.398433316890059,-0.5241642234834741,-2.248041562008864,-6.056248798542336,-5.509427586767287,-4.028045361673335,2.906295869747087,7.232686845945654,-4.287542219993435,11.056557820703892,-2.8404129320712137
59471,,-9.945586440149995,4.39954873538994,-4.351661886429585,1.1825478291994271,-4.302608906995659,-3.9732443587708346,-7.694097597034032,-8.59696929870715,-5.282185960741442,4.045164541499727,5.014183156754605,-7.463504758825565,8.577093807401456,-6.1958421917522335
59720,,-5.650605477296406,0.9858878045854956,-6.011307658162817,0.2947194258989147,-7.99539545275432,-2.958188078302289,-5.117444735755275,-6.950701946346166,-5.542710878980604,8.821972694343476,1.3187972180343757,-4.304616149797026,5.984840499168387,-9.168226047061014
59970,,-3.3214789505132587,2.2664548868634893,-10.640918303652304,-4.8849965811949465,-9.686233031714956,-2.1723816687938013,-3.084443368319124,-6.780309040277478,-5.421575784755035,7.357459767073207,3.0095294288467977,-3.994584947660196,4.729008547216489,-8.730179125637065
60220,,-5.09989427835362,3.628012962692979,-9.502648787527164,-6.6591731009304045,-5.710954694053234,-4.084791446442079,-6.662690682148465,-10.320514093732696,-8.017629085575598,2.2376044075347954,1.7953340453010689,-6.086144894073727,8.963125525718885,-10.65910645122672
60470,,-10.16146303810656,-0.4625336206303231,-7.642991841177482,-6.410811452168177,-4.337242607214157,-6.4317289817959775,-8.923312194986611,-4.755225692509816,-5.697017062414787,2.037665242781454,4.2753604338714375,-3.5043233663305533,11.03285311332868,-11.9454285873627
60720,,-7.90372392710584,-1.7724152143417022,-9.40089720931001,-4.614474033059358,-6.175927051328864,-5.225716822744587,-7.840725810890882,-4.806503766590119,-7.484547694480743,1.2730206792358376,5.342005780464484,-6.863000873495622,9.591366231232824,-9.113269940001787
60970,,-5.845147249730807,1.9561902033533152,-9.03846011432382,-4.03342297736619,-8.840955607954163,-4.801583207479812,-6.871669490579688,-5.754449554332762,-7.682314750384174,1.702969315821807,7.049228549421938,-10.540021950153584,9.066373318439272,-7.934790315725808
61220,,-2.8536808189728124,2.8723434233275973,-10.44796919258285,-4.693430553268587,-9.786083165650243,-2.6935839557885863,-3.229586444425418,-3.781435202284189,-4.105073189363754,5.43662221104193,4.596331001522721,-11.152548790105554,10.800688304085703,-6.199057371021031
61470,,-5.057192516574083,-0.7514527126488872,-11.632849827751832,-5.292769450023265,-10.130503308809011,-3.495361902529748,-6.933429151283589,-4.483336887262048,-2.9987095100705305,7.750459906334361,1.267256834450817,-8.77269524902586,10.80520417342841,-6.442559618686977
61719,,-5.374949528062673,-2.316278200193866,-11.658674993761732,-2.524717912953263,-12.114824857663542,-6.502511331980239,-8.90821915652625,-4.311694858730925,-5.182407218525395,7.751484352517908,1.501161839861468,-7.110821846178311,10.643215663179406,-8.616453235482426
61969,,-7.273906397606366,0.4377641406822153,-6.497318338603768,-1.9586344576383927,-11.37306251575686,-5.351078585506092,-5.740161385583256,-6.40602187243603,-6.510358156701715,6.80273087426597,6.307230261869021,-11.268725518645834,9.149105405850625,-6.846603971295357
62219,,-4.124334037990872,2.4403812618004608,-7.84673784544503,-2.501780565086537,-7.527603761744364,-3.514824864336021,-3.8647738861899854,-5.573673967273284,-6.68166909133611,3.633852050244969,7.009909875445644,-8.230420659862904,8.997120778352206,-7.411737052400124
62469,,-4.375257445865451,3.433963171337593,-10.29577214883322,-1.9385539847191808,-7.601643045713584,-4.609968560967487,-9.103380165551862,-4.233964380505575,-5.810579473863941,4.068325864461548,2.68306046986332,-7.260093020190955,10.607791743659948,-9.066934826869376
62719,,-8.7574008800381,1.7944942824432202,-10.864308457332804,-3.540951450835167,-9.707090835317668,-6.860186230535384,-11.531665520125385,-4.832805404746912,-5.293952292420654,4.615940707473735,3.102295668220057,-7.1236742057920015,10.245106687685965,-7.32857295794045
62969,,-6.350610947400987,0.920218471567882,-8.378950106250114,-2.586901942595043,-4.740342085265893,-5.196292805754228,-6.787655049477469,-5.109666265056163,-7.644118584823524,2.582770394352245,3.443905552195038,-5.34745084189911,8.271662171097352,-4.40268148765611
63219,,-5.485441815690547,-0.4505925250314197,-6.653120919586213,-2.735400302052853,-2.953864884138992,-6.2652254189128245,-8.373595838668884,-6.32482305206856,-7.730880924241788,1.5921358139214692,1.716487608476006,-6.120329648021807,8.941957641280942,-4.953551198851635
63469,,-5.805642373593823,-2.022980377237744,-8.514281217014561,-4.8061282858722905,-5.155286247408278,-8.607526668058263,-7.583234949909585,-4.030999076567595,-5.08513972507362,5.4651454127793215,0.5486758358061338,-7.877714310058028,9.59499851084026,-6.233444554229772
63718,,-4.642766139556719,0.1182393828604298,-9.302587465859398,-2.4227300144698702,-7.770691557837512,-5.33896315998321,-5.630978818702469,-6.1934048965876425,-6.517932955370084,7.1225166849912425,2.1138925010638,-9.074403428308614,9.715190210418696,-6.935395488685651
63968,,-4.875690177031896,3.248569227231592,-7.372854537173923,-2.6610455821720813,-8.440137615436127,-6.030583703675365,-7.314740151697591,-7.854473428873324,-8.87808000093761,5.557046744573725,3.345073982048286,-6.063553485021689,8.220861600975308,-5.456993094208959
64218,,-5.427228883077405,1.6250066532473246,-10.662532006306666,-4.601690943002442,-8.603602124551418,-6.849096478947133,-7.172414197559735,-7.457662712682112,-9.652077359338938,8.816057687877002,1.2173790309555113,-7.24386042483391,7.782469670755864,-7.209004777888076
64468,,-5.083656034091128,-0.2572295133467136,-10.742249971972855,-3.71327846255404,-9.749129565806523,-4.765970519152702,-4.648404896545902,-9.136430403184786,-8.838681969997907,8.929079155920713,0.2594390066381972,-6.77870693117047,9.478442018594745,-6.692614947735761
64718,,-4.660464519423132,1.7071481520683571,-7.718334051589132,-5.036136952520879,-7.926770404389672,-6.456836408580737,-5.866056368427462,-6.320976906945026,-7.129500925861869,7.387540200810578,4.537749802379167,-4.818002717799843,12.719083412412786,-7.129203756739471
64968,,-5.8649026628052505,-0.6627835206941556,-3.902442790606334,-4.007261134334371,-5.524802976171515,-10.090462358688969,-10.852421489299417,-7.438414098857102,-11.144242352947932,4.11116678126912,6.048501773151186,-4.987925897766495,12.043295632052146,-6.460098130462699
65218,,-8.24992116089093,-3.058906357746458,-3.4107534183111894,-3.2782921007993515,-7.063388790658729,-13.18625062298138,-8.243246861096406,-6.179970474900012,-4.971386535557266,1.4296179691861508,0.4907858439378113,-5.3993664067292375,11.09484051691831,-6.868783268724735
65468,,-6.088976650914861,-2.0152764350682526,-7.672824029378904,-4.883529598155327,-7.135591357589766,-8.438393512716205,-3.134554885196747,-2.9566625023385376,-4.006716108740154,2.918989649293573,1.0278200238878996,-8.391539295289693,10.414518773838688,-4.572013963634506
65717,,-6.381720079133605,0.7043016071781877,-9.538955526757087,-1.7349829566887145,-8.657111109613464,-6.637549620089854,13.149958647672673,-2.970351784093128,-6.322264062142682,4.370280973173974,3.628062909712084,-8.119214072398766,9.040873787207165,-3.8752389648905776
65967,,-6.562161556851997,3.3386346332370467,-8.158865258197844,-1.851414302349359,-9.55469531298845,-4.735109888817676,14.610076318067213,-8.366566697131121,-8.670797729509527,8.126740366191626,2.851891125048256,-8.325841252663526,9.074540004930853,-4.446279878885701
66217,,-6.47595694974611,3.394730554184453,-7.447841675587647,-4.911733047670708,-5.334868835976955,-1.9023318983979296,3.5359011560240505,-9.932009311446604,-6.600025363999256,6.292282821128506,0.6160451074666221,-9.939598408819492,8.890775740652385,-7.046564663724043
66467,,-6.820326532406194,3.110114780636869,-7.931718241463636,-2.369884680803494,-3.04519173507146,-3.117253040381311,-5.33341961740562,-3.362017028240909,-4.078302345787222,4.6574933297724765,0.8530187912712044,-7.05825310548862,6.903142505849566,-5.743886594551473
66717,,-7.1498334368941325,4.489847941037539,-2.6785284943329164,-1.85323378765192,-5.273374698493109,-2.864516440470939,-6.359568243160815,-4.179290722835634,-5.087785222455722,6.377684491073578,3.846525010503105,-4.786028858623149,9.859928770879268,-2.4555235584356354
66967,,-6.653375857809739,2.2420992742669608,-4.339777490450056,-4.27071505119813,-7.360116958756823,-0.8107657686518113,-6.8488653528177545,-8.683523430472952,-4.25954559894934,6.982441361138769,1.2351359274690743,-6.723579568669536,8.301281896295729,-4.696245017414422
67217,,-5.084606213617517,4.011488114476529,-11.276065712323488,-8.207671713284343,-7.707923019296387,0.152053802557466,-4.299704936426351,-8.332341832114649,-8.821310111868241,7.137822171867479,-0.2579033889511123,-10.21548704426314,8.7799566807847,-10.014552146857143
67467,,-5.052797856764876,5.772317443782821,-9.939324592960284,-5.0988190142034,-5.1755434149353015,1.1195347783683829,-2.449415992781188,-6.707508117259177,-5.440355101279105,4.371864302966502,5.002818658129671,-8.622149980065569,9.56800464091203,-7.561556803496428
67716,,-8.34910902296946,4.174465239283979,-10.735621256288816,-1.333183564984507,-4.776826266156597,-1.8848174612634996,-6.527725492020435,-9.239451650821398,-5.18586627170524,3.320148568291443,7.56889558638921,-9.904795928518457,10.10084271727925,-5.255067853022872
67966,,-7.064475864251666,2.9814747810876345,-8.688840762762776,-1.537493498895426,-5.845683981229978,-3.025709703440036,-7.316736416292714,-7.091140468578821,-6.92581209488279,0.8361456632022503,7.437631229375532,-5.955319700174782,12.836159948830684,-8.410614264688235
68216,,-5.161518025835447,3.686474333369187,-7.625512648132981,-3.529213727673173,-5.10267374243087,-1.603074980444103,-4.386743774090211,-2.8889965432260887,-3.640249778398328,-0.2208172147093446,9.32693609727589,-5.419898507744179,11.16085022104322,-8.07966182475383
68466,,-6.880699476039938,5.153285494474529,-5.367490091773992,0.0484510693092352,-9.025776142492628,-0.3917628175830448,-1.8155399813550892,-1.5259395881566509,-2.68100779159655,2.540325339105258,7.0328178442762646,-4.830866075904636,8.211119992757036,-6.094157759992184
68716,,-9.967051772442412,3.2969394024487477,-3.806049658361945,1.414072649911374,-6.296021765271997,-3.486425808888525,-3.3679200629960757,-4.780900156107921,-5.947009467262912,4.687139037566503,3.8251285109577537,-3.3894514724693527,8.342212942412722,-5.238260724045357
68966,,-11.033757832283245,6.161707757319989,-4.477196667912277,2.5362034099744712,-5.595506584196686,-4.468837705556506,-3.221370985882574,-6.386800524616891,-6.831903163575288,7.564688024839405,2.5292854148945594,-4.208725255125115,8.8092043228561,-4.503767901502981
69216,,-7.786017567780579,5.984932462961019,-6.46617187450918,1.1111856334943877,-7.580576343792643,-1.9993795479997143,-4.027414021777921,-6.492496675942316,-9.95872417067928,5.899861923863164,4.457486166809204,-6.78529805624428,11.170995114215025,-5.6639769425434014
69466,,-4.892300981224654,4.814382334429752,-7.871589256937717,1.0648773996172651,-5.189063408188941,0.6184743362254834,-1.9139942527669889,-3.9451040864551135,-7.392449782161272,3.891048475532264,8.29759677035165,-5.758469418413331,11.67884785589819,-5.39669804889003
69715,,-5.061161041892128,2.8557177834974783,-8.224540747599852,0.3393130295949607,-3.234300793256974,0.1124483129238444,-3.162958524897429,-3.2020910207156046,-7.025832664899277,4.431314698074219,6.52137285820742,-5.556195703990598,10.572695961773608,-3.52604090701401
69965,,-5.183554535204164,5.901559378147201,-11.857336308274885,-3.449291877102441,-4.07331632934172,0.1897606198292212,-3.554732407425937,-5.299903657425343,-5.343367406363367,2.529829053109665,8.273408859410019,-9.427929658606615,9.174615339228144,-5.4886852985992
70215,,-6.8138978752129855,5.85010227510545,-10.454918683453984,-4.368901609032392,-4.295296903613735,-3.066858545880626,-7.1181901646510894,-5.875219881849237,-2.9293746623862384,1.837289756060475,5.693108946051764,-4.844733800777719,9.882137638882838,-9.669081249256006
70465,,-4.736857192080407,4.327951430263749,-7.180411723847408,-2.3983285838085315,-5.626165064626109,-3.988361591300267,-7.14593846764084,-7.339764657251552,-5.745442029155855,5.860325665055596,-0.6292636709892957,-3.3696287545574832,8.812409689678457,-7.931637223307328
70715,,-6.446512740509887,-0.8889539673317177,-10.291323467165013,-3.1966883726192004,-4.111466538373246,-4.009903950465192,-6.268307030730447,-7.036446602146967,-6.458018320071974,6.423441637871221,1.737150697900673,-4.077360226399378,8.22649678320505,-5.819088214333364
70965,,-6.120583501985283,-0.855277551618207,-10.362570406704371,-2.9838306694074457,-2.388664662939963,-2.848075641659588,-3.153453649980988,-8.857864768865905,-8.442320583572215,4.104799904587551,3.96937496802021,-6.300769244415538,7.278111063821592,-6.449141481529215
71215,,-6.729725559338762,3.1247035618714603,-6.764226138278189,-0.9924884043013916,-3.595900196373302,-4.671013428986935,-5.0096080969581465,-7.588107271001688,-9.088724686014318,8.808032366317413,0.11660140479021,-7.488064419908004,5.577120076031079,-7.1136942254076105
71465,,-6.569238164583632,3.0045564857358986,-8.597695518099943,-3.030357599881005,-3.5542746111534864,-5.299313186157421,-5.171549073738393,-5.944268776934656,-6.253983034393736,5.870984562389424,2.0971759912616896,-4.639640426248638,6.454742539771842,-8.269204006081463
71714,,-4.319504953781282,4.152074636933171,-9.874741369754569,-4.262488325047875,-1.9098417296976131,-5.323616329554114,-5.969045561959511,-6.764798256323181,-4.819387545560608,4.066830297992825,5.510163372089389,-6.575996011577924,8.205917643534935,-7.023843063024096
71964,,-4.708505779925299,6.1150713984138445,-9.7738103974574,-3.592006174944941,-3.047280798863778,-2.832763919650445,-3.725795525149216,-5.360190252590042,-3.68485741997155,5.723674178825848,2.759311461893504,-8.535912496715715,10.667043686752171,-5.121763034323276
72214,,-6.574579200169131,2.383440485054761,-7.211199669000631,-1.790022554949405,-6.727379798199084,-2.5158117022677065,-3.830755928862079,-6.7430176582851855,-6.429333169137861,3.999422523764225,0.7737611766553925,-5.875948304025388,9.941284617512764,-7.6395350199345105
72464,,-4.882390378763984,3.2977438673541344,-8.22891350113873,-1.056044514265379,-10.835849704663902,-5.510699982207541,-7.884480365501095,-3.8587752349765143,-6.851502694545645,-2.1109305733433152,3.116160329578837,-5.5570503099590205,8.836879619873786,-7.983777399993669
72714,,-3.5252440647078536,5.778514928521666,-11.09748130255813,2.273364035900773,-6.379306459137552,-1.6526272363567218,-3.2747604257659275,-6.188759911676909,-5.824409235483866,0.9249664468553096,5.34387006219508,-6.118966570051766,9.067460488394325,-7.622920295265078
72964,,-5.979102493159435,4.379175085831781,-10.629536769019731,2.9277876592546286,-3.913197520841216,-0.1706345804851154,-3.019988521064432,-12.312932794177785,-6.156310058315952,2.1438710927413345,4.983820618979203,-6.497724955849734,6.882635623730056,-9.382113151762884
73214,,-8.810865029914586,4.750673109295002,-10.6470044204757,0.7487239267063321,-3.677720061544349,-3.488848020828952,-6.136896225876111,-8.601025594331148,-5.052616996681532,6.191780449956545,2.885937550921632,-5.387667130500054,4.0047955864337474,-9.947377626983698
73464,,-9.457878024941264,0.6058691176385387,-8.058792719997818,-2.295702300681317,-4.83554246014943,-2.523180740202104,-3.7753102119887294,-5.928756910124649,-1.952775187238144,7.723315674263656,4.2964817040354415,-5.869927404452148,8.121046052071163,-10.00117341494584
73713,,-8.200990383371849,3.677668789661053,-6.156015252098825,-0.460009553467017,-8.57313786477234,-5.408336032098626,-4.600761323205544,-5.288361946744606,-4.892790599865116,6.429190960237579,3.604527551499699,-9.931224362415156,6.710057459512743,-9.797194039956748
73963,,-8.308333310462983,6.027785298469369,-9.702969887590925,0.7208888772023138,-6.582607832171776,-6.015669064048327,-5.026722769185245,-5.626775866275295,-6.450328562088529,6.280150312535362,7.440307182770114,-8.252656412494431,5.034719352628674,-6.157385859163972
74213,,-2.964909201812051,6.32313293667147,-8.805081508731854,1.3654237237591773,-4.781003264419118,-1.0780644697309376,-2.3306317599652244,-8.425836970598327,-7.217956084445087,2.4354077473697187,7.296243644162849,-7.167592922964467,6.352617688679937,-7.437255371616722
74463,,-1.482681702863372,1.4900217976363337,-9.70715060515843,2.5383522898650224,-0.9527258117250432,-1.5703776221134222,-2.684773760144153,-7.027624819077922,-7.175609455762927,3.4294603132016,4.629238879794356,-9.68223167162974,8.054028024750085,-9.513278181501056
74713,,-4.211000304069076,3.517637183593483,-6.186961664497308,1.447452122597269,-2.8545371286892967,-0.4726571167674865,-2.223312741184565,-3.714511239126636,-4.407654519665464,5.232333830452837,0.0468864304087686,-7.181929783313135,9.570245883988107,-9.644835708151485
74963,,-2.7847160216794977,4.322410736004483,-3.856942612103949,-2.977141033324556,-8.773929320255661,-2.035496291307536,-2.7990623088286437,-5.855956259449683,-6.677616938914186,5.881085336114989,-2.0939215689278794,-5.1906037976872135,11.266091176641954,-9.095102706162226
75213,,-5.015668024015275,4.667294838244596,-4.367251503132119,-4.356709843823331,-10.276284088595848,-5.339262785000677,-3.197231062472662,-2.6921945009922963,-5.728664577294051,6.650326844495518,3.154800252822214,-4.390367439746737,8.991447119138979,-9.123236272581536
75463,,-6.070448479084055,3.645094221234575,-6.211868265461108,-3.538324767368936,-4.806273792241553,-3.1222578631675253,-3.500590116875099,-3.212180363846928,-4.2882169642751,5.29238136146228,7.0739336065497405,-5.035077424608053,6.922152700446393,-7.020691425334443
75712,,-5.305503918379356,2.988538593058516,-8.067688980872498,-2.199635353565033,-5.929543803679822,-4.519581699148238,-7.017757841981005,-4.723942457696745,-3.353485369622208,6.77807265919733,6.465523524118192,-7.270840016263156,7.760140180738028,-11.067816540298525
75962,,-8.037830901610459,6.581567091724285,-5.179935891831287,-3.763507097449187,-5.706143336229119,-4.266851167345198,-6.144715496220591,-6.548651994250678,-4.282896404993855,8.74925058889835,4.540599221716968,-6.960481657577613,9.59837204722878,-5.3593203607397655
76212,,-8.193044224996246,5.323971702990158,-4.791182968768478,-1.8256846544806693,-4.7024638614533245,-4.342967450215406,-6.120611632495935,-6.181504301266477,-6.193128495129756,4.765855983952888,6.1351758830319625,-6.439264096981998,8.587676443749917,-3.147290001134646
76462,,-5.6374960138229735,4.841747002598045,-8.990154400122268,-1.5006305350969364,-4.1226540075191584,-2.9715501544843965,-6.254975527074986,0.1010721032130395,-1.0177722218994656,6.305863822110046,4.482094286433227,-4.809545657198068,7.923084948056358,-8.286218974911698
76712,,-6.451669831982748,4.910818880762434,-6.048383389933816,8.009776211122151,-3.430788132018736,-3.189917229177446,-8.287553391394649,0.0481262912390283,-1.2748397645366036,6.8567587915820285,-0.2581689625420327,-4.118069260813337,10.985003254085113,-7.480856763832548
76962,,-5.520933941149488,2.9332952454095427,-6.610560554604174,9.292724373360764,-7.258841218618246,-3.0161432554917007,-5.592327595984958,-2.2509941692738824,-4.181320081255626,7.127484705762088,0.0589706150415557,-5.793633228650519,10.260230875094326,-5.423872081720362
77212,,-6.60512582490306,0.6160244739399429,-8.614035964460223,2.4898219926834826,-8.96228956137269,-2.4144992991174448,-3.7670743161057367,-3.128468734787393,-6.250250914104081,6.039936523408235,1.0409940091754768,-8.634776939295064,5.445707875729235,-11.033482110284918
77462,,-6.482147480458825,2.730940214864832,-7.726704590397446,-1.96584092668344,-5.788097710855959,-6.402111541049814,-7.311650065502892,-7.033004455668134,-7.043786320027432,6.984042971753341,3.469847408088885,-7.447151330532168,5.5651357063642495,-7.160884200567476
77711,,-6.358620791308248,0.7441482609900492,-9.079616603942634,-2.1342491553670198,-4.808016731593296,-3.4284065163958646,-6.196996064235733,-4.299906880627002,-5.514674213944972,11.066605142764956,10.290226402515454,-6.710066374109292,5.545304046940149,-7.337829768883361
77961,,-4.765334173509274,4.527076888069033,-5.573242483868911,-0.9833642800763488,-3.658318593074179,-1.3715047890951104,-4.986373611259575,-3.5078356836557973,-4.073829236722647,8.826111735738714,8.814441037490049,-6.168940055633047,9.40281470146598,-8.239811997085118
78211,,-2.226382737570374,6.373547030717948,-5.145061374574773,1.7118270081111415,-3.4430540489059918,-1.274622074799019,-3.413334201515885,-4.222368233527635,-3.780655026100667,6.388962006734349,3.472665966578663,-4.723510352450803,10.810546696301335,-7.055300149686282
78461,,-3.5139955945803134,4.1468296257853225,-9.153149879637589,-3.379897343733953,-5.911363912038232,-0.5301788173768864,-3.131425494013171,-6.8200381255387335,-6.058120952196084,5.051230715820992,3.3539638463073285,-6.441251243432693,7.742379810174944,-7.145964812937208
78711,,-5.802724258063492,4.313928787926848,-8.036467578818158,-1.0853034949738434,-4.029575239027137,-1.7149023955841978,-3.56314642444502,-5.880470513220609,-5.345077201523757,5.139403452172936,2.776298531657156,-4.649347395088993,5.656882407650614,-7.997829329735978
78961,,-6.806052388191,3.82087934288424,-7.241552480554871,1.3055558946824468,-1.224792245810954,-0.0601294861585389,-3.2172065302776867,-8.153003044375467,-5.758290600184268,6.742834122739567,1.1059998194102088,-4.304358000829705,7.3343531748300705,-10.205879245447282
79211,,-2.8876247591679283,3.201108545552016,-8.86408877751008,0.7708803554996173,-0.1907059751526167,-0.0540388615517466,-4.135105224915057,-10.663226443267614,-7.459764333567973,9.088863671105385,2.6401741365548714,-6.627566272948994,8.67991957087331,-11.076251369828192
79461,,-1.437985244956501,1.4799050291507818,-7.211437002637734,4.428868369286718,-0.8754388852166946,0.0082890787903093,-3.50054575134806,-7.323158883222314,-6.192444247780772,7.571692504517467,2.421255486550714,-4.224486329147973,7.425085662096089,-7.6263262615652
79710,,-5.474436138986405,3.210163723295665,-6.439090269716063,1.2450745097180629,-5.309311447462239,-1.947139381661572,-5.620518164936349,-3.2570175068474154,-4.885979857000167,3.5501614905904244,-0.033384969488947,-3.723015627621184,5.723104734454044,-6.26919739570933
79960,,-7.485372292632961,0.9864492081541976,-8.089233312669345,-1.3654379309032814,-6.847048029286675,-1.2692111167206792,-5.216574985102664,-6.975490064586939,-6.333794154436765,6.397825488459724,5.708456705776134,-7.49755549031931,7.292233914698531,-8.110143233348023
80210,,-9.399926357892252,1.264732627659584,-11.479960607718056,1.1003700630511657,-6.035823416953047,0.2525276666814928,-4.442633501394361,-7.820108634227164,-8.24483817402714,6.10207871749582,6.961697015647983,-8.532074456164944,3.883340655447923,-7.018047553208327
80460,,-10.071985684366192,2.164717703960488,-10.608657513261084,0.2697132298398368,-9.70199291334235,-0.9050322067394708,-4.314996795221596,-3.985708023507026,-5.248978612535156,3.2023702481469742,3.92945495231705,-6.92373209500111,4.654096217322989,-6.520076188357134
80710,,-12.587333755384815,0.4239955910208505,-9.90396178717324,-1.26641341427445,-6.0430373312155785,-3.6279124080154346,-5.190337537264751,-4.129249215645775,-5.021529367066423,1.9688965126639772,0.2939389475070877,-6.562777486874733,6.32458504749311,-6.9545517527520575
80960,,-7.661132413395522,1.2561232010134755,-10.420698871381756,-4.207090394031621,-5.167236250732548,-4.25458169937791,-6.1272346479232205,-8.581302955002478,-7.598062032668215,5.57557315240644,-0.0153005437104645,-6.60231514805235,6.609927670410837,-6.191176359933976
81210,,-4.743696075083231,4.783988798570139,-6.58302264569178,-0.7312253806552595,-4.92007779301923,-4.930325896748911,-7.866574283786358,-8.150117892973089,-8.57170009813897,7.312834739803272,4.63223257146674,-4.106981375066034,8.969994867168918,-7.409674352522993
81460,,-7.047210630562859,6.096988818450583,-4.834254876052828,0.7211715897791525,-4.461783559250926,-3.3544001318295646,-7.257581822107864,-6.272827453196577,-8.520207231909412,3.587126776043545,4.468256803391887,-3.8854406328672098,8.016165269192959,-6.327686622972475
81710,,-8.991686671254083,7.307154180018038,-6.228666225089368,2.363582628687638,-1.9262959225364091,-0.3223423944490365,-2.698943491985004,-7.809072638934293,-5.1442235186337415,3.892756670818229,1.9237637603354176,-4.283966624362775,7.312247942472383,-4.756255952049729
81959,,-6.865736522719708,4.51566607439772,-4.268791529510741,2.8275755618526133,-4.144327554300582,-0.5017837589729275,-2.684171243716664,-6.707274789139113,-6.529042547918537,8.549530304363598,2.529695277854121,-3.597503772041416,10.891059657664206,-3.5975680801770427
82209,,-3.532147925694828,1.7103163295521209,-4.529175001748492,3.059909364222568,-3.1751013139604045,-3.1860425155296057,-5.219115284917204,-6.357846493544939,-10.89934145948365,7.392672866345915,4.335192185607475,-3.941761810578623,9.885159211135356,-3.69229854256659
82459,,-2.8663238949595646,1.4921801806899302,-4.19098134464792,-0.1333526288463813,-1.0213206833717532,-5.001749201489679,-5.528685408591753,-5.81649524984649,-7.91737007152122,5.758629652203384,0.0903415385642136,-2.5241307310233365,11.157612296771324,-2.6499394679074024
82709,,-3.3871926760966184,2.613847448833507,-5.018825895232645,1.400583044564858,-3.0403803679787327,-2.353057906668297,-5.806313149768448,-6.178971727758116,-5.461861574894456,6.392096965365946,2.254825405607521,-3.711873628337199,8.818965446157781,-4.981921694239025
82959,,-6.058728245039796,3.332864662528276,-5.622942437794349,1.6980118840992082,-7.109165113225565,-0.5702010972581699,-5.808430839519625,-6.384387397031377,-7.604474564448608,3.726211413862675,1.720178793015616,-6.015633570610095,8.946150441789472,-7.403127809830617
83209,,-10.992616196298464,1.591265422781304,-7.415153121658557,0.3077403490833141,-7.385164375319122,-3.0572953007528625,-7.740892403775251,-9.74192691598936,-5.816372657393455,3.3124369473981763,2.6925434631857814,-6.922263795031512,9.575378983338284,-6.6646242364881525
83459,,-7.290208351597773,3.511325623215677,-5.1529403612287,-1.0726135512343449,-3.4415480533139697,-4.155325041690637,-6.194579129920194,-7.598122498317936,-5.281026579272526,8.402720423176836,2.705466001736445,-6.626058350271764,9.488113071206737,-6.871290142366399
83709,,-7.656765533676663,2.8365448276871064,-5.489207624381248,-5.653042036653458,-4.242848104434004,0.0240519999899647,-1.9232984050188675,-6.500818034460066,-4.527587461956179,6.520467091597737,2.4393931626278285,-9.520343277190976,6.418123234208347,-5.25201490658211
83958,,-9.63762982391142,0.8774587416136254,-9.758548123011902,-4.040309608110589,-4.341494319653743,-0.2207351062865818,-2.5290617265093407,-6.122290536344041,-4.827672406375712,-0.807748578182153,4.8632843735164375,-9.431554533804846,4.516891192502558,-7.223365902193265
84208,,-3.930111393981217,-0.9631820892416304,-13.13124089894721,-0.7130272142520739,-3.294046862607265,-1.1717094428120909,-2.1697332311017075,-10.193416234746312,-11.191534075458812,4.893925671539626,4.32836300194852,-8.64139531360705,8.368865011972238,-4.377866915801295
84458,,-2.759081895472334,1.2835521005975834,-11.557469630207162,0.0841741925992512,-0.2168171655484618,-2.036631023661214,-2.809543194425178,-12.12577668883471,-12.088714563496517,4.274655515447602,5.760764618128213,-6.0009553143008665,9.461547632577782,-6.446230982995008
84708,,-5.301517698101257,4.340883165708231,-7.587420460246903,2.305561510300474,0.0916668106355673,0.7971929442517032,-0.6892248986761882,-6.520283885386139,-7.456099316802188,2.855139354750263,3.2026016724803794,-1.651002538409578,9.13691806575028,-9.6816141617003
84958,,-5.691352219492089,5.251652024496246,-9.906564940627284,0.9999911733454449,0.4282720024841186,-1.788088281554108,-2.3351305740849035,-7.863000400304191,-5.687747596418057,3.986304332538385,2.043385875925845,-2.8265356864730373,7.474623733087293,-9.245730896985457
85208,,-6.014563465811145,8.188003161663644,-9.561873726363975,0.8716018715609429,-1.0467595468376014,-0.4512418758323827,-2.2116993692770883,-8.392832815650399,-3.479230420325611,5.9758972308979335,0.8691120433371659,-8.9654389504535,6.62155508317227,-5.763062493077174
85458,,-6.046302947216006,7.608265244223233,-8.944123427906725,1.8536884867334849,-1.6061366407697109,1.5236363004208384,-0.8710845614346046,-5.146399553403112,-3.037425163463883,6.739610634487617,2.4860510792060966,-6.211600740278791,9.54170117978154,-4.774186334283113
85708,,-7.136890805907113,5.910868628653353,-8.359177830582125,-2.297025434981127,-1.730314431167841,-1.034671861544861,-2.182725841790702,-4.992319351701782,-6.586382397679868,3.011615843718898,5.961785222319161,-4.8495814485042,9.377676453546526,-3.887634186354676
85957,,-2.651704078497197,2.741814560049568,-6.728353068070197,-1.7710356489284451,-2.467474879444012,-4.559796083704796,0.2522534318101687,-5.653510436538456,-10.120944003176517,2.329360728583844,4.073803199706011,-5.491037661694255,6.253069365219526,-7.495950750673002
86207,,-3.6991799225085913,6.002797633887166,-5.819828827797561,-3.1227667806149446,-3.3034194584258474,-3.7267751069096806,-3.2569119348256543,-9.745902039007014,-10.180582929578488,6.138344228483331,4.593227394952551,-5.690276589492445,10.09930404966791,-6.452433465004702
86457,,-3.981388197289152,5.328444530842217,-5.4593303835289175,-2.774202393210417,-7.629231702693826,-1.6577793005503798,-2.9551946021590743,-5.301123893996957,-4.16091756326027,5.6606040426860895,4.8889331443038735,-7.461752020672621,9.754434299061243,-5.156690653218618
86707,,-5.0236768610445885,4.913340650800781,-6.212658066667364,0.6291938752265966,-6.927652954714923,-2.7699754832118773,-3.96633396372628,-5.529630896261858,-4.97217532580613,9.18682398515956,7.01239663296901,-7.372580250707523,8.914493783415875,-5.898352705985457
86957,,-8.134141395575622,7.22874502829355,-6.316997398827818,0.5490845584523886,-5.224230923576824,-4.468364423940947,-5.08544340927517,-8.268039593054507,-7.402662183011127,7.322443000839943,6.717145482899905,-10.265628654421874,4.552643511452375,-10.055857176649363
87207,,-12.759975191833949,7.637812631511762,-8.82261968299012,0.0186803005775402,-5.601077057267062,-6.8769467359133065,-6.362055447915789,-8.596540815221953,-7.091315977389795,7.0018101412791545,3.2954987868716907,-8.947497823031117,8.164632130690478,-10.399500862619709
87457,,-8.058100100644154,5.872660230531702,-13.54629161832016,-0.1272154114940211,-4.794786534169872,-5.325229451344642,-5.442213878526437,-6.484546679344544,-5.680996781817028,6.2904058096434765,3.867573748351532,-6.132659636632342,10.489662136166318,-8.639372930007736
87707,,-4.834938334118436,2.629717992400036,-8.713324698185952,-1.0985416565892407,-5.610872800906447,-2.864318714354867,-5.414500829761666,-5.394162030489361,-6.553645783857029,3.673603877834611,4.452487840390448,-7.652181698878263,10.376054575140593,-6.25203376999774
87956,,-3.3623232905549543,5.12995313182186,-10.929470020218456,-3.176429748555224,-7.372896204823758,-0.6764108115422853,-2.134986676027457,-5.25878237867569,-7.836088476954091,6.047057259886907,2.6464002467865506,-7.693676485277223,10.281296163110374,-5.005996605736589
88206,,-2.021816140873605,5.648138140391063,-13.13231390919954,-1.5729586406269718,-9.88786675873174,-0.7984360341154483,-2.629937154185347,-5.859139113486657,-7.495788015316967,5.704098075931777,1.3087874545321645,-9.254845915240876,9.076416650986896,-6.873208553472011
88456,,-3.511906892260397,5.866528682865029,-7.064725675815879,-1.4787322912519811,-6.817537537065483,-1.895143196761369,-4.361069557521191,-6.068256048522411,-5.2085171293701125,8.641056597296513,3.4011842899797213,-6.026063167840915,11.051626563403891,-5.098455195814124
88706,,-3.293059428464187,6.939361322979302,-6.326394099329109,-1.3176067311717663,-4.395075439011976,-2.2086756637344065,-3.101947409178465,-3.450638456480564,-3.365825924709722,10.694274487776427,4.977182491373696,-5.6957372395421295,12.52877240174704,-8.72933622861415
88956,,-2.9130746009579083,7.500847697559471,-5.531292545663309,-1.838982319813646,-2.7483527891543464,-2.033601695102752,-2.933214753202087,-1.714766008962547,-3.992872101699506,5.854608534387177,2.187613805373996,-6.224392935622458,12.113315587606117,-11.070279243549116
89206,,-9.060626240751532,5.862487009187843,-6.3113467364115365,-2.2978061147359097,-5.333541895459079,-4.936926083838,-7.067696678100525,-5.67743512024709,-9.44938949075717,4.333971188136284,3.8744832386282697,-9.19873182307214,10.389395259134355,-11.001331078979817
89456,,-7.335337114895472,6.920061974027144,-9.285204241608644,-0.3389467010647431,-3.635376784696125,-6.357922862423147,-7.045377463073862,-2.909232925468164,-9.874673831408185,6.347841969390894,5.6897986064937065,-6.564840334623422,8.746864195145958,-8.291507711965556
89706,,-4.443764142246486,7.10215048019225,-9.32388826763856,-2.6561931568379364,-3.338801743837797,-4.020380063326079,-4.58910727787349,5.500261157667998,-6.820344334689232,6.229330436374666,4.328448333350504,-1.192201612802695,10.574494560658929,-6.0033476989345536
89955,,-7.645315038947755,3.754365991501735,-5.729089818995801,-4.333983758455346,-5.786600305956836,-4.822756018002826,-7.881704983593516,3.1236319386838307,-7.407801388371126,5.051129042124122,7.061359864557103,-3.3361476323503645,10.408591247559269,-6.940953663615598
90205,,-9.107457705911484,3.0521330346217264,-7.010616915734477,-6.812315632186435,-8.015747201038899,-6.34134117470857,-10.607833561820629,-5.489515449222402,-8.334663638598467,5.139382069764869,6.041029931574519,-5.702800145340621,8.685283473192877,-6.336637004701942
90455,,-9.234681390845113,2.011899101590184,-9.983302541931822,-2.7262500204976776,-3.8313254017964415,2.50529078643118,-8.668175711957169,-3.2787007927604632,-5.366834882066214,1.526783340567572,7.240103738212867,-5.684552084240031,9.099918558702774,-5.811120003100497
90705,,-8.392363952106646,4.09218057450804,-9.813767374020028,-0.1753888791055481,-5.284922947219,3.086985359398056,-7.075117323418175,-3.900648931886691,-3.997083334102634,2.6417937184488984,3.7856381349008577,-5.516106778396384,8.446974383742667,-11.082155969643514
90955,,-5.926962824786534,4.1898429421190135,-8.233103230179523,1.2058973077749349,-7.516270787730798,-1.3689525188480482,-3.9209487389379776,-4.730261963835889,-6.011283077101982,6.950775823212918,3.95976584850973,-3.304062167467418,11.834240632926278,-6.127171055432694
91205,,-2.4453096692195952,4.254613898717208,-6.241530784506606,0.8537326816067103,-7.415664152703954,0.9558102131596288,-1.414408426719115,-4.058992578816259,-10.382995178132033,6.316843950134611,4.231046199496826,-2.75089612749233,13.56377579769804,-4.1217427389239845
91455,,-3.0244935917462508,2.767559329632212,-8.631483354027456,-2.485979274343576,-6.469829195334452,-0.9113096578378608,-2.185463612423603,-3.598223905587259,-7.181706125569333,4.937603128931835,7.991349457555197,-5.918749243089396,10.697530306653732,-4.763880938606129
91705,,-6.220287893566114,2.8861934394977498,-7.857178826142502,-5.713281242353437,-0.898962663986685,-3.544866769560927,-5.745342913559409,-3.9363994766931314,-2.7251075096304067,5.5450570667195,5.38689645115201,-7.316551286422137,10.01685364302924,-7.352130782991572
91954,,-5.284096563410518,4.584358276822048,-8.042568219269079,-4.257026917651417,-0.2238118679597647,2.027046983374587,-4.77558626990758,-7.04568823561584,-2.5324310014286406,5.4837592735204375,2.593464228557305,-13.299118091947236,8.338317015395857,-8.88915765693078
92204,,-0.2920918171330254,3.936999210248353,-9.720091250762245,-1.36434962558247,-2.8620660135478757,4.117751255277339,-1.6696626045706076,-9.392921271878068,-5.627098352953073,6.757130174444892,0.4987696135929284,-8.705118447771971,8.82529253256957,-6.3442814008509245
92454,,-2.369800330910288,5.022707729927937,-14.35029158697738,-0.2192596196189091,-4.574055263219044,-0.6612185585292991,-3.0938635590515764,-7.20464901875979,-5.802785694752118,2.5645113649184847,3.219140755317737,-9.349591894514568,9.62025810068824,-5.512564082367959
92704,,-3.524665254640128,7.152306859674131,-17.97667643932484,0.0397235719962209,-6.859365630484526,-1.3376279344175834,-2.853566185316523,-5.279434272924998,-8.088506237445777,5.053886411795441,7.523199895852681,-9.175470093015631,9.456236454551464,-9.888598410213373
92954,,-2.636404581299412,7.245581223708395,-15.725307298283068,0.896754081559441,-8.45666002388781,0.9264442631327512,-1.3160985109877796,-5.995929439569806,-7.726977879923372,9.858445438187392,4.333896201032339,-8.106420528888618,7.82601572979766,-9.397835341958912
93204,,-2.1748867929659528,4.386665581383422,-10.956789889217776,-1.6623916633691949,-4.324725319956137,1.0074718203611297,-2.140459108056473,-5.502110908867184,-2.0513326191907826,9.134632422876807,0.7106706869421786,-7.743245503621444,7.832409610917935,-5.365828325025356
93454,,-6.282357405495615,4.677316518118211,-9.376456587024082,-6.411810244166033,-4.783130337500477,-3.890234409890813,-4.050283070034905,1.654640072561999,-2.682310918279514,4.404607806209008,3.4893932645017536,-4.75552058352486,7.4577398573211715,-3.865820662669013
93704,,-10.590035657085783,5.122168594966601,-11.8569092339504,-10.10743411382338,-7.873379848265706,-4.532941949163046,-4.052142872830575,4.64793010995923,-7.645511148860366,4.438203604806528,5.6952998220092885,-4.2965934909363295,5.206869658417203,-2.87146214830758
93953,,-6.3139288188803,4.953429223372537,-5.056151222174194,-6.047114494664765,-5.736900043264123,-1.7094143958885173,-2.1531168916355865,-0.9505588928664986,-7.108254362580767,3.3488756713250885,3.5117950309607298,-7.009556030315066,7.767349431421415,-5.601153482105046
94203,,-5.689441925150014,6.173612192203239,-6.449307645106446,-1.2253151856546802,-3.91960949858553,-2.607317575328876,-4.077507474549469,-3.2439653038248126,-5.202510934218268,2.6163384059922965,2.546830121319936,-3.583785689249978,10.719670164716463,-6.666883210905099
94453,,-6.6498649195901125,3.798366997556679,-6.538801598902041,-1.1766239745056308,-3.517922908221658,-3.67094651011921,-4.895561632194911,-7.30809688137197,-7.279615256072221,-0.0152326932251076,-0.00244415608166,-4.601139353977269,8.383091427396623,-9.3535842559091
94703,,-6.825135011232915,2.310111464967348,-3.5815412967757503,-1.1848778315766848,-3.811733492007151,-0.2331165142270193,-2.79259453929704,-4.448411032883682,-4.92946137349561,-0.3283143499363249,0.9001929083129865,-2.6598960381878616,7.459658526412286,-10.462657933834551
94953,,-9.134760803065554,4.4051212089689535,-5.281352280034231,1.5391435240635407,-1.8359388841944364,-2.110276522781139,-3.643713856946684,-2.251434594782564,-4.071986617852417,3.7359800882429326,3.2840086608742665,-5.35352104184833,5.432578826965273,-5.990575303673078
95203,,-7.675349039202692,2.208460794505726,-8.005173128803536,2.7585930870181343,-0.7124605951528391,0.6751292454365079,-0.5424827276871564,-5.571880660812693,-4.829224182396509,5.784407664824254,4.8560870916795125,-7.32798090527093,6.523054591888693,-5.341443622933896
95453,,-2.8678447759147825,2.6273645893236868,-7.852992151314623,0.764359543565603,-3.761309175454701,0.2338291297818547,-1.1107924110528755,-8.919082806578974,-9.053993714441017,0.3442281891948512,1.218629341590152,-6.080986128018443,6.33595079092835,-6.289847278274745
95703,,-2.328671102998469,3.3877011484276034,-6.2904438101089895,-2.063929720706193,-3.2567199791585737,-1.045540872266977,-2.174359001334593,-8.321738729791344,-12.133711419137772,0.7435255887503514,3.07272373386022,-5.04388891629249,5.171582531198951,-8.169775045699366
95952,,-4.260955605781593,4.629782501910929,-6.671598253372841,-4.497952458384501,-1.8728885270781856,-0.1814238788751307,-1.756344082809293,-10.37593253580098,-8.512445857210858,2.0174851418511923,1.033874295216991,-7.625783453843481,10.567198236646169,-7.667878994269602
96202,,-3.918549634118994,0.3542687118857269,-6.518742831519431,-4.2545251378669615,-2.45354754407928,-2.737951557564036,-5.980109844230802,-7.25724009909351,-7.012316721775935,5.767691324134479,1.0632228177871037,-7.848012351940179,9.09197411671578,-6.882120027825044
96452,,-2.406217573340987,0.548583686275858,-6.452784672413898,-1.17457801624362,-6.706985952987019,-5.372994134392735,-6.804693897243219,-4.603764090351648,-5.429429304166394,6.985961322570145,4.679217855445392,-5.255415886582621,8.625667957914969,-7.236485703910645
96702,,-5.565545020866296,5.449373823670907,-4.930838603928425,4.181676704488208,-6.090042287044708,-3.519998593134459,-4.763723455005421,-4.73784976256225,-5.0392073613008295,6.334548541613247,5.595261056895163,-5.747375200523418,8.864562787483255,-5.764407606664691
96952,,-8.171833407493859,7.109881429780385,-6.202135236893756,4.6844632382593545,-5.62593476747643,0.7811742189812756,-2.0681945956099543,-4.078195479237724,-5.415608414830615,4.72559233689598,5.386030479166875,-4.780388014672824,5.728954064950966,-5.45579792156502
97202,,-6.717768923436314,8.390962687069605,-7.990627979645195,0.2046261554612159,-3.8641204338770456,-0.9069785222520592,-2.856662885482616,-4.934431376227032,-6.0043070731087695,1.6637686161114065,5.778121412265702,-6.137645240019723,6.857649508412528,-5.106937467316489
97452,,-6.0369978978932215,5.316154757956975,-6.571771821612988,-3.666851191009768,-6.560825692451005,-2.8420795188796526,-1.7818758842180482,-5.993366165512883,-4.182335191109214,2.34310840942538,3.217268159107716,-7.197233172990182,9.437770087690511,-5.904326610486664
97702,,-7.00184892524507,4.583881994163649,-7.69540155297698,-5.623617960635703,-7.846580775161085,-3.765110735835545,-2.677109618741183,-2.933623351889897,-3.4901587107193444,4.6752839270006,0.5167622655506766,-7.663365106621494,10.124125017707986,-7.823689657972725
97951,,-2.855885808851828,6.369178897309885,-9.35831778891837,-4.376145854839242,-11.099706617653812,-2.5393175609127594,-3.799148147572881,-3.896863883133927,-4.787013312374081,5.916560993152316,0.9970275229187197,-7.290019392692468,9.391671975329372,-11.29921858519561
98201,,-2.783705378459283,6.1922141632747865,-9.494684958656832,-5.537942103110077,-8.700307731725408,-1.926222675109741,-4.730665906179299,-6.751568339634399,-5.998340263568567,5.724962473768106,-0.8061989142741071,-6.213669558856273,9.2777470580381,-3.804728799224634
98451,,-5.039146773250441,1.8913443492781647,-6.832675542291392,-5.320196491553056,-4.952356627146727,-1.3027521488661034,-4.286105262766013,-6.56350481849117,-5.395441793031218,5.573207988749621,1.1825981746507972,-6.813548336642904,6.71682224964264,1.6466512770438009
98701,,-3.761020559526646,3.62072007106806,-5.704781165192896,-1.6215603624114194,-6.040663714026268,-2.6954362965484524,-3.701020921759098,-8.827998350525746,-8.604540283351808,7.9400036826879505,1.8646272037096043,-7.120814734502564,4.867202142710168,-0.7662982019870661
98951,,-5.0482830742151,4.49101248489653,-10.779038436402146,-0.3819887723491248,-5.648658934323965,-5.005967185466468,-7.33386372152893,-6.910710891116416,-10.02959149160783,7.522004137296831,2.640173434254612,-8.416194900245577,7.7002780756953,-2.6826846113955263
99201,,-6.313901485518914,1.880911565970957,-7.744896160945814,-0.7810877071467042,-2.926725741322959,-2.951253741305198,-5.331094633793887,-3.952295245729416,-8.693284790861451,7.889669146809117,-0.0487283071155786,-4.81403979782666,8.877284169127053,3.847166087893172
99451,,-6.441497345427376,4.480281943363743,-6.83796303861416,-0.8260056880871874,-1.0619649488896896,-0.1752686561046536,-1.84481098413664,-3.2376277512710843,-5.360627934364545,5.52682369121669,4.7075372136916975,-6.8799657936335805,7.507582290938128,1.445094034374914
99701,,-7.568906642794736,3.997518032909416,-8.456955010767366,-1.5913946810431443,-0.8758923814082531,-3.389913133574308,-4.315105251126174,-9.078189614467924,-7.105019894486366,7.443909255023985,3.0051376833521672,-4.917331980888198,6.133305941815682,-5.966038621742708
99950,,-7.47165662380149,4.0063037404354365,-6.889575364668938,-1.6700670960369892,-3.3074072430418573,-4.616431321974796,-2.5800655403479693,-3.5895427481298974,-5.327579865567895,6.004616595060373,4.03838974913091,-5.011733383006196,7.542246678026316,-8.923421702690023
100200,,-7.103861882507024,5.901195707535022,-6.400220237566556,-0.3429595694889877,-3.4435534797693945,-8.621024927804438,-5.650896936438418,-1.839006389515911,-3.172545336115345,6.540582834421771,4.496281577173291,-3.261466628509853,6.434752279348559,-8.593384593186164
100450,,-4.867759769073089,2.9241286344056,-10.170636615177957,-1.1981671361063717,-5.784794076226434,-6.967106526059695,-8.958830927083364,-5.010677765141206,-4.296207726156316,5.236637192689909,4.732060825833103,-4.868462691859575,4.869335371314635,-10.9614376471853
100700,,-3.818618324006433,0.5341729047406639,-11.301325650209307,-0.4437583612378775,-5.514395656891139,-2.7460745687389023,-6.787246280266926,-6.731293658307096,-2.990608081798538,3.014499609084621,1.6017409095470492,-5.681905758309307,4.661351058512832,-11.374611474811823
100950,,-5.965646007324555,-1.1676460687702204,-11.592034303972206,0.0807723152603124,-2.917579251899966,-1.3775931691965513,-3.888197239177421,-6.073401130218646,-3.678110486341989,5.262923652208008,-4.223549634168212,-5.5911638674776585,6.021019025171467,-7.433817982551066
101200,,-6.549749496355055,0.1708338016932246,-8.244276949283504,0.0180869228098606,-1.7043590398636577,-2.415442205950235,-2.483740626794329,-6.095525955454986,-5.874148307715621,4.966035654085928,1.3174534328979546,-4.527966775643842,9.297761948412637,-10.093682793216558
101450,,-4.052558344284615,3.054612735841186,-4.932075219517652,-0.4466081442216197,-2.847780559758964,-5.445972695924692,-4.216948422138463,-6.991256072402942,-5.915540471480131,7.563047725367258,4.129867809696384,-5.108801221416273,9.932531183349724,-8.221791454993696
101700,,-8.700579130016934,4.999163750797581,-5.073343699854646,-2.72257469489643,-4.14776634964948,-5.974819581887222,-10.195427969190668,-1.9376865548888176,-1.7893440320289304,10.115866463103904,4.836784977829694,-4.294783280263693,11.35556586412157,1.7062934367561269
101949,,-7.672150705532635,2.010580609538701,-7.818410556367223,-2.525224643517256,-1.0552858789210893,-2.4966819037317403,-3.7235140597689913,-2.118363625100938,-2.7747266767055985,8.720102230051772,2.053438313424678,-2.2902089136161905,9.0897008344983,7.084696422823704
102199,,-10.030507014422138,-0.3610281870580212,-10.012910004428534,-1.5850155762850402,-1.05614788651158,-3.077712640664811,-3.004829025097436,-4.313979251133032,-2.4581872483953977,5.761426695406856,4.096080474635174,-4.299018638632139,8.210921724083915,1.4580681169713725
102449,,-10.374355480564772,2.7545843903383185,-10.321185226562168,-0.8422781808875596,-4.693630443404926,-3.707780875715237,-2.352181050988005,-2.289360683181413,-1.410128917750941,4.954455063101141,3.5283883515809142,-7.322047501817598,6.657718249944505,-6.809086879290494
102699,,-4.705765498935095,5.60183568777037,-11.977491488169354,-1.9522277559418848,-7.167341238718826,-3.1699229698146554,-3.990274006775044,-3.376196798271188,-5.02388594055068,5.071289632303321,4.525370528701629,-10.275468318938014,8.30460512571653,-7.315986654588511
102949,,-5.020685631695394,3.433996101541847,-12.978268614967314,-2.584013413425506,-4.687196706026453,-4.5656258757340415,-4.8218102890643415,-5.713115068780937,-6.392991866242104,6.4558757244686085,2.7093313082165205,-9.4536969319429,10.676401147220565,-9.7521562270266
103199,,-7.892091258936419,2.5042902224527035,-8.27681970298477,-2.139880648656185,-4.790990959739071,-5.767055119226977,-7.010526176616287,-5.410619151925554,-6.015541425716156,4.593887323074267,3.004968448627005,-10.557578248834922,8.617199711253116,-7.525525926783615
103449,,-6.682871993893629,2.1889742008544864,-6.123762678978176,-3.886359227764121,-8.439001381148486,-5.2726992788013005,-7.996154686134039,-4.5733214283711225,-4.829663119163493,4.0927930683222495,2.391796576976573,-9.430169082647952,6.37055263603744,-5.372264874639376
103699,,-6.675155395332807,0.3978442242250269,-7.105486047761978,-6.48061048856457,-7.395823326742093,-5.568134525787816,-7.279488628666792,-6.107744878433285,-7.813201343385804,2.560243035791217,-0.400769768579752,-7.105655901735405,7.79069171508766,-6.160521761724498
103948,,-6.281746301918652,2.430236593632756,-8.532073469390859,-4.783126485873432,-7.132892707124152,-6.548061895767128,-5.273216320682293,-4.414359357189252,-8.358172176117831,3.98169604904782,2.5250364094385875,-3.6515414760070497,4.6976306378098105,-6.21045843481244
104198,,-6.065205819835125,-0.4222422525133769,-9.17677032959758,-8.282551685382387,-6.120068891779794,-4.339615415368302,-6.053058239038643,-3.757235652280829,-6.503819679349007,5.978224364254654,1.1635001258853788,-4.130739508949093,4.907146185489192,-8.174559624718373
104448,,-7.698359696832377,-0.4758425036735169,-7.110755886869402,-7.300748571324619,-4.9270785448093015,-2.730104829231339,-5.433683830992463,-6.046725711898336,-4.317506765738414,4.422000823888263,1.7054600142872904,-6.524314077517605,9.99558800979757,-9.714314227819678
104698,,-5.456583292642417,3.0651458117011003,-4.576530592712309,-2.8961356375750222,-2.5779770518303184,-0.212726535125562,-3.135963184918936,-8.223179640861181,-5.081308344802112,2.769067174379779,6.982746652701072,-6.532879613700466,9.693523792190744,-6.273386186379546
104948,,-4.370847988394408,1.915032216429497,-4.452937796921414,-0.871802390005728,-1.9428437802013587,0.979121631300526,-0.7356026405634551,-7.892800712076161,-6.607855228272524,3.816504272960596,6.139365994267775,-5.271676055250132,8.504381929404811,-7.768226352202273
105198,,-6.404176021674313,2.4099886709235525,-7.44769778044974,-5.1026804110460136,-5.717121817733938,0.2332147770079733,0.5714059926526887,-7.42123616229166,-10.546487359850932,5.985484039524881,2.408913221663627,-4.322267225598662,6.271761130741234,-8.55786622093638
105448,,-5.678017744725126,2.648578511281988,-11.544089474223984,-2.9829084593117794,-6.3931279568214485,-3.149594786477979,-3.3674908928310248,-7.168738297633748,-9.543686810813004,5.610262954389015,2.737051225301949,-5.621811804830138,7.282212606733798,-7.961887657798603
105698,,-8.619350642935238,0.7390860993058725,-9.856234563983168,-4.276094478692968,-7.149020646006408,-1.017841367711292,-5.6283940601694935,-7.422161434638738,-10.095014151958544,9.553272526735247,0.0982131645200536,-3.821050921809519,6.699383807563287,-9.082721960727724
105947,,-8.846875471736404,4.890452256188837,-7.429100113790249,-4.224995800673851,-6.48725766619485,-1.379183708227285,-4.632456126948275,-7.716407965732586,-7.934793148234133,9.583817603731584,0.7522002529685757,-3.706467382060136,7.969305997728067,-10.947262440982914
106197,,-8.363814821423105,4.330657189856799,-9.391694409867297,-3.279243959686638,-6.125983539244686,-3.644222243768784,-5.544950980178639,-7.734105836636736,-6.241824456518838,6.501760004483685,0.6218909479750289,-11.859469958195332,3.99946852536536,-7.238819632673302
106447,,-2.713478504907856,3.0361328653921293,-8.945043148881396,-2.926049031818516,-4.558881067525264,-1.704392194829513,-3.016434363717246,-1.6390509612727646,-4.135366767719132,5.697311028438468,4.242211571303005,-7.774965538481849,9.3219716054425,-4.871802030198264
106697,,-1.4285743368060548,3.062109778258738,-7.664373510721065,-1.1700254811001582,-3.519226095564913,-6.360749192945639,-5.388032885419358,-0.6186077330390107,-4.002006567450312,4.835093528212956,4.9801983859671575,-4.825809176074487,11.79046105831997,-5.356172869779136
106947,,-5.705837670370569,5.234945071294646,-7.056614370880446,-1.2466074916469996,-4.988266880003183,-10.6978725372305,-7.715830997258706,-1.5649236448261694,-4.092648290841762,4.543431470275625,3.067763841496922,-5.286982058221806,9.858422080576767,-3.9134312927779416
107197,,-5.9342630844448605,4.553991647249413,-4.119765461948885,-2.4001602345695745,-8.11126119729932,-3.8261411941372425,-5.120701381939764,-4.151926552891299,-3.677235180901319,5.809404528788123,5.793501723375961,-5.78477469764405,10.02604438902612,-5.346835587128716
107447,,-8.170468247782008,2.878461824201032,-5.004188911605864,-2.3535016253481995,-9.669680662944458,-0.0792637219045759,-1.862267906860012,-4.557322615438385,-5.080947411893691,7.067373901005602,8.485740775199135,-7.968758454377413,6.8773060540008,-5.179332484431108
107697,,-6.243177491666559,2.8257818221629942,-7.072678339335596,-4.535495888270866,-6.085827340733902,-2.6747369634584164,-3.277723420254856,-4.124668870325642,-5.490812787230665,5.9847073684143295,5.6619550901191085,-6.515351716472811,6.33111205508552,-3.3617288626566117
107947,,-5.814863761768555,4.163337784939648,-7.812960857627681,-1.6383918924957095,-3.015319714469729,-3.232645199217847,-4.771653079715672,-7.532184093424624,-6.633387897595476,2.7070343554415177,3.1427947890706545,-2.9663830530058277,9.198299282615997,-6.831911514988132
108196,,-5.272168814720015,6.338826500506575,-3.7052548923027695,0.0871310435265261,-1.0841007313112527,-3.7939199681372937,-7.845807996149054,-5.754115750463001,-6.5052099081991805,4.961300440278975,6.1356276321573,-1.9065779617587877,7.568919554097519,-4.870204093258057
108446,,-5.358200001713161,6.426585680148964,-2.538292351499755,-0.6309027249866683,-3.0132776765341984,-1.730415735063754,-4.949817805250468,-6.1420333304605705,-5.856599870209756,5.05979294177,4.281616167893106,-1.7660207992081425,8.069848698770723,-3.692629999852568
108696,,-4.257439022716531,2.887528323606896,-5.06506213750929,-5.181179458398645,-6.32607829332062,0.0066589854288198,-2.6439523287576865,-3.420336711333677,-3.5946566921455525,5.17319202216725,3.4249617447923244,-3.085320235699927,8.014694436123712,-5.671472809590956
108946,,-4.245958696971933,-1.0847419549223,-7.241413628967193,-1.1714997916722478,-9.642428506918137,-0.2122601099960533,-3.4693710808582745,-5.050614082698333,-6.620031598549907,7.2499370889318016,7.302537338042648,-4.38492239243744,9.375148876528575,-5.820063301640546
109196,,-3.818686395022085,0.3145122675991482,-11.229036870023744,-1.4090761356320196,-10.256121180203744,-0.7689370329441558,-3.461353200832338,-5.715198815125721,-5.173341070208521,4.712286505571313,5.02378592588617,-9.06150717909532,9.992225392788676,-8.185272818502119
109446,,-2.1723602004897407,3.335176700998418,-10.973275543116262,-0.9105779516762024,-4.492595612709619,-2.9272668175681216,-5.022490421495213,-6.696377059937955,-5.0481112070895415,7.520974263071649,8.773390011542205,-7.416128127804232,10.495178300513093,-6.9756303718498325
109696,,-6.390141428559066,2.700537237271698,-13.081127436306604,-3.581657918996781,-4.949541658537502,-2.760135389201084,-8.067451492221506,-7.583164362685059,-4.695262366922055,6.000882583337419,7.465828831960746,-6.0035191424188135,9.325411054353776,-7.203637111140939
109946,,-4.706985976459306,1.4827688271683497,-8.730783777720186,-3.93641671720396,-7.451099152960133,-3.2005186821664955,-4.198450818012941,-6.919299855520413,-6.909803412573005,4.45441071729185,9.823428485064133,-5.572810521185229,9.431494540135944,-6.691612615400492
110195,,-3.336706843273252,4.7934646201553575,-7.316593262402732,-4.502858474731491,-8.396955926035009,-2.8799033398813,-2.505626397348142,-8.568860095689942,-7.200638704465527,6.958765123468853,9.16667017071044,-5.591265180459963,10.689437325169276,-8.030210834168358
