timecode,event,eeg.af3,eeg.f7,eeg.f3,eeg.fc5,eeg.t7,eeg.p7,eeg.o1,eeg.o2,eeg.p8,eeg.t8,eeg.fc6,eeg.f4,eeg.f8,eeg.af4
0,,-19.24562899689268,-10.133299578984944,-19.86766980849169,-9.922836656130809,-15.152480217969304,-14.48270926159003,-16.9756584679596,-19.130723472644743,-15.98446465488302,-10.62721408092491,-4.3775491653994845,-19.89479494080036,-4.392894607520988,-17.954814130601708
250,,-16.509210040248682,-10.177397578427618,-20.491344031049845,-12.275647847257783,-14.485212799500228,-14.2304094115891,-17.67663057435662,-17.48862155548821,-14.799871638916036,-10.493602107922037,-6.8067440819512095,-15.188925045439392,-2.632535562685987,-18.080289143627542
500,,-14.010434945771657,-11.763108563709135,-16.23757149282931,-11.548427286408296,-16.116441512452255,-12.762579711699676,-14.706748227245512,-15.197663735178788,-16.392427708807325,-8.882875990226468,-8.769501387926983,-12.558485900646785,-5.93941160165466,-17.303249565205334
750,,-13.865001931377725,-10.734256709915051,-16.185203539986013,-9.157292306957956,-13.563375587407869,-11.41391718384968,-13.62014632495541,-15.091627282430728,-15.957379344462328,-10.569341298215598,-8.864003785168507,-12.43546800376097,-6.218746507878458,-14.701051316875862
1000,,-16.564662643904786,-8.720911942031126,-19.643713082118214,-12.31781137395787,-12.521935405761424,-9.96844087661514,-13.179871673323376,-16.614437710108234,-14.851495901079891,-11.595721904047638,-7.9840793186293055,-12.6626229655854,-4.46668441703685,-15.878713526839276
1249,,-13.509163671974374,-7.9620093254079745,-16.576119255338494,-9.880113690797176,-15.833064959986494,-10.230132535986948,-11.980460188028852,-13.476066051777185,-15.007007667047304,-8.037021803429404,-5.429996793788482,-12.671496104607533,-3.6640238896600543,-16.692409598967494
1499,,-11.848523609387136,-8.017726378675924,-18.628065376779567,-11.224236514398225,-15.69933159610818,-14.67249272498596,-14.62068623433095,-11.29611312016561,-12.636729559591826,-8.42775894432931,-4.848135007537176,-13.61176338569236,-5.198130403247755,-19.355282906738267
1749,,-12.448276535974184,-10.049346603376224,-19.91476552759173,-13.529106235035025,-15.135736470857095,-19.2490968548277,-15.02081562250282,-12.310181876421202,-14.333567818298786,-13.271697206057462,-7.862243945071561,-14.588565677249058,-5.8106060562989,-19.2118718272488
1999,,-14.52596248160794,-15.40240778320384,-19.388506469636138,-14.36300307866964,-14.184166907911235,-18.6514703638279,-14.062578065245397,-17.808749771944136,-14.084803140771005,-11.945484980957312,-8.676581473552353,-15.921996671450032,-6.078239350794602,-16.149496791872412
2249,,-17.535584408883402,-12.467542060778433,-16.4602614290914,-10.822207661783835,-13.12113637487138,-14.690033465437422,-14.492983879615224,-15.800300362755731,-15.47308868839721,-8.555477983522247,-10.577975515157146,-13.092105354711236,-4.230660355221911,-15.613332761325044
2499,,-13.589509712983002,-6.086726219356848,-15.155978891093683,-10.12868583379512,-16.56221603461546,-13.68707882896988,-14.083165012693335,-14.441659642303213,-17.632522885726264,-9.02868725852835,-8.416486245576912,-12.70442292667176,-4.79452711817613,-18.69535367239513
2749,,-11.630837952845994,-7.257179246607047,-17.394820105938045,-15.5031103738019,-15.94899557608715,-14.009584202165826,-12.88317244371173,-16.659684999843016,-15.842215375278544,-9.54285482438051,-5.569799643204689,-13.816958682956686,-3.2010931875721997,-18.624588962527923
2999,,-14.78189546551884,-11.91325929513644,-16.069075358574384,-15.50348287039979,-17.04036278586527,-13.92847587460994,-12.495047419702852,-17.341670381633165,-14.456729102364855,-8.3178269597352,-5.46248580545287,-13.302804047153789,-0.3882132098095577,-15.219874041494457
3248,,-15.504607954569805,-11.577144103264372,-16.921608085556088,-13.026056012520735,-18.982064908015246,-13.078026113019831,-13.363240266333998,-15.2664637443434,-14.993746838795277,-7.993152087662361,-8.470290995036915,-17.174915346995487,-1.983271124500675,-14.331840203615354
3498,,-14.93841156228961,-9.645639748137397,-16.02412893612688,-11.891415683331854,-16.34116082598282,-11.048636509530631,-14.15270674023274,-16.197450225198548,-16.800763947802537,-13.242693944839925,-8.672973297449456,-15.86158274310824,-3.9694477144861566,-15.37090418241393
3748,,-12.628383559675814,-8.929775677629284,-16.601353018357834,-15.470034247672974,-17.38858107667976,-10.973868305777556,-12.368108181322617,-13.184473636392951,-14.520657996440365,-10.535226835882394,-8.584552992281536,-12.895916970123906,-4.6776801374648045,-17.378661038779295
3998,,-16.56559855215842,-11.114692721070332,-18.73714130562398,-13.868588178152423,-16.190124378012296,-14.39004456705388,-14.410973652191474,-15.053620710488998,-12.754721542306092,-10.34711144323837,-8.687293619763388,-14.73546616356236,-6.7976954982929065,-14.66414417347477
4248,,-19.035540329332317,-14.25494107110614,-18.94200058706849,-14.612947192604564,-17.42844486674461,-14.066543675620744,-12.33003813511582,-17.260391913671683,-16.6261697177466,-11.667273048282016,-8.806872124289812,-16.19296191004591,-5.516324544398023,-14.602496370182935
4498,,-15.423368859337073,-12.448426339552755,-16.799691973394175,-14.443585505235516,-19.56703869626791,-11.093624476703972,-12.333828837096174,-16.651317597456558,-17.99946744820099,-8.295627969237415,-7.608291154745565,-16.061336831701677,-3.4162973389110847,-14.863410485946902
4748,,-14.321711440127238,-14.38550485791989,-15.493922399858237,-13.396441575660504,-19.046193824354628,-10.101312743776564,-15.244966436511149,-17.289042580289127,-17.072097389047073,-7.767911535966528,-6.778238647099897,-19.08867805543977,-3.4655463183365147,-17.267541830347064
4998,,-16.658289578945922,-7.2798076910781155,-16.70255865169956,-10.4019623740703,-16.443898144181613,-12.300178679917016,-14.988321164302326,-18.610298345073637,-17.901327252593777,-11.377196505364518,-6.164047355199845,-18.24736367845997,-3.786789082521873,-15.893053569713524
5247,,-18.11033297661005,-6.773327336937456,-17.49641483422299,-11.972380417954106,-16.360510830512844,-16.298316640490174,-15.233732357446929,-16.88132870954517,-15.32714428772793,-12.184463201048937,-7.9845657343715,-19.40414461886301,-5.200135606505518,-15.58224531226607
5497,,-14.925332490914116,-9.494770989634391,-15.117786534656869,-12.603675157325837,-15.193781211989116,-14.059931853323976,-16.62543130060804,-15.590303586056796,-16.46376483420924,-11.873513125180878,-6.097527449810127,-17.800864369950872,-2.762782437197276,-16.4944711560369
5747,,-14.739454477611709,-5.629572471679732,-17.30497611225963,-13.804850745873926,-13.9971767496005,-9.676208456160452,-14.36906963891718,-19.752136035100825,-17.240658953992284,-11.780473882521855,-5.965999936199714,-15.207968945759925,0.1898998856478681,-15.344290566855992
5997,,-15.479968734854433,-5.284465693177514,-18.60244536472849,-10.510197182968728,-13.936587075279755,-9.70521383063778,-14.383292879335908,-19.569298566673737,-17.290915342199334,-11.29043440805507,-6.602682725883046,-14.339511803530026,-0.6057498725102445,-15.175923537430986
6247,,-14.925995463717694,-10.383076592393408,-17.430351919242938,-7.616330795069422,-12.93304589450452,-14.996685653003548,-14.971014396169224,-17.25218261111882,-16.12388975930051,-7.558882404385018,-8.692430340252727,-16.51346148488392,1.1581872992195203,-16.054798806650805
6497,,-18.59587705536951,-10.811637019083712,-18.82433940835287,-11.982369148132328,-13.089397247978436,-14.229644353480747,-14.36856224597686,-18.159271167282117,-17.056900947374512,-9.354767846011583,-10.38222579984138,-14.96850783216292,-1.3122664236770225,-15.563156601400284
6747,,-15.508954866199277,-8.044202759394508,-17.214856156858655,-12.151902652011334,-13.72547899860928,-13.877410059009662,-15.388910944798448,-17.56777901557054,-16.82552154113757,-10.664214937582493,-11.648177542668003,-15.786977687974776,-4.7006370662927575,-16.438325574067562
6997,,-17.6338494545829,-8.90068391069769,-18.32015879976128,-13.077956211023093,-16.423510695881724,-16.47041508146369,-15.55371276285952,-17.940305155491682,-15.081491618603254,-8.667021703462979,-12.566805427688262,-15.49701881951933,-6.031147649714914,-15.709333784489743
7246,,-16.804447919214905,-9.90118856867305,-19.19169604164651,-13.65329365147404,-14.225964545127267,-17.931107065580555,-17.649074193584525,-16.164619582828774,-12.720725821063915,-8.738678620246148,-10.103110690009952,-14.459405000494131,-4.482958942395468,-16.24445520982576
7496,,-14.520733178275892,-12.262411896084526,-19.76827001511332,-14.73021231962858,-12.819904863739698,-15.901775401393635,-15.496837959998576,-18.57237740723747,-14.754713623706715,-12.13333256834207,-9.564124489023143,-17.918602581460753,-4.875849307209952,-13.872789356319457
7746,,-14.490309472346354,-10.692308872687292,-19.14703780802794,-12.36209615763894,-16.626729626073725,-13.66412372166486,-14.875986080027824,-16.712103900540768,-16.41636219455384,-10.998818570081689,-9.913994581884626,-17.594794607412826,-6.05622285485866,-15.97306081357494
7996,,-16.985505884406845,-10.8624265347934,-17.2389110360857,-10.78004217772246,-17.82022596130622,-12.506081488996214,-14.443517157581631,-16.068775399165872,-16.5488013047317,-12.308857117944704,-11.236594793279526,-14.079073886085329,-5.044233068125717,-20.52322389208161
8246,,-15.656126913722908,-13.474231382406064,-17.18261988102959,-10.6626188602281,-16.501503639108375,-11.775019430581132,-14.193953145408326,-16.082629041166584,-16.587121765724962,-11.71655651135649,-9.228001943450604,-12.988991642320286,-3.835407061083738,-16.869671071801275
8496,,-16.734264233867197,-12.763791481898403,-18.4011816366285,-13.064247977643216,-16.951066472031524,-12.013609879905186,-13.321302753629023,-16.852331159710026,-15.85183348318145,-11.642840622475523,-8.110204384090885,-15.163874157879516,-5.825725265445785,-14.46024681956759
8746,,-17.670224145445946,-12.08349160668723,-19.14158492474732,-12.688058388947804,-17.204798439543875,-12.36434576786206,-14.7363664585172,-17.198795739360158,-15.669682237906343,-9.606436770504663,-7.75598859968642,-14.514653413484632,-6.576040140960856,-17.532054720839938
8996,,-14.861720572482788,-10.518093656248888,-19.29286397135929,-13.349144201692278,-14.726717806112662,-14.123592010606156,-16.529188714725663,-16.03185873532478,-16.013214463875514,-10.85623007081419,-7.354523713615288,-16.540247733793837,-7.19600206623353,-21.11627200973084
9245,,-14.0316279116492,-10.43548088541769,-19.279487083779006,-11.6710895502219,-16.798761528157225,-13.83512878634794,-17.01587875898053,-15.517932817162103,-13.709601298348977,-11.441781067646248,-9.64718192193894,-16.37730162388776,-6.058444259008921,-19.836120118124757
9495,,-13.980368986434051,-11.329216189200205,-20.425411631554905,-12.561669919155577,-17.322901068429,-11.680812801499362,-17.147087431918447,-16.143434383153053,-14.441993258832175,-8.782800484238996,-11.584350107413556,-15.602537113099311,-1.818715159222174,-18.027447471496064
9745,,-14.31354843787079,-12.686526690247783,-18.60752842123624,-14.4450931154814,-17.272279842031207,-13.751814877528547,-15.376254368187505,-15.605579047179717,-15.592390279309642,-10.466691167271415,-12.13145793531009,-14.840053193489885,-3.5251779095949325,-20.73554922101591
9995,,-14.658965238508705,-11.084250302327266,-16.702906486542012,-12.120271617656108,-13.16423337773676,-13.941992240201149,-12.679444307963765,-15.988728426268732,-17.568079389067396,-10.236852365315558,-10.465698416072868,-15.665138845256976,-8.015970633645065,-18.23787604706628
10245,,-15.596159065847274,-9.865204212223643,-17.56589781919398,-9.912700053270358,-13.72212790285013,-12.09019469185643,-13.556275814366236,-16.601993539997192,-17.581176532027666,-8.812732804874178,-8.061275447191335,-16.353419707283074,-5.893703885611952,-18.519290195260798
10495,,-13.74712135588756,-8.831398452193271,-15.965429772281874,-9.451935038664312,-16.68480033279308,-11.222514506656802,-14.412359904896856,-16.36869319180102,-18.993354134101285,-11.73926629932032,-7.518979093985648,-16.215918448280426,-2.940615674329888,-19.067339734132236
10745,,-14.03748266303442,-10.5156375320732,-18.18765405377108,-10.559081103317476,-18.08273320310641,-14.338960496716895,-16.130425095405517,-16.45795916077738,-19.750836499116406,-14.30825896520335,-10.13672392524689,-17.66523901611331,-6.418239075531852,-18.66632209200055
10995,,-17.07265835750694,-10.876255226145108,-18.39750141448141,-12.506089071915271,-15.906839885827695,-16.24209005929098,-19.9265449006346,-18.23966242362718,-15.49037898186417,-12.823346147609618,-11.934849880024888,-16.372069420961758,-8.717939654836028,-15.14123605966084
11244,,-18.2304576413072,-7.384834550060545,-21.12071023317446,-12.171224081587066,-13.798961261398004,-18.30784287584668,-17.08541095206928,-14.915880208129952,-13.571713470769094,-9.958822779634875,-9.463049244327676,-16.539928029619034,-5.080390299411058,-13.850147852869316
11494,,-16.293571235436286,-6.630096086200295,-21.324143807735027,-13.572891067461818,-15.8181886944518,-14.063929953637269,-13.22016137180384,-15.362136715989667,-15.453884270185554,-14.525248593187715,-8.903796118391242,-14.308042725317016,-1.9143912358900512,-16.132664238290992
11744,,-15.63519438415518,-6.838653795083813,-18.360833038251165,-14.61643486170219,-14.93288973553402,-10.371078121359778,-13.692758163043578,-19.077174559322533,-19.383479181032666,-14.393069858171287,-9.258453154082874,-16.35997774960721,-3.723289849442184,-19.414910557350545
11994,,-17.367716506371373,-8.338052936712119,-18.3820445993129,-16.73679990059182,-13.207472995686286,-13.483147672071183,-16.511221788940116,-17.686039271361572,-19.028910378903245,-12.226585170966768,-9.307768955974767,-17.670001557200422,-4.6774387478810615,-17.656384345276884
12244,,-20.39965931174057,-10.44248693120036,-20.55055394601844,-17.701665203092045,-15.01381337518975,-14.606314654336014,-17.693965014393843,-14.64008162658789,-14.681857625302433,-12.418589205403466,-8.920249569317146,-17.56229964770818,-4.237636839559035,-17.2403678906702
12494,,-17.2399133519068,-10.584799363631332,-15.463651344343734,-15.172964461367052,-18.527758766627343,-15.356097738571268,-18.200894377043305,-15.5151430623519,-15.066570417014448,-12.066535951466657,-9.150733061950424,-15.979083565940456,-8.646433551143005,-17.06574120389623
12744,,-15.381657193146832,-9.643559745376152,-13.980558858812016,-15.978003246651566,-20.982010883963408,-17.238613363625756,-19.29559108315019,-15.63985325994542,-17.987025538768776,-9.492687167052043,-6.475972250309626,-16.753380089941313,-5.850513634890718,-11.189860911876794
12994,,-14.278289327902176,-6.237801341083218,-16.643252180178962,-14.23881518564876,-19.98663196218565,-15.714275612733344,-18.932419405769355,-16.694553448760796,-17.780427432214843,-11.027493346618924,-6.353442915363395,-17.53888400103415,-2.4501531788192743,-12.603346412378023
13243,,-15.859794251521508,-9.737083784241111,-15.904041119315638,-13.191631265283805,-16.39975817969223,-15.936731169681057,-16.87039462109023,-16.533232739114887,-16.54035646863441,-8.142360406680831,-9.666762837856142,-16.53718334424622,-2.1975767850620915,-14.414402101873192
13493,,-17.02386471180625,-12.08076909194166,-18.412149402143623,-13.012107926156633,-15.942753482284964,-14.053370907138934,-18.697527015143827,-17.406520460335578,-16.27915364363262,-7.796417130312379,-8.347700609200693,-16.558905599556088,-4.50567533575282,-17.982441198477204
13743,,-14.055766998914454,-12.999964018809004,-20.56854597305268,-15.021886033761824,-15.45696214260023,-14.906788642183749,-18.29798325458729,-17.049318003348343,-16.22334064686247,-10.11120443051208,-5.653701088617607,-13.467739645865178,-4.278830365978117,-20.270958400352875
13993,,-14.562685039571925,-14.976803282549891,-18.70720342499947,-14.013825117745524,-13.177686109624938,-11.711530556091528,-19.17445667771147,-14.411411674763976,-16.630335918629367,-7.94222823258809,-8.360917208929866,-15.400426540057683,-4.703713372467786,-17.0291631575256
14243,,-18.561882110138345,-15.856974645820149,-19.315422526802607,-14.07466634535211,-14.80063707619178,-11.250274166642452,-18.7797879725772,-16.569280174658623,-18.66302134565084,-8.332202217140303,-8.829441190686097,-16.943529712070134,-6.582980640293272,-15.291639857361066
14493,,-15.46672315580902,-15.3989542932465,-20.224991258830805,-12.055288023736214,-15.512966145317757,-12.690386320772207,-17.854844572449267,-15.553682138112512,-16.766604993409903,-11.136255545261983,-10.025715425341566,-18.2932283310926,-4.749072049408308,-17.051266065559766
14743,,-14.857966884622154,-16.614080314856736,-19.809406699209887,-9.248902741803407,-14.09827774440294,-11.919161118702334,-18.21052850039005,-17.883993498176377,-16.907895021027425,-9.867181463435598,-10.01947648955008,-17.21725670353033,-2.072778104179996,-16.747927635467207
14993,,-15.426760149955232,-13.891654430550012,-17.235280371132728,-10.567944021038825,-17.89251324823184,-14.147419128497148,-18.99298381175264,-19.20458108076268,-20.759384104965072,-9.549367233309582,-9.571541858552225,-14.23578856601046,-2.341168265093214,-16.03060335202554
15242,,-14.916547608836318,-14.797823686916791,-17.441852988240313,-10.535345368630626,-13.616735510099806,-14.23237936075748,-22.532384184649192,-19.206585670130668,-20.37957413071732,-10.868939336925594,-8.117772997006778,-17.087656580200942,-3.5105545835254635,-14.374869410272249
15492,,-15.16062641938574,-13.621461955054508,-16.228264023662604,-13.020476244943676,-12.367314953726511,-15.77353632512511,-19.67441921978802,-16.74357324721347,-18.64717078358478,-8.579212307910927,-8.536069572759747,-17.362610614473084,-4.168384466920377,-16.96270092000627
15742,,-16.237029828246627,-10.086497505706667,-20.710600529108916,-12.20746232865592,-13.474690024769892,-13.899752466260365,-18.707126564655614,-14.6817076316006,-15.963669404329002,-9.973854740475474,-7.469262650783939,-16.374075315615425,-7.08708835495162,-15.796723116253762
15992,,-13.808366998317451,-12.196400538939564,-20.99788893882476,-12.224420128751794,-15.93314020771818,-9.91097644020327,-17.448537739261795,-15.328043461301682,-14.226339600926174,-9.969102182759972,-5.385932381985102,-13.802495135226378,-5.70654518539861,-15.84679524222154
16242,,-14.192854955631985,-8.558049981951726,-16.080583778233624,-12.80405078549597,-15.5597557900201,-13.27301156132773,-15.0213377195349,-14.67695092229302,-16.094620183929973,-8.957667667676292,-6.402557030093632,-11.367107284670466,-3.894054822815093,-18.0138241518906
16492,,-13.469441885071005,-9.54967472900063,-15.261574032100258,-13.644411845904823,-14.942740959080716,-13.95371501839402,-14.510923142977894,-15.668873099407929,-16.24764284577628,-12.104992353149244,-5.617760960889978,-15.29034648199222,-5.282706442691953,-17.866263852181316
16742,,-14.576863144739836,-9.83432335233822,-15.663049927197148,-9.27236993577253,-13.60915538511387,-11.809114603072786,-16.66299844204703,-10.989239943087078,-16.779163028785554,-9.764573668977564,-8.060366694444046,-16.035390710931043,-4.587185012236374,-17.46474105459168
16992,,-18.298473141269103,-6.764452657302775,-16.79796997912559,-9.487778154935636,-13.2311506963891,-10.470554173725484,-14.7686094183097,-13.327757769346071,-18.26354497563059,-11.016599622880252,-8.762053513224973,-17.29182656048365,-3.880450183914488,-17.83500947012166
17241,,-18.271224268001504,-6.931411543212316,-18.253079393943256,-12.76329487666275,-14.685421979569073,-10.478020567892177,-14.422666679940765,-12.14171816981176,-14.649936626177729,-11.664661255735684,-8.895169920414652,-14.883385445978629,-3.5889940251781614,-17.727087217038253
17491,,-17.415996152427876,-11.73671192575899,-18.89454104014009,-14.549444533610185,-16.197826457194108,-12.888697196109716,-15.435667315707926,-14.023733728391017,-14.446823007300384,-8.809085702393643,-7.232833652240007,-15.14543904108801,-3.0643934223497453,-18.5143344916881
17741,,-13.412289938926378,-10.145063404692063,-20.079869154399987,-14.800501548090631,-13.462349883474404,-16.13179711700625,-16.593575523199227,-17.05003493395867,-17.55716208179395,-8.333512024351624,-8.521373948136254,-13.953628494021777,-0.3639988134909744,-18.566460146246943
17991,,-13.212262871569118,-8.66604422419815,-19.98089467366552,-10.071197469503216,-16.306955225133276,-13.960357393184012,-16.885922557617263,-17.634732028380196,-20.15073460739911,-10.66654567446736,-11.290734758951563,-17.5123748958308,-2.208990754589692,-17.358412112669892
18241,,-15.015756794171782,-9.884769562370774,-17.97879705958949,-9.512077409739902,-14.128108764135844,-12.4661079896318,-17.83422776565184,-16.750119683299538,-19.54141956545809,-10.904878867969078,-8.943616418040198,-17.100893065838065,-8.212808396651534,-16.068039518358784
18491,,-17.10658330150413,-8.823943428069686,-19.285498628065078,-16.791652615793762,-14.606123845033078,-14.387185679634186,-16.401061142884473,-14.01016349476453,-18.80062075182628,-8.859149552819957,-6.502471266937972,-15.929843913487144,-4.214547304784343,-15.756609352731438
18741,,-15.403208104934857,-11.161718548306034,-20.104310569712226,-14.263939461828215,-17.343572723794033,-14.937413082915311,-15.03242899444696,-13.230568234828908,-17.027987781089372,-11.098179129111235,-8.40961245992885,-17.153615430291502,-2.796163532466245,-13.11501275969837
18991,,-14.95000053306843,-10.654095146105629,-17.618087440251408,-12.820986586037664,-16.905498539551502,-14.118430802179534,-14.77834640183232,-13.853535317920104,-17.111653071099568,-10.620646250612149,-7.967370773607916,-17.552611499936305,-4.507848703836376,-14.924401271375558
19240,,-15.458374312013966,-8.129425753382932,-19.28198352652625,-13.052639224259018,-15.11870037642469,-14.656616177845637,-17.34818637495102,-17.53096053082485,-15.755244999356604,-11.430659897198938,-6.585130490796778,-14.468795034466853,-2.950445797085722,-14.950034801022998
19490,,-14.407955890460096,-8.755374203110785,-19.08563585233013,-11.66588135249425,-18.013457333871436,-13.684897300696576,-16.771697183149424,-18.933938671998728,-18.80051288057157,-14.914664029324705,-9.634113930785066,-14.384532200762555,-3.720322640782409,-15.519855274031006
19740,,-15.87341205990147,-7.996195888473185,-17.130036911156058,-8.868646768563625,-18.7941347322948,-9.914806135968592,-13.58566025584194,-18.283514238468765,-16.337686800245223,-10.998738700276611,-8.655717106370426,-15.59328326363985,-4.119613490490153,-14.851351143173282
19990,,-16.634259760437626,-8.575607521535517,-19.35265126163271,-8.171149920961788,-15.153722941985052,-10.580417533231325,-15.37165494850353,-17.006925391214903,-13.161409390342127,-9.703835149900478,-8.558186338772774,-15.334068581648646,-3.2100649131402346,-14.65178096373362
20240,,-15.323662255421397,-7.244651287015577,-20.644227674127883,-9.18924382369925,-15.342004244878192,-15.86320772051386,-16.023778751332195,-14.097485754324447,-14.035622594034413,-9.776794906777202,-9.654387946038836,-16.93733968379786,-1.007728937510458,-8.08075720339785
20490,,-15.445905719935144,-5.619381550752508,-18.486855554089804,-9.993520474334863,-15.275018693646684,-12.89239216302187,-15.985340804943151,-13.514298793606558,-12.650446493590923,-9.29811212088309,-5.690684666416281,-15.831933430933637,-2.194385494664048,-5.96109413646491
20740,,-13.871395343309649,-5.945649562887497,-16.61969020801205,-10.43463469181604,-11.735086313720114,-11.184530864080704,-14.29308247861952,-13.404154821554055,-4.883321433459683,-9.279018240072222,-6.456463572749711,-14.950621947961316,-2.9024102912488736,-12.590980673981289
20990,,-14.788040386412202,-9.315658937609246,-17.331695102328318,-13.733609753121003,-12.165411130988414,-11.859648337704847,-15.787424158603145,-15.320415219172736,-7.627215011787797,-10.41694870064415,-4.695527117446381,-13.304866354440472,-4.101377861643993,-15.916485709069912
21239,,-14.767162035392564,-12.36370617296478,-15.432520575056763,-13.326159846980133,-14.955006052986723,-13.834949531485236,-14.5841942372922,-15.697714891545187,-15.789179572053577,-8.337524974773373,-5.049408792902394,-12.400415875029246,-3.389217770942623,-14.556946413184956
21489,,-15.666706009843033,-11.993482183426591,-15.409624195050505,-12.246073683501455,-12.51928806149538,-15.212017652004633,-13.467255979789991,-16.161768229375017,-14.149727578901576,-7.329938933696464,-8.477751715076693,-14.281317781955094,-4.692509621696899,-15.613702641635117
21739,,-16.30624543870511,-11.460788683973464,-18.808215764306308,-10.58085808686261,-12.505631683627204,-15.504923412030296,-14.006885177331585,-16.763721289217916,-14.810597631576211,-10.96485706271544,-8.116169025665192,-16.546498032576014,-9.732331786843964,-16.177506974304137
21989,,-16.237226334379507,-7.720903796769848,-19.597245921665756,-10.1220920051648,-13.535897363771207,-14.709195853830895,-15.05511292303048,-19.369976206080253,-13.85224980369896,-12.51050771809889,-9.206414053459538,-12.410013330743167,-4.221984859757475,-15.680705202033971
22239,,-15.80740648204737,-8.163873048798523,-18.88192881022413,-12.095314823557226,-15.164139147761302,-12.660172612502809,-13.910207249782031,-18.57671931742759,-15.736921319400745,-9.158741393321016,-10.131219557879156,-14.00557203175378,-1.7065779629003086,-16.054718737382615
22489,,-14.650272044621332,-10.120925642044902,-17.94410381409522,-10.798523197778124,-15.75415017403442,-14.464292811927471,-16.298870724724374,-20.67161078398254,-16.37548955837638,-9.394459856613608,-12.610317920137804,-18.594945139196284,-4.935791540103816,-14.434146582186552
22739,,-14.382904232352288,-9.146999469265438,-18.252613515797897,-16.04114600516069,-13.948757872970925,-13.402330371442371,-15.250148112746594,-20.88833692776433,-15.913939111216774,-13.633773479483084,-11.690997603009244,-19.13379843885249,-3.5574106982822338,-15.703440241173512
22989,,-12.812450373030916,-8.553309543571087,-18.10737094793692,-13.241321139647136,-17.44267186217266,-13.591179765817742,-13.656476315019232,-17.993853989985485,-16.36920838984772,-12.622575207024012,-9.039037640551426,-18.60340630571208,-2.7163313117876147,-13.81121035525888
23238,,-12.743675443383095,-8.611845497445469,-18.387235428036604,-12.474253447498633,-14.685554031208577,-16.274897574052122,-16.551665493974873,-17.435897964756457,-17.863990258910285,-12.359932363467038,-9.09270606710037,-16.254137844677903,-3.792352049650006,-16.32257155948381
23488,,-13.800853619985558,-10.50012729424714,-20.775155469637493,-12.583692196786808,-12.765618762560957,-17.661525074929273,-14.161406318998369,-16.583606673210937,-18.210545819823796,-12.48546391150427,-9.535923654850537,-19.836186790028208,-7.510326026739953,-18.53710337249741
23738,,-15.077571013370813,-9.963675679945151,-20.2426808290884,-12.78146759472669,-13.721262149426993,-17.91059419640974,-14.79712173618379,-17.872412636926683,-16.012619287333123,-12.426468114577652,-7.810072822742786,-21.534146506067447,-7.328431095200361,-17.83720055979217
23988,,-14.085785386462932,-9.745520580251476,-19.78626134222797,-15.763943993588343,-15.547770180721534,-15.24558657726947,-14.9581069626439,-18.776285119798647,-17.426630865141576,-11.909024376761758,-5.704492128297762,-18.404410806742646,-6.104990335575248,-16.94019662171476
24238,,-15.531533813793938,-10.949190149912926,-17.62650180473145,-14.801557507088074,-15.331307820385438,-11.583758968077609,-14.981971189083268,-17.98314117524115,-19.73562184874361,-12.980810714057418,-7.04441550730134,-14.390420174591494,-7.530817323882628,-17.326340124245398
24488,,-17.547555168639313,-9.123067737769414,-16.327608822253847,-13.374491355025889,-14.166793113322836,-12.750551523313185,-17.02376455913814,-17.465971154239664,-17.030858481076013,-12.838164685566523,-8.664576073102268,-16.37314277010472,-7.4272659519273345,-14.474473238863808
24738,,-16.4242003137779,-8.440233101145967,-15.085867519065603,-12.676700524059212,-15.69224614928767,-12.541935061999238,-19.40733463767084,-16.27214421530497,-13.977923121793676,-10.744205776367394,-4.948634848654343,-16.152003178699683,-5.811436790492955,-12.188120028328385
24988,,-14.345032761008238,-8.765464577838758,-14.433164104876935,-12.76865120243804,-15.375577656196375,-12.406144531929884,-19.388535745767765,-16.111181280640395,-15.62326986893777,-11.177534451080692,-4.662406105236331,-13.024939120943444,-8.355664287547844,-14.953934759387494
25237,,-15.1804689928186,-10.236873469108694,-16.745876182011603,-11.747074513961266,-15.29696570925068,-15.701286938056484,-20.14445035225858,-16.095547410755792,-14.768299232541484,-9.919726392709324,-6.513080446053938,-13.072265446450482,-5.262913349353995,-14.916306289672006
25487,,-16.195792489583912,-7.508417726741568,-18.878390137733444,-13.086858046121154,-14.137513822456862,-15.9373444033414,-19.9890110810571,-14.355472513254186,-12.09357041239693,-9.971012909917295,-6.505299245207007,-13.506744440717611,-1.5067759290853333,-13.735964556760326
25737,,-15.60546160527765,-6.388096374334361,-18.493008033067262,-15.738037009944632,-12.691092394999067,-12.49121124570796,-15.105210059729462,-15.53565095080101,-13.044831515635684,-11.486763020076252,-7.18181732445693,-15.64704538290396,-2.6187246999843925,-14.924638725764645
25987,,-14.847387798669352,-9.929760987680488,-15.944667606858982,-15.119702629089272,-15.215369758124767,-9.893622187862077,-14.443540836388872,-13.841964998191918,-16.197553325026945,-11.374649648900784,-9.67768299621807,-16.81675237469453,-3.728482406340072,-14.645676653020466
26237,,-17.219673692117276,-10.4672233991419,-16.174504507003476,-13.1949513755772,-16.66545845547413,-12.728359579835107,-15.016785107887848,-14.56266313044912,-15.255777184845108,-11.77997053172158,-9.190915290215806,-17.7981397628523,-5.226519765424197,-13.338644477039816
26487,,-16.926541954619026,-11.254234292706798,-15.972351035937384,-16.480152265813324,-14.346142963675984,-13.636776910668807,-14.58820465107724,-18.93754316069063,-16.579776201560502,-10.543767027725917,-9.887997740058369,-17.413817218909028,-8.80317441352392,-15.29061043172348
26737,,-14.868437376123602,-11.213183971036155,-16.553993042050415,-16.672128519568332,-14.99339125899496,-15.751977978260388,-15.448433002073749,-20.32218278822868,-17.115815736242443,-11.718376880645028,-10.82584952021972,-15.607672774076738,-6.0343877846958645,-16.942004475973242
26987,,-16.413440700100395,-12.27495817204922,-17.738078795352227,-17.626563351179165,-18.4717407934392,-15.738146063870726,-17.965706172963763,-17.69122929302042,-15.94333095862856,-10.430241266268236,-9.524310849711451,-14.105582043570704,-3.943062833107103,-13.177039815515853
27237,,-15.618105408489429,-13.137246251485497,-18.992267736413403,-18.183652570431832,-14.645268658284063,-15.391258831394111,-20.05893793178565,-15.47488244357071,-15.205707551352964,-11.799222511937629,-9.14777164359474,-13.401155331161972,-2.7033991545617155,-13.906993621396552
27486,,-18.791765541734936,-12.649205574524702,-17.753783483649844,-16.779502487847513,-13.824759830519362,-15.597082258986449,-20.183524260709387,-14.629716241674108,-16.796534629213774,-10.337374232944535,-9.574012008038514,-16.313435368470767,-1.4019177134294654,-14.799055446009053
27736,,-16.807737137551694,-13.62580338146154,-19.575712478573458,-14.698041889747453,-14.431584972163236,-12.024869705642072,-15.500462443155447,-15.010736000732784,-14.35916257825774,-11.09422234514868,-9.88171703457066,-16.973235650560085,-1.3285104551997509,-15.389308601987397
27986,,-17.61060363293679,-11.66390294363458,-19.97896018971213,-11.755804207661011,-12.51426468123682,-10.674490090892332,-12.849403264255807,-15.409326493277858,-13.677805641542768,-12.983578575764096,-7.41929464633058,-14.855304886243315,-2.06869105949226,-14.908959855786524
28236,,-16.49435629550525,-9.1461112621932,-19.32073610102425,-11.65686219404914,-12.80190359542755,-9.253484270751324,-11.776574551041502,-15.927256664123195,-11.140123484588267,-8.291443444887868,-3.1747516737453374,-14.263636852270883,-4.112177421716735,-14.594936906250853
28486,,-12.505649989652682,-9.55710942891012,-16.28182251351928,-7.971794834588502,-13.82578093904752,-10.13213009997144,-13.664757136487768,-11.86913775933501,-13.17939738656886,-8.472003009730324,-5.045104489619333,-13.182418237781317,-5.4928864384549705,-15.026860607687656
28736,,-14.00235724191333,-9.03045954795742,-12.728711337274545,-9.591000194968611,-17.19834422379378,-11.719143257185618,-13.164351812229231,-12.21881739355666,-12.603407241090682,-11.153679493016922,-10.490689764326344,-15.011297700468369,-8.454564514587059,-17.90810680636476
28986,,-11.90081922115625,-8.124012705101265,-15.207474670676042,-12.331326740794957,-16.7338718775641,-14.82361513700063,-8.768685108942856,-17.08586869880857,-13.722631384923384,-12.082873155957913,-5.713588364164812,-15.11612764126163,-6.804389841935887,-15.042426956762112
29236,,-12.720120704403312,-8.136190112376571,-17.772603056441362,-9.87670561551746,-13.006240902731394,-12.766570218092008,-6.641564467138441,-13.487175860225925,-13.494493422193996,-12.19080318057012,-6.392663604272081,-15.928681856093135,-3.1522758409678358,-12.789003073007176
29485,,-14.834071669927011,-6.229881836802193,-16.841190673951306,-11.017132382461448,-11.964550607888611,-12.89230081066693,-11.063533964539769,-11.355587795901162,-14.214201995120172,-12.848005151086534,-9.217012537644573,-16.019992129681253,-2.028915836803311,-13.182442973029056
29735,,-12.47225836881782,-9.457859020998775,-18.391874998201065,-11.10028193557617,-14.032516468418612,-13.298001020033652,-13.634133947938604,-13.628845476804024,-17.884722712357156,-12.04778675896704,-8.166693924175537,-17.03542779947732,-1.657535472273939,-13.19614492047235
29985,,-12.758783671169295,-7.570408284652197,-17.954667240869856,-8.388185865284088,-11.50943122473256,-11.21823629645226,-14.911494975614016,-15.11458222919994,-15.487555720311423,-12.432061427094334,-11.397557642020322,-18.54917374448561,-3.666825731639728,-16.144031236668436
30235,,-15.247988017683694,-7.554877323566881,-15.865370781766108,-9.17422904744865,-13.407118071440298,-12.424483920267438,-17.065422986444105,-13.999859699235158,-14.715525151671187,-11.943310678703948,-11.171773907616751,-17.578848702461226,-5.924207506165871,-18.284214483680906
30485,,-14.061242826572672,-11.113966429566542,-16.975611704322983,-12.542818520578765,-11.822042571403856,-14.262502571535984,-17.697395153949927,-13.814341468510117,-14.637621064884968,-8.849100620594314,-9.661777633728851,-13.988975823872847,-5.505714557021518,-18.43092579753001
30735,,-14.310477103032085,-11.450176472657487,-16.19632285135735,-16.363192045293033,-11.845689990681796,-13.006270278167635,-15.930566684963097,-13.108925312924264,-14.883607835202746,-9.307464641313087,-8.881345656168788,-15.34058031202274,-4.679320809430571,-16.40354188662939
30985,,-17.91906027102074,-9.580468626093024,-14.09396705324929,-13.437748447201267,-13.494695623061208,-9.816584751325705,-12.215105040400973,-12.562283604385842,-15.01710101798529,-8.084110492707497,-6.846862354637016,-15.461307470160392,-1.5220718641982691,-14.46332876491599
31235,,-16.972027661985706,-7.735942511336661,-16.445459689094832,-13.51848509858405,-11.797324363081296,-10.412222322860655,-10.870843130555958,-15.476104545004484,-13.351105433040145,-6.523957121430887,-7.471174670584542,-14.483150439341204,1.329371768050098,-15.779490364850306
31484,,-16.88749701522145,-10.013573778556442,-19.569369909626,-11.410794883510054,-12.075420860428055,-12.37646128335875,-11.78702919404213,-13.341152454575129,-7.293431946826447,-2.4599424681694995,-10.395811168696394,-14.946341447084052,0.3939711353913839,-16.56638241383966
31734,,-16.160550421245446,-11.414125218028047,-19.446183730977296,-10.143657276795023,-11.969698955512094,-11.090047920319696,-12.070922299679276,-13.348750228213063,-7.202387640462577,-5.211665971322316,-7.639777942130136,-12.956650310605635,0.4493149778843013,-15.69884947425467
31984,,-15.853325279226018,-8.490240073345994,-16.62946229955115,-9.377803956568494,-14.387400984851306,-11.2641110660848,-13.005273971670729,-14.71300504312747,-10.001393079417394,-10.36698433416343,-5.521131820388934,-14.498391670537178,-3.40298927753286,-17.941373594525746
32234,,-14.036502908624154,-9.285068455628563,-15.800679000151252,-9.535277580858732,-16.30395283506971,-12.012425963302045,-15.05785541134963,-13.181466507859756,-14.138198074438852,-9.862064342613628,-5.184982064195958,-15.75756466734548,-1.611488149264395,-18.066805757343317
32484,,-14.175876704745608,-8.20337074218764,-15.609832267970033,-7.459802826140463,-10.755167893201689,-10.391016602170414,-12.371429335512673,-10.217925899801791,-12.482924463078682,-8.23505751141945,-4.919700518722491,-16.53271630740623,-2.4126211651370384,-15.31100152218388
32734,,-14.81080178063466,-7.859761846128404,-14.839929364518266,-11.141151143413657,-9.152318920601322,-9.059126166441027,-10.700669170291182,-12.13963702127634,-11.199283991562956,-6.908553667066744,-6.620336448265243,-14.934841608016043,-3.756532403098147,-15.46024157321324
32984,,-14.44545063010974,-2.1287148943179948,-14.406765235264142,-14.578296096166255,-11.404064854055058,-7.2128687621755265,-9.684952015763228,-14.002183626372604,-11.7510925924557,-8.897731369108197,-9.327393980826567,-11.848900306072112,-2.7511427371535087,-16.23910576917374
33234,,-14.825462996563154,-2.7813175134272594,-15.93323590952597,-11.637039658631682,-12.446216708161328,-9.738670030280494,-12.44117919887558,-14.822402646993604,-14.25131687739773,-10.417654221495834,-6.281503963523122,-13.241764045711164,-3.4259491054661595,-16.45455857773532
33483,,-11.07755780782287,-5.852936229351291,-15.693054928149854,-7.862771404548098,-12.305166718725058,-12.393214444794694,-13.685047988770716,-13.872210669978736,-14.980104554285589,-10.436238368263664,-2.962218731106895,-15.389970853547265,-4.602577143237438,-15.4697615626746
33733,,-13.766393821406275,-6.703911350817884,-14.80171509390948,-8.654371839591667,-12.148093442043702,-11.589882430258069,-11.886837555480254,-16.148040452211482,-15.336125462318751,-10.48852549869534,-7.093260157818481,-12.632935757512085,-6.789351241156661,-15.685247419578053
33983,,-14.877530209557204,-7.804935834076279,-17.578078486608856,-12.144830675474484,-11.420912368213134,-11.96875349092573,-12.903414388048215,-13.841735995885491,-15.32050171802,-9.090332015173695,-8.339158089071113,-12.071414681278853,-5.879779946840459,-18.272823669035944
34233,,-14.904413838723098,-7.207820664873984,-17.039681497713858,-14.341379934027076,-12.18168658753554,-15.044706267229577,-14.715009273063592,-11.164896445870694,-15.08942295525241,-9.702810591077824,-7.731781240361934,-14.561517944896387,-5.484577148394135,-16.203465411170534
34483,,-18.119681784883824,-9.358952539936675,-17.19956206496166,-13.940125299837147,-13.019617838066427,-16.358597282986164,-15.354118473684238,-15.79482173284728,-11.28126034588445,-10.936524502925389,-8.887877582166029,-15.118538256182404,-6.189579514895601,-16.997363855906762
34733,,-16.443158922656927,-9.788704734059069,-17.43266289169337,-12.03007943787036,-17.226246951304873,-16.549262298759203,-13.567550935643434,-17.267501824228127,-13.127558157109007,-10.923551109788196,-11.389312688995616,-13.566177387289898,-4.413027945627,-19.49689947131859
34983,,-13.921930127594695,-9.726726053933964,-20.8158560071744,-13.393375863090252,-19.11426150069364,-14.054675556218031,-14.69274087083864,-14.899452453402564,-16.8056422569007,-9.374272723550568,-10.890515282432316,-14.959065900518976,-2.084198664053483,-17.22349238371661
35233,,-16.3722787401748,-4.374714056093567,-20.074902827956468,-14.58577591194124,-16.341300546475285,-12.482098554755884,-17.66658346550098,-12.442728014077224,-15.048892635701105,-8.029692394891478,-8.260795297188535,-13.212698060992436,-2.538517760423248,-15.194421995440084
35482,,-15.133886510433378,-1.1049644918625858,-19.130666903138817,-9.169223804483272,-16.700479841501135,-11.179508133993629,-15.827880478042884,-12.32048505626496,-13.849834105940309,-10.754822360170175,-8.078316940924045,-11.872038094393227,-2.8774008759867837,-15.32248546339929
35732,,-14.113405414857525,-4.722598821750932,-18.54064560992441,-8.283156285797377,-16.945268119364954,-10.577853385814734,-12.259142197490531,-14.299243897775284,-14.086659439942569,-13.988417291396935,-8.072109115516113,-14.480135298240103,-2.0305730865096194,-15.299578241384005
35982,,-16.340839608655333,-8.491159564638364,-16.84096440643124,-11.292897249876754,-17.13375472321918,-13.720850271789624,-14.51496447750709,-14.18958575626016,-12.67084154758438,-13.764645044189225,-4.022516640093545,-14.590781578356737,-3.6413505114583167,-14.989385955957884
36232,,-14.882816576309594,-7.486066906300188,-17.57794086336093,-12.675004863381984,-16.306012294381734,-11.349750629117688,-14.483440962932546,-15.224535787132275,-17.792642332448644,-10.181063834110386,-4.344523960074867,-16.238870594202414,-1.2156246550178451,-17.035862108221796
36482,,-15.713195770891772,-5.11067293353292,-15.492517530558697,-11.957776710201804,-12.837600278694907,-12.696996262389584,-14.500266336936123,-13.967398639375077,-19.63272823306197,-10.450886020510076,-6.7097279734624085,-13.855736754625063,1.735576014402703,-14.19332461291914
36732,,-13.934187743786495,-7.788393920739076,-16.318300528085427,-14.512758990223846,-12.806872564770709,-13.616133900552,-15.725578422739288,-15.831545160068892,-17.394704167106042,-9.96820581435128,-6.463871951097008,-14.966551806807711,0.4722144331461797,-14.515425201033484
36982,,-13.303161123370227,-6.14261537170517,-19.557823072139165,-15.257870754645044,-13.077010207342866,-12.9686207339836,-13.659582863187556,-15.12893666209941,-11.894238220999116,-10.170122847556105,-6.589369652656515,-16.017088680454762,-3.2646980278574773,-17.916613653374082
37232,,-13.498111891589248,-6.840884418841309,-18.077333818086444,-15.81029792899625,-13.89347354695041,-14.894501506803843,-18.406538187823102,-16.024227237410688,-13.145798080397771,-11.1588592178245,-8.14379537700783,-15.732585411815194,-4.580244442815292,-17.80239508836415
37481,,-10.457201697721644,-7.12188539587576,-18.921681815695216,-10.820655938220671,-12.119425534904828,-14.964245699714803,-17.515412735218415,-14.698870403995825,-15.397194340894613,-9.773107838715024,-6.94033316815983,-14.85845426587553,-2.124548527659252,-18.450074903081987
37731,,-14.04628633345142,-5.854278895231725,-17.797927566282773,-7.42766995745428,-13.746479862973349,-13.427973738922017,-13.684031538323806,-15.23051349212014,-15.794122693160542,-9.090587199346562,-8.815375642618731,-14.247293028860074,-1.041451081086153,-17.910994450188685
37981,,-14.89377685634892,-4.673293719999148,-17.300630519725193,-7.715716669136448,-13.37994869799481,-12.24701129798088,-13.747780857966792,-15.48786894468315,-17.289437371208503,-13.765394725092674,-8.644277120011914,-12.292578198924817,-1.1094548316287136,-15.6480173905126
38231,,-14.99840219153094,-4.462745738913453,-17.79091718012022,-6.578807928230237,-11.612503941272852,-11.551062612191233,-17.112858791076007,-12.693181688519555,-15.321741169603651,-11.469793172382436,-7.819722631002996,-12.221009185139875,-1.8072772805429456,-15.09636442506159
38481,,-12.896099739952678,-6.039918580949988,-17.790786790643626,-7.548415238924237,-12.988753734153867,-11.330785415098823,-14.414017082381015,-15.39714100318688,-14.7057386310807,-9.475193124600455,-7.264568285278577,-14.313944322367607,-1.2916494360955553,-14.090494968430594
38731,,-13.787958945212203,-7.143270987380531,-15.667556825780212,-13.275913848054934,-15.03959050662454,-12.232769569818249,-12.55712175223172,-17.07660054875564,-15.58237203932384,-9.810423524327163,-8.659961270669017,-14.457644552000916,-3.34530622531927,-14.048471059197228
38981,,-15.738191686552964,-5.680264216738104,-16.254610252254796,-13.680295722376147,-16.093230575860723,-12.230117222239365,-14.32451692127972,-16.887056818845295,-14.008920496423595,-9.168525576906868,-6.676830019383894,-15.959359121521668,-3.888134032993679,-15.087958290781527
39231,,-13.927892571684668,-4.860767795502464,-15.53506336179318,-11.137540121091424,-13.1925664123014,-13.976868100875508,-12.363567181309186,-17.419591505080707,-13.183005603556266,-11.838256030725187,-6.313617979851026,-17.151877757603454,-5.607499120212733,-13.950265517952843
39480,,-15.048470459748042,-1.3436789196076635,-12.713985134906553,-12.696728039783425,-12.199773302467838,-10.5713522881505,-10.664843497719849,-17.168977841707132,-10.966661083117833,-12.34077502597472,-5.360158685093036,-15.671191051765184,-0.9174203150287784,-13.026466374118357
39730,,-15.368557294990817,-2.26885036641846,-14.791653624188308,-12.05458428980998,-12.029156795912062,-8.454948157857645,-11.373420399932323,-17.47705810122801,-12.87889423906284,-11.185972261170736,-5.3286301307175705,-13.031206519729428,-1.033424193483592,-12.64820558635008
39980,,-12.513444223662988,-5.081752825055242,-14.103982778468344,-12.214239116521126,-14.424787691776372,-10.944849980019082,-12.68907363797414,-15.06636118219837,-15.562409359672852,-10.973554655222518,-10.317288874564165,-11.309487295974998,-2.515835558235453,-12.917854316836271
40230,,-14.046265838590182,-4.229705589991215,-16.798307868283896,-11.886042058601838,-15.807547619582758,-13.23936267380992,-14.514330326988285,-13.79586176697131,-16.760052429941926,-9.881995660541032,-9.073610496937231,-11.438132338935391,-1.6705035417068623,-16.293474744269933
40480,,-14.068354690512813,-1.393746458938423,-16.361583062085113,-11.63044955115068,-11.678758835720805,-12.43504569183151,-16.146163179952136,-10.531477829442048,-15.3185958018824,-6.489700380342627,-4.784754270149606,-12.309647087889966,-2.011790995473993,-16.75968497106225
40730,,-14.175254338596885,0.2203238542944929,-12.611909342926914,-10.40443447700192,-9.573042944607373,-10.162516730639988,-12.200766176024796,-12.87037300905855,-15.629207811226127,-5.205934429839763,-4.708286005914507,-13.520730204334216,-1.3559444014931792,-17.22792832318058
40980,,-13.19284503089768,0.4757165412637248,-11.54717316441272,-9.899920377707993,-9.979788555461257,-8.632967858207877,-10.03393208228588,-14.867819305865307,-16.869153556436633,-7.929019871894418,-5.8408976504197145,-15.110355353021266,0.051844474229168,-16.709608346427995
41230,,-14.219364069333256,-0.8723031033482143,-13.736466488695225,-11.841687509098076,-11.140872807468622,-11.62560752831675,-13.611883505151368,-15.61350087345387,-15.077807351329994,-7.853632120576894,-3.994661307293737,-16.84250120896689,0.54629002867896,-11.588403122746222
41479,,-14.4703068056862,-2.523364948885148,-17.83614321395928,-11.47322213202797,-12.26571646856758,-15.989386303237747,-17.842636348184545,-17.89996992087423,-15.424695352110724,-7.515994946296063,-6.696267288793565,-17.671637043098045,-1.1563685738070584,-12.296306353677265
41729,,-10.291804050606794,-3.884743085632374,-17.71678725549218,-12.01072812083006,-10.132132450224436,-10.764595928771945,-14.662273108497692,-18.20800649075488,-16.19156510128256,-11.670745138662005,-8.235331976924336,-18.623834190095437,-2.478230276136508,-17.15761289693952
41979,,-9.807409713966342,-6.564983858538627,-18.738691428667007,-10.666931913380534,-13.04832076618219,-9.272790323270426,-12.14407076897706,-13.859367757123884,-15.051714512136336,-10.746109653210276,-9.204808967612095,-18.098573990485495,-3.5099914192252046,-14.061388145379892
42229,,-13.136749891435588,-7.639697781700119,-15.973158223932256,-10.557211214381049,-13.92068846744767,-9.872175693108549,-10.973511860089964,-13.133989766041475,-15.884578046572209,-8.84346598083324,-6.871395980415458,-17.41049733682717,-3.854707622219356,-14.182653171796645
42479,,-15.65855576712905,-4.93959003622267,-15.942623958050117,-13.018241578420096,-11.59939221163911,-8.386466919604183,-10.499097519208574,-14.987434422986963,-16.286918907551076,-8.708721115258005,-5.908597641410759,-15.932619872316078,1.0434113682014214,-17.106517736507637
42729,,-15.37489972522421,-8.054673464984868,-15.760436237490415,-15.07742016043928,-13.714647056497444,-9.801633735160474,-12.616581908619608,-14.928905830433042,-17.009496933540667,-9.7247373432755,-8.298174480336817,-13.625351362880975,2.8414814001135142,-15.078749274749551
42979,,-15.689920506131331,-5.37602955290966,-17.371394484894207,-11.042220426524253,-12.76580292903816,-9.332017243418171,-13.179939070508112,-16.660688265077653,-15.46146336531804,-10.432399376792109,-7.792893455419232,-14.889462675575183,0.962271226480936,-13.187409839703632
43229,,-15.38038592516729,-4.2434873804760045,-18.703125634534917,-11.486828327752256,-13.112802015781796,-9.23817410864647,-13.17883515376071,-17.543474989932744,-14.795298863744527,-11.067468492861028,-8.960266362953812,-15.344416805218522,0.1491000855327031,-10.786588694719574
43478,,-15.509344165201895,-5.481071716264706,-17.744147400717047,-12.821737621346736,-13.64891384107243,-10.866297881065895,-12.185052350798324,-14.968830412764689,-14.699011354034852,-12.281408739979536,-11.516171179039825,-14.78719586496608,1.5498020105774604,-12.886961137678355
43728,,-15.652450682012384,-8.98708530701294,-18.09721521916381,-7.207656178194029,-14.752623782080022,-13.97941777207951,-16.594738208093965,-10.13622593568019,-12.105598838548897,-10.252020816068526,-9.349102543226678,-16.092147796681402,0.6713835485301243,-16.129759020874673
43978,,-15.141555265454569,-10.222592132364978,-18.342218318116764,-8.386512209186288,-14.81858017845125,-13.832288738963612,-17.155585663840224,-11.729377179145168,-12.55174133659242,-11.392566546461047,-7.468650153578057,-15.325373838617232,-1.8752856340950916,-16.222856665949394
44228,,-13.597812966068144,-6.339070675224044,-19.35609082637809,-12.07556175619584,-12.469503597801475,-10.715620870387603,-14.658233413510036,-13.157655754298698,-10.175797393753667,-12.985139549050324,-4.456178057887914,-13.577401409047784,-2.0992079156926096,-17.384743526304543
44478,,-15.491064010539716,-6.63500017298635,-16.37389986691455,-12.156075194483048,-11.141172008365158,-11.508042931792314,-13.897466302145569,-14.501573790329974,-9.23779224511672,-13.279918811140504,-4.301935916856246,-13.874187948569146,-1.5249732538876652,-16.803743691559454
44728,,-17.608817608743173,-6.3653893105258845,-14.327829297174963,-12.472889728048791,-10.980159905362306,-13.150038277007187,-15.52822893397252,-15.659104858313611,-14.841963936921502,-11.036122593394456,-7.099094382011754,-13.705041978304829,-1.7692486759321358,-16.70218071268874
44978,,-16.364007455033807,-3.1390006768860523,-15.575586907812651,-9.089029901021044,-11.127030488433665,-8.017933561280291,-12.659447963325864,-16.888391160719255,-15.889628871783035,-10.10601249783835,-5.44878894647148,-12.685547963125565,-2.9061812253501014,-15.623658322044063
45228,,-12.831199946533983,1.31808220049703,-13.730267288577696,-10.324515227427437,-12.652770023494604,-7.390859333410319,-12.552541153196584,-14.454119434657253,-15.620496231200477,-12.173717799367704,-4.890528153553726,-13.348383209426752,-1.0311759557326965,-14.428100660666738
45477,,-13.090745208398298,0.4483196771519986,-14.738032719893656,-13.377083625092288,-9.809819944724564,-11.001394436216474,-15.419896545050095,-10.96756493339914,-15.239284030749044,-10.583869107240922,-5.958950972247276,-12.16319212692816,2.7101054133232703,-12.700666840959348
45727,,-16.918047949473728,-4.94440576605292,-18.54706320143193,-12.024280756331958,-10.257715641489556,-11.837961950024225,-15.35082892209858,-13.804262025005578,-14.713778996630085,-8.38632978112502,-7.0131456250078905,-12.363840197515852,0.526937451649238,-11.92151329859252
45977,,-15.313515338427168,-6.953065081958174,-18.73960818661493,-9.94699855376368,-13.515640197206544,-11.118283982702364,-13.568317330557855,-17.618812419302603,-13.333871841998286,-6.604112357126554,-5.949165445747976,-13.74078562058143,-4.140945549306719,-15.50157934359177
46227,,-15.6434852047388,-3.964583978569975,-15.169861550030475,-12.046815739862248,-12.301213992116164,-11.607287805705486,-13.512181092864868,-19.37998532674872,-15.240030075115351,-6.022495216960579,-5.582828597509909,-14.95423842713308,-6.362271505361656,-16.15478911347924
46477,,-17.86348268375879,-3.185274055872145,-15.901251131033508,-12.309919437303424,-12.891263419799966,-14.418129276430482,-16.6990962263123,-18.264521883049444,-14.756857085012944,-11.420348928986597,-5.269481164555981,-15.32396760076493,-4.586293546951529,-15.073725866032987
46727,,-14.16297725269018,-2.338100281451654,-13.71198322400847,-7.236817716196063,-12.435349682337364,-7.847535188389925,-12.169540098994707,-15.947046161814374,-15.375983191506126,-14.910045278804269,-5.338336664344809,-13.869077630666222,-1.884077735010079,-14.492146120646956
46977,,-12.924670912305183,0.6858228710079889,-10.967294250341483,-5.778593268052524,-12.830670110320495,-6.465792308201449,-10.120550926857902,-13.577356731476868,-15.296932085097287,-11.40431443375406,-5.706423156175541,-13.157064265707325,-2.1579907407991072,-12.62291619589893
47227,,-12.204476047747754,0.587638381009147,-12.943723086981896,-9.04740312385809,-11.06126901159208,-7.650672608017674,-9.403216499006367,-13.549331565006334,-12.158236825644806,-10.250030391977385,-7.902346498114639,-14.406891154545375,-3.789632407672814,-13.593131971436184
47476,,-17.17205511568354,-3.790513589851268,-15.134985872687032,-8.138070476699188,-10.555077695052454,-9.494324961135836,-11.428366674888046,-16.318575988540132,-14.644280074682792,-11.84242676354616,-7.029836856508611,-12.61080398889888,-2.356506272901707,-13.522643108484775
47726,,-14.316497653266168,-6.307884718546191,-16.336186892882708,-11.59964053539446,-13.536473075322755,-8.063515710234377,-11.27942025118716,-17.09462016657778,-16.579178853990197,-10.698924950804631,-8.342097124808367,-11.869501378786522,-0.4538329782338353,-13.118655733632345
47976,,-13.258674595303958,-6.007544279619252,-17.550363794955096,-12.830315081887754,-11.198329740718474,-8.476037454518584,-11.854657334579604,-14.03078172056603,-13.805484282062404,-9.630647340904094,-9.387970317875869,-14.16352249305858,-0.2417333472731467,-12.043128390490114
48226,,-14.275278032094157,-5.795807996163354,-17.023609559996686,-12.723352936459095,-9.518612946701252,-9.978000934849549,-13.784448437255769,-13.497920662810328,-13.438327624385703,-6.904945909531319,-7.347164807732471,-15.797448918968705,1.817579607905272,-13.30275770748457
48476,,-12.322520189016208,-2.7600171891610974,-16.430293242708668,-8.256042231039586,-12.597077919745535,-10.03905367251518,-12.229551911913292,-13.14861682689142,-17.22856355230929,-10.474548572277946,-6.00283009939074,-14.882658275240084,0.8914711708719707,-14.291154995437642
48726,,-10.961468264435217,-2.855697795648233,-14.226807039841788,-7.718247794932185,-14.73041277629838,-9.991078612431776,-10.895468933086736,-10.675059219405146,-15.259575193646938,-12.065417984008098,-3.945778082373868,-13.974407779961387,3.5702971084660264,-14.470722445421163
48976,,-15.122743401667591,-3.2251885369198643,-13.400176150086898,-12.905827292681291,-12.862842622907738,-12.122134392279111,-14.041449761868169,-13.332275976908258,-14.556261072028509,-11.29449187924332,-4.644152451150391,-14.072652310943754,2.3084071094685403,-16.243380731091865
49226,,-16.706220781116713,-5.151226072167859,-12.79899517311552,-12.627762601544188,-12.937505331773927,-11.551940492448974,-13.907949879530882,-15.944856170006428,-15.110825440242843,-11.15479272591555,-4.934929863355047,-13.510626029699948,-0.3571735447386415,-13.974074762912458
49475,,-16.557641630956322,-6.824237328107452,-15.974932527780076,-12.619051751236135,-11.014396934064465,-12.81402048720652,-12.613459785671669,-15.3707888074125,-15.784166936855904,-10.0563189551745,-4.862247642754166,-16.278600296722257,-1.951735006633984,-13.527417033737173
49725,,-16.372314791622074,-6.119569274375193,-17.43451668672155,-13.77563265250948,-11.658939856751214,-16.6973611196485,-14.535421357941791,-13.749067585211112,-16.56153181543371,-7.107550491432988,-8.363491066619272,-16.649424812930004,-1.679490925819913,-16.741866003509614
49975,,-13.179349624017696,-8.146623437050827,-16.051128719247963,-12.63531381393454,-13.826571096338714,-13.82821158872424,-15.11763569938865,-13.280284046836428,-14.928551590991573,-9.754892878488894,-9.29801644057121,-14.428245618592166,-2.22986725252562,-17.131752049645012
50225,,-12.163815118718034,-7.120313483176871,-15.78345140371084,-8.488813479189231,-10.22241693791485,-12.372646586049152,-14.456875524028776,-15.52543448818831,-12.309060270077923,-13.80493358501475,-7.306746853037707,-13.949229071085297,-3.564606664580067,-13.938821054578094
50475,,-15.922755553737398,-1.3514003826830052,-15.488924743642295,-8.81068965896063,-9.663246817194576,-9.551598229009016,-10.919822733930232,-14.867238244760236,-11.425202530012603,-13.14941318539488,-8.758590612245545,-15.738322617125348,0.690720593503461,-16.51963298000505
50725,,-13.800928847128976,0.1017452985977173,-13.857813208271937,-10.230379477720556,-11.213127975231696,-10.145760129781436,-11.049525483607557,-13.054842991137958,-12.385759188203432,-9.050529076328806,-6.8088611542399855,-15.222119786605484,2.021421079189688,-17.781929426334695
50975,,-12.892213188022266,1.4513306160035977,-12.73368327642867,-9.78665848626221,-9.35935596148752,-10.54598708785813,-9.435025884290576,-13.06667801503653,-11.148157639537112,-8.224930261341317,-3.779071892622508,-14.404605474739608,-0.3296788037303954,-16.045220471284644
51225,,-12.43159532972192,1.050066693106578,-14.49013872438724,-7.720028809110484,-13.203803446486406,-10.388954884680286,-11.753406475403551,-14.20809060599564,-14.577870967499056,-8.566844138968893,-3.280828269226678,-16.88092050940908,-1.8633979454355591,-15.46182767185458
51474,,-16.063205105968635,1.0540018039757848,-13.816885045535532,-6.681656926086421,-15.039262021110344,-11.445753316230842,-12.414542865315646,-14.59558385447812,-15.192229284358309,-7.733592626400515,-5.755349983242512,-15.35068775473002,-2.371064128981628,-12.961617531915277
51724,,-11.33430122266236,-4.037381181218106,-14.59126370235496,-8.288483568603139,-10.806318942555396,-11.416358937816298,-12.916065638401676,-13.444400017430963,-14.396106136600102,-7.793202269588331,-6.608906186765032,-15.763919327990063,-1.2530716857051516,-13.7344656999288
51974,,-12.291232149404715,-6.277041385876051,-15.142151126732822,-9.506755616046377,-11.033579472445943,-12.230664252054275,-14.607720336410283,-12.267683175883905,-17.51284357559087,-8.550430991800177,-5.514883897336659,-15.782343090205304,0.9279667911323912,-16.087817427349908
52224,,-13.3293267635479,-7.40368111973579,-17.786921153716087,-11.241181666583076,-11.55006101242348,-13.001821568631302,-13.403182888152276,-15.061718909631823,-18.648582122437706,-10.612343087108991,-4.666457104191068,-16.347373460655383,0.1899833174098794,-18.666174569698136
52474,,-14.004969740093392,-6.997137708125125,-16.47863142898143,-9.324323897491098,-12.320559111328365,-13.029945002033914,-13.265685873006506,-16.06187831407872,-14.005853516104178,-10.336595506302515,-4.209818303504909,-16.055268254026153,-2.475050479472952,-13.621367889765011
52724,,-16.807821002120075,-3.951154211860954,-14.348463566235592,-8.875413150836977,-15.311581091969783,-10.870283483192535,-14.109447301784726,-15.075011607998272,-11.525325591253017,-5.476950482658522,-6.078041128316544,-15.734272699304311,-4.331323423112678,-11.154045345006232
52974,,-15.336423152560975,-1.3035813729364971,-13.571240561566054,-7.091367149789388,-14.663566470137258,-9.524221547107055,-13.004000774813846,-12.354942895061304,-13.153948876649658,-6.259721985962885,-6.614577587958945,-14.567733808055106,-1.2389497495273676,-10.639553495640063
53224,,-12.433086986737834,-4.258896852035355,-14.519442763665376,-8.85208747441482,-14.675471634802742,-11.588931584756576,-12.509510613369144,-11.482136246803428,-12.936195280706638,-6.608967830909545,-8.995752274758244,-14.340684579824137,0.9416005138609836,-12.821329450423258
53473,,-13.849403390278871,-7.160788923830975,-15.32656546691008,-10.294530351564422,-12.39612259276382,-11.280265712641404,-11.449061944872426,-15.615042485331236,-12.767569164878427,-8.33914977290108,-9.024358284405404,-13.26069971616944,-0.6949375079166371,-8.188153672803129
53723,,-15.335440971926497,-5.859689984241603,-18.285215132180404,-8.795479832176342,-11.405930039440138,-12.464877361688227,-14.346476293413357,-15.842900672355851,-14.412197492343928,-12.082172327130849,-8.013937983932982,-15.471606095691158,-2.795245771974725,-8.964889128956155
53973,,-13.737127455870876,-4.47026450332084,-18.159445437173016,-9.636640843512948,-11.064192977151068,-12.95323077992528,-16.06726179075072,-15.707394087608376,-18.08599830764989,-12.382995895437496,-6.272294411149408,-13.084096212279375,-2.470605410612696,-15.580867317677129
54223,,-14.207615428228902,-6.041040978836804,-17.1061596890723,-9.70701355182354,-9.381541088385587,-12.10984461318509,-14.168206290566044,-15.193303709996853,-16.948551573199854,-10.87338392364856,-6.043050524009931,-14.13715630530712,-2.241733507328845,-14.770169711824623
54473,,-14.31829393872938,-7.825919135486167,-16.145680540648577,-10.296150009253536,-12.253470452032946,-11.341355357151796,-13.1455473797274,-16.105340453450513,-16.029503084160826,-11.84836691877737,-5.662622088997196,-16.21659693569074,-4.479711771811603,-15.276163788184135
54723,,-9.394571316848223,-7.389118724140555,-18.46712450405153,-12.85900245640918,-14.854981910178893,-11.83752096155393,-14.293854110938696,-14.642770719441764,-15.503689480619055,-13.020772243581115,-8.838797521574458,-15.694060397888398,-2.4283943527180627,-14.325773082445076
54973,,-11.195074450471832,-4.58359124686723,-16.223899184820887,-11.75900089440134,-15.31437909309644,-10.212443033507268,-14.53445435694357,-14.55887023152781,-14.88508171474604,-11.12149556222612,-8.570528008946095,-14.876075499774156,-2.52077974010187,-13.314097290989666
55223,,-12.032951969996764,-3.209255889284554,-16.557191710054504,-9.10733854434982,-13.74271353934752,-8.570671813185156,-11.117705001559212,-13.708296617680269,-16.135753916083527,-11.068313625578304,-9.317867900573376,-13.739535639825649,-1.7674467238440994,-13.312644708283749
55473,,-9.743756052698052,-3.005352095650649,-13.905364889174209,-6.341173895412752,-14.52213083907159,-10.68869055866508,-11.55593430852272,-13.472477975231774,-17.138683410260377,-10.420769462221417,-5.601179487160906,-10.9204488391063,1.091003354577226,-13.721419773144666
55722,,-14.541298612660896,-3.6602678711099577,-16.194936262089303,-9.429409207907616,-15.180736857177443,-12.784206782144008,-11.641012886174869,-15.833829935777544,-15.243139256427831,-7.903909809944779,-4.038529910762401,-13.412242938746395,0.0495010175777459,-14.054308394302526
55972,,-12.413378385364616,-1.7209707813759727,-16.676849396402048,-9.933142672951323,-15.327135000798323,-10.80698199595452,-11.17511773400723,-14.529207582933427,-12.024834535745924,-11.292340408560346,-4.201911176767594,-14.076067745354251,-2.434813725997352,-17.80570654617415
56222,R,-8.863910106323967,2.138910667446133,-11.682584876527171,-7.565774985122918,-10.506743620721188,-7.868962156347676,-8.772235396570114,-12.502569978337656,-13.765422316297844,-11.9436859375079,-8.007297561827034,-11.474127893819905,-2.993081641429532,-14.913764639146804
56472,,-9.854898883202136,1.0501429009786585,-13.38494822584031,-7.436619007455231,-8.708684412694334,-9.00019415958343,-9.707667706718157,-13.03451548226722,-14.369848232435531,-9.214322968740913,-4.172947252641369,-13.13545665033185,1.6827632937100248,-13.258320789938598
56722,,-10.515313414834647,-2.070398372082143,-15.557178912825773,-6.18453552533895,-10.023633513869113,-9.57629921324238,-10.399315621746894,-14.138141576898589,-12.316451596083372,-8.615917790873691,-4.795781093178696,-14.3352317925764,4.058468474865622,-12.193042899293712
56972,,-13.78331321023863,-5.614516434466413,-15.12886326254512,-10.363074493768424,-12.480889875589842,-12.91626033236252,-15.442097034744371,-16.788216921878927,-15.806974474784305,-10.278830193343309,-3.416686027859521,-17.66879836839984,-0.2018489830917319,-14.693731179904452
57222,,-16.39056369925166,-4.940794308617567,-15.993856567204592,-11.957308989451263,-11.44245071984848,-9.204695153680955,-12.97764468655181,-16.418778761126646,-15.716394664802111,-10.568044551197644,-3.763768126821789,-14.9575859752881,-1.27014047105392,-15.135177208414136
57472,,-15.652735290387982,-5.700107945888072,-17.280759823930246,-10.489575718304431,-13.3909420423339,-9.357512153495769,-13.112541478485952,-14.994487062086142,-12.069898472334945,-8.715323385957092,-6.54197636454818,-13.544183044896382,-3.434073381295877,-15.621697652097016
57721,,-16.097320008448683,-10.383067840422974,-16.11143480193899,-9.545492424062154,-14.399205114710153,-13.353994155811112,-8.68484721450834,-14.360350994968137,-12.516743365798336,-9.899831938726232,-6.4750402723333575,-16.206101967566063,-6.227685287493923,-17.547503743324246
57971,,-13.747686844534377,-11.195100635336557,-14.485473864104623,-9.27275072562396,-14.629440775106492,-11.35462023566468,-6.173594856485548,-14.711064833530344,-14.402011016287474,-10.670339906803504,-7.458722614190478,-14.91528882753929,-5.619055732665648,-20.104240480332216
58221,,-14.20270173283926,-5.916763456920514,-12.758806872472906,-8.593494990579101,-12.211297839691326,-8.363576719178166,-10.249582138825,-14.39850348789258,-18.093387232788253,-10.71203002863218,-5.434293671677328,-13.07327999155904,-0.2734154839002061,-16.832785050338753
58471,,-12.793702854923623,-4.305854602589919,-13.51930937781647,-10.359218985726386,-10.0293788017793,-7.2945435545889,-11.21318985395808,-11.52984816021963,-16.450233489834027,-8.057619285561797,-4.145551609887452,-12.538124056216937,0.8561127517803936,-15.489320246458664
58721,,-11.027598263754856,-8.306678301834008,-17.29658882346005,-10.396471473290449,-12.196805694811095,-10.513196966872384,-12.566513516505008,-11.246340345416376,-14.308844984646374,-8.922329336110304,-6.639832037582148,-12.398031498541188,-0.3374248802954071,-15.240804653696966
58971,,-12.725048465915783,-7.39226528031079,-17.247118551267935,-9.118959322726162,-9.386549197507598,-9.78543782489518,-9.262049728287652,-15.218160815674276,-15.462293498609691,-12.44303103822648,-5.574711427405546,-14.030717414623496,-1.7952996027411052,-17.07890703221615
59221,,-15.237515551037385,-5.601636324405841,-14.74598263874834,-6.688117860462889,-9.657369819649174,-10.10630992639907,-9.37856475006726,-16.06859790574898,-15.265456139096605,-13.20810520461009,-4.680503647076688,-13.814547136936625,-0.440269190576542,-14.004703735674266
59471,,-15.9493374735629,-2.206260144361984,-15.210369343970276,-8.157005163814205,-14.408536904692228,-9.203699808161227,-10.482225631451636,-15.80016283821776,-16.01442073728842,-12.061438486370548,-5.088451607519495,-13.719039083021425,-3.076823108952608,-13.489861106602651
59720,,-15.01738243569478,-1.1175013533510203,-16.385400034084007,-9.8404557259056,-17.006084793623607,-11.284027792365222,-10.978863334163028,-12.836396046986003,-15.402699863778697,-12.945835805405544,-6.346157150643808,-15.6069936481822,-4.562390375137211,-17.760106481716882
59970,,-11.969779637282835,-6.460356992499216,-18.89174911446409,-14.14537180683664,-16.027500623547613,-14.702343080289973,-13.081846868440428,-12.611724756510489,-15.610650534866654,-13.085310807535777,-9.64645571249686,-14.023612146796014,-4.262428777769362,-19.95538664388566
60220,,-12.93912779218708,-7.283664047951792,-15.887315239793695,-12.806765396487268,-13.675572910689755,-13.506297974497215,-9.976121528582333,-13.560849029295776,-16.249967287036476,-10.792484823304475,-9.8540476250158,-13.527219842947147,-2.9205681183877985,-17.79828951803966
60470,,-13.780328030268151,-6.93942198814868,-15.635016851877875,-12.029598183538878,-12.69201060766054,-13.544357194878618,-10.19523449671807,-15.590645733915736,-17.77131259416818,-13.788619690478438,-7.262379078188536,-16.48552676680128,-4.635971865990106,-14.171037092811048
60720,,-15.363521864679864,-5.455468044674289,-18.23260117568002,-13.520786016453664,-15.678118887274586,-15.81728336779594,-14.187106230808311,-15.854963448254631,-17.28500408860491,-15.988521893537492,-6.963200678030963,-14.950656127729792,-3.41113073869916,-15.029922953715271
60970,,-17.895849243077087,-8.693636507868003,-19.35624643024757,-14.63915233141973,-16.20883792381123,-16.11016264169726,-16.709993912226913,-13.976180857469378,-17.862737311427832,-12.878137241011176,-9.590305908555202,-13.974417930976855,-4.053659638376373,-18.418630712656245
61220,,-18.675805924423976,-8.935401161259659,-19.120895459959325,-16.204309239121454,-14.40060515084886,-16.045441895441485,-16.873306842960684,-16.352403751412258,-19.34779202082531,-8.419258353566503,-7.704776773297917,-16.397503472485944,-3.272560056492766,-16.072223712914685
61470,,-19.53961826730042,-11.750102840427653,-18.88150027083938,-13.718814883059313,-17.39085878147479,-15.643881074778598,-15.050916374847326,-19.19278444408523,-17.191430745489054,-8.736124602606052,-7.68429635472032,-18.157204877317763,-4.915632713166444,-16.94998285416119
61719,,-16.055820272134184,-12.46541773204025,-17.032269570616634,-14.451483685407291,-16.07384674771223,-16.098755232569868,-13.528425600083471,-18.99069905141348,-13.52585151562279,-8.121257684386256,-3.846679797293408,-18.166503703272586,-4.320377274866517,-16.509495483489808
61969,,-16.117249142045807,-13.306969451695458,-15.691617838948314,-11.139261458192102,-16.37583263336274,-14.719802204276,-11.798751926427002,-17.23786950504809,-13.529007184006351,-6.606427613180195,-4.143451124102776,-16.40621196737498,-2.04767364314554,-15.182883840710446
62219,,-18.005396073986955,-10.23646848452534,-15.630479704811842,-13.163053120553831,-16.781799566318675,-14.108714444666656,-13.601553497951215,-13.783044721935193,-17.417552624870904,-12.356024003198186,-6.878959396492266,-15.547142941035196,-2.3645628046246743,-15.769864620091328
62469,,-16.42942739322922,-8.79268581969736,-16.462953598875814,-15.657877465613629,-12.989693782327434,-14.586968734666568,-15.389349603424764,-13.550246623966114,-18.653374584491964,-14.547914696047975,-10.021767079437051,-16.002996375637135,-5.209069805218186,-17.85840275958528
62719,,-13.04736569326474,-8.684198376336116,-18.426150152676552,-14.89982031363484,-13.5632334311725,-15.375041587680652,-16.19666832648052,-15.220119347612789,-16.702597821420795,-12.8323209053812,-9.562771129627045,-18.37048929863228,-4.006935712272448,-17.784715951048586
62969,,-13.92263316714027,-9.226544818647998,-16.13846023874569,-9.567233069157162,-15.262794475651724,-15.776197463900372,-14.08778753615116,-16.843732370857754,-15.018421224196532,-12.260333248109385,-8.561027917479072,-18.375730493431902,0.3833187667862994,-15.420318209583831
63219,,-18.950181608773217,-12.480442432194794,-18.308632711457168,-11.245081460706752,-14.349253311084563,-16.896637609500136,-16.10248317792278,-15.598540889814345,-17.109056656313424,-12.782072029324336,-8.083125512275947,-17.770911031170456,-1.4915413643184396,-16.653646833529486
63469,,-17.129238067187764,-14.109892308033409,-21.21109793030621,-14.475006595146985,-14.933159543799244,-14.724798138361088,-18.531762216767422,-14.575770282918816,-18.24238690731678,-11.219868338282373,-8.127187104354945,-15.597333190648346,-2.30658962716191,-18.559687827017093
63718,,-13.34770994404253,-12.718400258381903,-17.586056280222046,-15.251790628993334,-15.13668424194953,-13.11122113022403,-15.82200104685591,-13.417697229844842,-14.925111643432004,-10.442613820003324,-4.716082578378415,-13.751829492472416,0.6465261775971753,-16.945067723075812
63968,,-13.10444403937215,-9.615496218809689,-18.287843122287043,-13.863330412228434,-12.543859232715349,-11.066926438181865,-13.911076756297646,-14.682823963778077,-12.27504686116373,-9.098770691631984,-2.949186411928885,-14.21001339974272,0.6099681635188152,-15.536713636526716
64218,,-13.591059947977593,-6.987264520845934,-16.0575581971504,-12.778381391973747,-14.87535670516704,-13.096421878876953,-15.600393042019691,-16.334637483783872,-11.991737290365084,-9.617559028740766,-4.598054890016651,-15.939559465555924,0.1450978611903943,-16.75288045308186
64468,,-15.646341128873244,-7.925209143413249,-17.231971658610256,-15.010911516230966,-15.10660821105474,-13.466123031966736,-16.851872627103514,-13.267851507867933,-14.908614734975188,-11.26700616636828,-7.012389185633565,-16.943732145636837,-1.9912980646087213,-17.516520988467235
64718,,-14.998588459791664,-14.254190108446611,-16.303000502193992,-13.44876523979819,-15.607248470709465,-12.564483634030871,-15.721724797839212,-16.618852146204066,-15.53325965232517,-10.0493491896988,-7.845183895377561,-17.252482669288238,-1.89410336224542,-17.725775101405773
64968,,-15.259879681506783,-12.503808823560709,-18.77255831266385,-14.377176959947368,-17.833194468771605,-11.319930706295803,-14.295894268547416,-17.182097609840817,-12.065528685761567,-8.209927276496048,-4.81680257161052,-17.902864575204568,-0.7369704837949569,-17.310123927431743
65218,,-14.373366110542475,-11.189022735743675,-17.477041111106043,-14.150395765777803,-16.549145172108005,-14.776826136474758,-16.812978889819803,-15.47780601380958,-11.496174523762342,-8.991109811858719,-6.135803099560012,-15.156381017601586,0.6756591634662779,-15.1168897686682
65468,,-17.090053062165143,-10.805591551286025,-18.70080723375672,-15.185869707945798,-14.846030446493756,-18.101025077756734,-17.92389253114435,-16.81269862197643,-16.49077723556864,-8.415374447844595,-9.244657857120377,-17.494718272890225,-4.039616853958149,-14.19324247701319
65717,,-18.104790770365984,-13.0304662570251,-20.81077808422898,-15.5762028607423,-14.121520080137977,-15.974141458293998,-6.564641447662246,-17.272783565880648,-17.994737834267976,-6.735559100593292,-8.638757118505218,-19.96836290811491,-7.359088215380005,-18.01958961587629
65967,,-15.99484332332278,-8.782123290017996,-18.663753898083858,-15.552386057673804,-12.83217538146484,-12.355216138604105,-4.605212869203248,-18.93891879858312,-17.352860810902087,-8.052155629097822,-6.865383378695906,-18.323660582142185,-3.967315887042232,-18.12038454636873
66217,,-14.413601382922792,-5.0695638894515485,-15.100137281674352,-13.661333435833384,-14.246788571249436,-14.459809407809743,-12.846691314710206,-17.02597174866918,-12.953329299849583,-9.156403449454594,-7.357018025888189,-17.607206048910044,-2.44797285539197,-14.51975413547112
66467,,-13.76418943201594,-3.856966946749784,-15.813140726789532,-12.366172949788393,-15.41694813281724,-14.763578425684017,-14.626020112238807,-13.425668716029438,-13.324609130967415,-13.06521899839546,-6.18945220068936,-14.847058409741432,0.1633429278498545,-14.694530580244782
66717,,-10.749567979303682,-3.3131368460577897,-17.48914525307863,-11.620714830315112,-15.756475050946904,-13.45599877513271,-11.979103174712929,-12.329174447965134,-12.819414972586312,-13.20534554813388,-4.429797396498516,-15.338923794388226,-2.148111303551636,-17.413752802462987
66967,,-11.30542733762428,-2.3017303369187605,-17.126459928683882,-10.25401672712716,-13.223003081624784,-12.270007973741464,-11.358926033799335,-14.96139509938,-14.182634529719582,-12.791803052075018,-2.9999107613069853,-15.249701529605574,-5.5083843683248,-17.633703208987694
67217,,-10.72910920138883,-3.2833608974583743,-16.4638775104429,-9.351982336567197,-10.29291643553985,-10.723398823482968,-11.453675887620406,-15.165877403676792,-16.556322664160888,-11.979915707356376,-2.318154581687052,-13.517534096839976,-8.777470381432597,-18.81170516600581
67467,,-11.982566328915407,-0.4482660905626353,-17.11006112478683,-12.966113615219092,-9.44881297915276,-10.072103933155612,-12.350938868822585,-15.195266552830216,-16.03197337043794,-12.804692827087797,-3.876283688524369,-13.64477902641083,-7.386485535632382,-18.982562598792573
67716,,-12.263747189483972,-2.7948256841308923,-17.647771214249136,-9.887122495395388,-13.86410449134752,-9.186813751798711,-12.937581466349368,-13.440823983498513,-17.44381825302725,-13.398530855626902,-6.010121908595028,-17.696788608618974,-4.187244587619266,-17.818451163682397
67966,,-15.665876929368013,-4.893402690002652,-16.69382130340044,-6.254149790767263,-17.744066541227554,-8.746689702432386,-13.12228194621462,-12.234198623130323,-15.250172227853788,-13.83977213078503,-5.134963635135011,-14.191265905506889,-1.3232033665927236,-17.538041708740142
68216,,-15.671731801590392,-8.343710720651181,-15.702827729347131,-9.294125767976588,-18.035659450777903,-10.826467858553094,-12.93268819049345,-14.777287001033493,-14.882023125344288,-13.962934051312546,-4.413536489117867,-13.826799314612144,-3.770031646081416,-17.90869590091824
68466,,-14.699150519039318,-8.799470746242287,-14.220771101176233,-13.28511426705649,-13.14419509063628,-10.417968814757485,-11.746170979464628,-13.282960977298648,-13.313945507705466,-11.1867718515432,-5.12702370524705,-15.4389001776645,-3.1788037360497103,-16.16376645865249
68716,,-14.37662540720905,-7.575008184797019,-12.751122339231149,-13.630858194108384,-13.50199137347966,-10.364357089538563,-11.71955830334158,-13.307227510939034,-15.0009197288645,-9.372499987766496,-5.216085172973493,-15.777240102067063,-1.7911991192357597,-17.48929577003965
68966,,-13.62032451047014,-5.756051516256228,-13.753876100155017,-15.965557515140684,-16.34089290388584,-11.708137884176828,-14.42013476922443,-12.492211698495442,-16.67312316268266,-9.278677609554592,-3.5515881015391386,-19.13212375594657,-5.447976005030086,-19.192801906641783
69216,,-15.309139792005851,-4.852646984123137,-17.590347418440484,-14.17821110282365,-14.160235604327232,-9.134939229376988,-9.65656135964516,-15.593928736824443,-15.85784856474636,-11.04060062160656,-5.058589216234706,-16.583784280559243,-6.877957687826802,-17.47615359725073
69466,,-17.35921818779557,-4.916934141486849,-19.56745356844249,-12.743424655884391,-11.790805501748428,-9.898837258234384,-10.179934126744012,-14.220095099899918,-13.702507650970452,-13.109561359879072,-9.64594675764475,-15.670835431873805,-3.577929451285493,-15.65161595255886
69715,,-14.670786193723636,-4.989629269670979,-17.522725385552416,-11.767167894089177,-11.542549863594198,-11.062717398736712,-14.584626857915872,-12.42327488147639,-12.402563740774044,-10.22315808646269,-7.189711253682044,-14.060917529719951,-3.334610756195848,-14.267730429288587
69965,,-10.880954120215025,-7.658134902994618,-17.67741710517327,-13.673170092984208,-15.684883756412065,-13.51197410495664,-17.029620724935764,-14.405801767723464,-14.12432148650318,-7.5969179981607,-7.154859617633953,-15.230203892744932,-2.674808113029903,-15.54156251821274
70215,,-11.366865784135872,-5.848218454329145,-16.850703649399577,-11.80971526218815,-17.056293796813268,-13.365974131384236,-13.065424715313512,-13.455488208263649,-13.236389435407084,-7.891746420706672,-2.744493364215519,-16.798358470361293,-1.701389081652639,-16.677630682374716
70465,,-15.261502591030752,-7.121062496187152,-15.717729880889769,-9.86358436055454,-16.99313936654909,-14.827913116285332,-11.378413929609554,-14.752785154314118,-14.94815112933412,-9.66107364748647,-2.8986980913508296,-17.930918575247077,-1.1258027161078836,-15.182780185078483
70715,,-16.550691406968333,-9.84219161349838,-16.193682986640145,-8.712151581465825,-14.549441856042176,-15.906215046411852,-15.257734863929686,-16.772275662619133,-14.771467001552178,-10.276337380930286,-6.05623218740199,-12.627688084657702,-1.064226757456533,-18.88764894684524
70965,,-14.511786935747963,-6.590170692734932,-14.518412853925842,-9.675907091820225,-14.120614966785991,-13.093729545942722,-19.470653623617352,-13.752731118957486,-13.819800981751449,-14.107966824905418,-8.32658905650836,-11.046471058758506,-1.4657035807603704,-18.97749026894522
71215,,-14.917767194443387,-8.417172068020168,-16.423876896517765,-10.431757890258176,-13.057020137619508,-14.045846102851105,-16.432377150343825,-14.066227901109563,-17.084320808360456,-14.669146302775795,-7.456940522900911,-14.776969111476186,-3.552559652667435,-20.081000393307047
71465,,-15.94272194748029,-10.192523780101572,-17.983824917964245,-11.00186339886159,-13.425053500127328,-10.400219592985426,-16.91602979195195,-13.897444543173576,-17.24064923832118,-12.553655639136691,-6.7793845658327445,-15.937746652850738,-3.080990758759177,-17.419967354737377
71714,,-14.088655176027704,-7.8686434845271,-16.18566233757256,-8.481355245812976,-13.833430904641332,-11.184230595808751,-13.646512114807852,-15.5483017130943,-16.23410567306577,-13.61126566640878,-5.308809258710616,-18.39044049690059,-2.2989074643987237,-16.29875108235429
71964,,-13.862929727641474,-7.249320382947908,-17.082809951785837,-10.498444782944617,-16.178504378034326,-14.27493158557136,-12.233980014468155,-16.970556876621487,-15.956833474754646,-12.752606251679566,-3.65637477052872,-15.3722124493472,-0.6785613294498656,-17.81584265596215
72214,,-14.077223325233506,-9.37825771727274,-17.88345642614424,-11.423446257347914,-18.01721805497007,-11.792371625046592,-13.861823656863566,-18.73294029378773,-16.859705687737254,-9.442751694892312,-2.474000554166828,-15.449588231745706,-2.933721979113238,-18.835930116773703
72464,,-15.24448165906264,-9.571397455153384,-18.27139299086673,-11.23338444299812,-16.837765952838993,-12.725182874638335,-15.844714580047688,-17.027712419014925,-16.027283962540885,-10.310365019791307,-6.856731754072576,-17.154175369662106,-6.39903021137938,-18.66758511521158
72714,,-15.365498184138191,-7.459417296250654,-16.70656157819404,-14.008197243399575,-15.023682879506817,-12.673454716300837,-16.551400643626927,-16.340346374441218,-14.870410979484047,-10.093445662474478,-5.249936351050496,-17.636318242562123,-4.881121036539367,-17.15425574591421
72964,,-14.510120980009358,-6.363921974153273,-17.864330940433163,-10.610279900985695,-13.593192632412345,-11.763414151335931,-15.70768040128534,-18.08544088919694,-13.98991858557585,-10.370360243730431,-5.729044201395278,-17.43191695565552,-5.749171616270932,-17.363267928017002
73214,,-12.905308782727198,-4.2627829328767,-18.00062139235821,-9.795581639455866,-12.523633443311269,-11.141312236695128,-16.341495598918204,-17.187955313006544,-13.952966999555075,-10.238145902280811,-10.871288516044537,-18.438104647646124,-3.797363087351712,-15.15003450633431
73464,,-15.934379147036692,-4.88189054495905,-18.34026479561644,-13.600138109395488,-12.20216394086946,-12.752208293787492,-16.822737579036172,-14.121754799847068,-16.14286408610318,-7.428800508956348,-8.603606581523707,-16.79433992516979,-3.0343907442717293,-13.48939534069152
73713,,-16.374171012374262,-5.334839626724376,-17.286385418290322,-14.75062834963502,-12.841861341624757,-12.55809342915586,-16.309415170808144,-13.9723677946084,-18.668984150316568,-8.345998448247773,-4.54186913649854,-16.55059738641881,-2.049503221923544,-16.607365682856795
73963,,-12.654876934390115,-5.794972747558459,-18.97977727653269,-13.950734989111568,-14.719991053028805,-10.319130161917576,-14.049606151691362,-13.64877189246756,-18.748245681343107,-9.25380066743366,-4.645622073080414,-15.281020899640565,-0.4249456080483498,-17.03058676364595
74213,,-11.83632408961117,-6.134328148108935,-18.257321025060303,-10.360286561170238,-14.856734806418556,-9.85611843941504,-12.576040002100816,-15.904155335217434,-15.474916611429151,-8.321204810272885,-9.46986323312137,-14.79758977490632,-0.1946689287121431,-17.234529894055303
74463,,-13.023576151990724,-5.103274337152727,-14.411109137092213,-8.679508984683364,-14.801065252279091,-11.447864087868863,-12.625638413917963,-16.254754463453207,-13.504334917233196,-7.617344924762448,-8.117412646056435,-14.570037282810928,1.5784863148907904,-16.182785555191693
74713,,-13.671127493696352,-5.383161771934251,-15.451278865859662,-11.425179824007682,-14.11572309487132,-12.179126112669936,-13.305830381899415,-13.074591335313048,-15.396207248235106,-9.543812164040098,-7.009551296509149,-14.052043312673934,1.9169801099012969,-16.641183587372883
74963,,-14.872952912152178,-6.291079379068247,-16.4746886233771,-11.3440501480047,-13.23968670350678,-14.17804732495007,-15.45634593615089,-15.8853508241252,-17.81784686907972,-6.906442825145015,-10.376904628816131,-17.323769305622932,-2.610996312596778,-16.892541852573157
75213,,-14.773952617402305,-6.380254573592347,-14.971583223632232,-9.101180686990851,-14.434974928209902,-10.580430178772357,-13.135454154173402,-14.540459492563762,-20.05876673077093,-7.042183600236092,-5.493554527297669,-15.001347080615714,-2.50380625904553,-16.661904521017764
75463,,-14.096357631393698,-5.294081912783551,-17.491885454578988,-7.7055962463487315,-15.20313942502989,-8.687036676631001,-11.312909590501045,-14.050014159403384,-19.771899491182893,-11.201048197657164,-3.08981191205324,-17.461690190913394,-2.2048977755914585,-15.20096019719398
75712,,-13.15644676763004,-4.268486715442158,-18.772832362525552,-9.459862952225654,-13.820748928337467,-11.23910296919005,-12.58054148240718,-14.631263839190822,-17.52530264068736,-7.985335330576648,-2.919019767278135,-17.541693461502017,-1.305608738785411,-14.37459516017551
75962,,-14.603582770415944,-4.719784242222679,-18.96425187485888,-12.535874502436046,-13.193930866052368,-14.654189679439122,-12.225264853572062,-14.523237954660448,-19.13964854766821,-9.321115311901934,-7.815227630968647,-16.279488294145963,-1.9206871440884752,-14.056010058982569
76212,,-16.30847071737911,-7.951722475854698,-18.71869988835443,-14.631071408415243,-16.29230192562857,-11.557848893963037,-11.174193451313048,-15.56875723292908,-16.571759538032,-13.264072968043187,-4.6684006617206535,-15.225185755566915,-3.3512313472271757,-15.372263341980553
76462,,-17.057766035793957,-5.287931301024772,-17.668731307472765,-9.47920043086954,-15.303086999965426,-8.95603549306075,-10.40955968177614,-14.87394376173966,-12.828868700254404,-13.476308284139296,-4.043009375543271,-15.890290918202576,-4.096576812648661,-16.42759446793241
76712,,-12.024604488137554,-8.917493505583671,-17.447765161645137,-5.881324280131866,-15.328851240759704,-7.897718429442264,-12.569697395095806,-16.34915780663222,-11.213659223387715,-10.690381647019162,-8.725925533751118,-18.244742924054297,-3.38115549428568,-16.43270204817832
76962,,-11.822519341955658,-9.938119838265342,-17.0434516666823,-7.941532305497779,-15.51404606453229,-8.623614918555807,-13.531934263392412,-16.65585745740468,-11.87961365346812,-11.661154864825686,-5.623218769344792,-17.206822051025398,-2.427823976850729,-16.032679978200015
77212,,-14.539076736930683,-6.711146409944418,-17.74668329888554,-9.237966100987256,-16.13720320241487,-12.005511284670805,-13.10289394533783,-15.910726754359557,-14.720756598345693,-13.934091112831585,-6.222013369583777,-16.16636783886896,-1.5004744454066767,-15.744356540292
77462,,-14.56413258608067,-3.496242172936708,-16.768577305394015,-12.52171380010084,-12.357126844500916,-15.62176363820255,-15.997027193346051,-13.18868117167468,-14.494651353987637,-11.633110908260338,-8.087308388757638,-13.171302962857611,-1.1027499618232408,-16.47731980498832
77711,,-14.410804203232852,-3.8835602206546938,-17.50634463856405,-11.869972996872914,-10.233899718621837,-12.56993598930836,-17.187982379579193,-14.52149510006915,-16.17382343542253,-8.723920014603593,-5.563307182226698,-13.483917212389615,-2.848426242969456,-17.005190835895274
77961,,-16.071224610209896,-3.9489942145317385,-15.133115200568092,-13.643139316688565,-12.123164468535068,-9.342751514369958,-13.091267584441814,-15.484015912943851,-16.405623918103885,-8.588834519694297,-5.529838087859124,-13.94995638421031,-4.351704323901019,-16.44797925070652
78211,,-12.816024910197044,-3.716959292391773,-14.725367260867362,-13.151627836807108,-14.376450954164614,-10.07579957688543,-14.1206413773212,-15.055599201907633,-14.98776729709717,-10.42911746918797,-5.8287131930632725,-14.07296290795567,-2.9203485745334867,-14.350339897098856
78461,,-12.168613595551523,-7.337971770043872,-18.42568426565392,-11.572444256084054,-13.991267023906367,-11.312676001935364,-15.109379054413468,-15.680211903796666,-14.265403577412636,-12.558133974874536,-5.252555571415826,-12.762102750423526,-0.8204496672368582,-13.702477713485784
78711,,-17.63148928295911,-6.437254940680028,-18.3083755146058,-9.5528974288365,-13.200274795076826,-9.073722849632995,-11.33453616340111,-15.41009141635433,-14.613858827893091,-13.181477309349953,-4.875895110950808,-12.319157036842604,2.139270262325802,-15.1953808638835
78961,,-15.023075695003286,-3.608163665883589,-18.44149899035413,-9.492059995692593,-13.241495283419018,-11.609374953632798,-11.116249421515407,-13.740616564831896,-13.331383786385365,-13.59771314219655,-5.937956379499392,-12.38375373131522,0.213102753196647,-14.62488673512485
79211,,-11.265357900331145,-4.473343975773624,-18.003121483600786,-10.108225076063446,-13.02204470807828,-11.08045053502275,-12.960630056180326,-14.216347531263896,-14.799030390517569,-10.21848269277055,-6.723371226517132,-13.58999903481183,-2.4538825324391893,-15.09854142677183
79461,,-14.350535599977388,-7.631587429264332,-18.672326389196325,-6.79856804122787,-14.583421427923351,-10.869766849026998,-12.212566357229289,-12.285241793579738,-15.073650842874482,-7.073284960534688,-8.190221516942044,-14.661937975572208,-1.4487117996013408,-18.8309039555622
79710,,-16.84134863014494,-11.877052567966178,-17.934879076622202,-8.467487022030104,-15.380203554773123,-12.357508911293348,-11.37927494768724,-11.882736835571322,-16.83698961718972,-8.29051423177955,-8.103708222895175,-16.921100788290307,-2.646062067618121,-17.88738280701026
79960,,-16.14344535795518,-6.4998688785621015,-17.470370339967005,-8.525100298163505,-13.272661631733724,-14.1505024064156,-13.15328817850878,-13.091326259396446,-14.564033750219645,-9.80079734359106,-10.12668692667753,-17.552905956648726,-3.66545832650686,-17.502234714428315
80210,,-14.931065798281706,-3.484389266106155,-17.45432786508188,-12.040001845784785,-14.343911328234675,-16.446647586401667,-17.300917860794407,-14.910035542623534,-14.799666686656217,-7.575306066040826,-9.093041662521138,-16.816021290092657,-3.125422383816568,-19.8467560349893
80460,,-16.660881000176133,-7.089030342040826,-17.149591722750824,-12.849068995195331,-17.251348052047227,-16.358831847185307,-15.544914158771675,-17.105266141135104,-16.608906245889436,-10.333475767803227,-4.366603036437397,-18.512563427024222,-2.311597809580735,-18.544230697576744
80710,,-13.857611209938838,-4.9983246372653465,-18.234704407690792,-12.3058117599311,-13.403700038091635,-12.333938915241909,-14.560194287702451,-17.540389618877025,-14.748584252485122,-9.796678329972789,-3.935431005728356,-18.463878786294707,-0.6338973312065384,-16.610607409856918
80960,,-14.210186427233914,-6.896671642944112,-14.93778254798936,-15.447454167071845,-13.634470019278153,-11.82639537218407,-14.589056169918164,-17.795947730341688,-16.97224274265867,-10.241143725359684,-8.077795792967493,-15.10192579509296,0.0519020836265335,-16.289009093563166
81210,,-14.516532187298434,-11.886332518870484,-11.541919382237936,-11.411660061723744,-13.98204972553453,-12.288572748547322,-12.134089375784134,-15.57358418307723,-17.705118719485778,-15.125626901015403,-8.37530610802851,-16.336397491052367,-4.067624069243578,-16.761767831584045
81460,,-16.160248354650058,-6.632923881793976,-12.78756733813388,-11.025052242376018,-13.387943102267092,-10.475902120716473,-11.781723082840877,-15.1686314094934,-15.874385443462744,-17.011720281234304,-5.775525507192429,-14.452564654277918,-3.819216871510789,-17.42180229343189
81710,,-15.95281388243498,-1.4376545089595356,-17.788747787451797,-10.024178876790694,-11.520678502141603,-10.673870364388396,-10.910520240858158,-15.143323733865996,-13.9483056707175,-11.910027503591095,-4.519278014144742,-13.02785385769689,-0.1371856647411846,-16.42893534073764
81959,,-13.841873239780558,-1.7667415287187125,-15.694060341694565,-10.31537226971736,-14.793401900791618,-12.144773241359534,-12.996486595170207,-15.2317591604991,-12.23893617294328,-6.966439234292361,-5.719408005721482,-12.764045824320014,1.2779291366503622,-13.962010848743835
82209,,-16.192951083667168,-6.024023549674978,-13.448618930531406,-8.402580727019402,-16.651050914317228,-11.409113099217263,-13.243912339581652,-15.017828648614792,-13.318077553531609,-8.609439976711947,-4.613729662960676,-14.67733479877612,-2.1486912200683466,-15.33410048100802
82459,,-16.61178602332122,-6.332693271926591,-14.166152498313028,-8.50466249720954,-13.221933094763788,-11.106357010724247,-8.572069255970362,-15.370076119263658,-13.354417838765803,-10.24011669084608,-7.157484961287136,-15.205260337224066,-2.7969785417954505,-18.55486412847993
82709,,-14.385627918218734,-6.030978041913517,-16.542592937831863,-11.674573773615592,-13.1963020291835,-10.94374646054748,-9.95784845108146,-15.865604606180986,-12.933970769145764,-7.305148741382011,-6.706780464763991,-13.917866702178278,-1.6995944189504777,-17.624064246517232
82959,,-15.665419068761132,-4.856949403232934,-17.400153819188017,-12.993203176650336,-12.520060847742908,-10.757504711663191,-11.070078797067948,-14.410961699319111,-10.41735303812295,-9.857898714809464,-4.137927391666011,-15.173029608159826,-2.8437531446033697,-17.075723335998248
83209,,-13.388942129664985,-4.890645388207896,-19.28823012808861,-11.55079491032298,-13.978863138505172,-9.58953573960728,-10.268697314292286,-15.423571700379908,-13.54336753993958,-13.20932700022287,-4.152558656660021,-18.64914361749136,-1.107877833803948,-15.759957148515529
83459,,-12.461561398021814,-6.278994695994996,-14.899382356461174,-13.737578791220798,-12.902811496987283,-10.85181516509646,-13.20754860590512,-14.245228508067882,-18.01876015183074,-14.050686149641908,-6.810576059174197,-17.761030706465878,-1.489174955805201,-14.717401497759033
83709,,-12.75959931810279,-5.69303525202196,-14.652873135845413,-13.702064175685631,-14.67431408906998,-12.46555239256922,-14.58440967935088,-12.341348862341588,-17.531849840132566,-14.556842814545586,-4.382418977771248,-15.68145884121198,-4.251014076935496,-15.1830830524751
83958,,-15.75362015096755,-3.846735258898507,-16.267495554953502,-13.272935275721828,-14.331952521097527,-12.567306863245747,-12.537752662116477,-13.691547425550008,-17.22572588782926,-11.25862702783798,-4.437392949243209,-17.032087779894304,-4.210536331055504,-15.885399388845196
84208,,-16.301277168634353,-5.258656068343019,-17.839319714389337,-9.227036850838942,-13.54942453967874,-8.787576743592552,-9.765292394082444,-14.645660845763542,-17.910237676653647,-10.031141874314777,-4.95125931048134,-15.465005054517826,-1.0248753282446286,-12.631996610782572
84458,,-11.087861633927956,-5.293560770038639,-18.371631625677637,-7.098625459202992,-16.26765564059808,-7.0498498550685245,-10.9606596349414,-14.902317869960894,-14.619695966004064,-10.074821761507046,-6.760859946989541,-15.886627187276856,-2.673647454860222,-14.26799526485036
84708,,-10.625352178060346,-6.477008891737491,-16.11214011797595,-8.580956631702838,-12.881554835429794,-6.721403879393329,-11.444813971388829,-16.177125078652775,-14.585951583787862,-9.277231756439033,-8.26985514481324,-17.443441367094362,-7.328359415581081,-15.53202378373892
84958,,-11.752374774620844,-0.1250540711405166,-14.794771408590004,-7.442070501418708,-10.81973108817128,-9.598205868649616,-14.524208325894634,-18.064328488332308,-15.093665381279177,-12.318494561510562,-7.760695628325294,-17.83055999791418,-4.82788566838011,-15.780852167933489
85208,,-17.82544185480214,1.0213590455235435,-17.83998988430916,-6.908697893740486,-10.585369206454674,-9.963355210889915,-14.738332606253564,-18.094622479652426,-15.615599515197731,-13.6561154042353,-6.449565988874809,-17.67034856034737,-1.3497206804102158,-16.438049803702256
85458,,-16.459353624099005,-2.8589277108490743,-18.90749327089153,-10.164782029803494,-12.450985575846769,-10.79746356737598,-15.574423998027662,-13.90148759464057,-14.729300101864704,-11.736378710221606,-7.509525621092683,-14.359029207762443,-0.1167713993985728,-17.912800782731697
85708,,-15.294281117600764,-3.413929870236281,-16.92093277237755,-9.280517673305438,-8.85975286308926,-11.531568465758832,-11.261479071237284,-14.730870978990612,-13.962242128824167,-9.863285137982974,-5.449962259516463,-14.286024321562454,-0.1626130133634569,-16.808306748282867
85957,,-15.231223352259008,-1.878826838095603,-17.560691239628486,-8.791144916349438,-8.746804050013914,-11.501160104467909,-10.243209936379593,-17.589001183790096,-15.005682915276726,-7.909360995282432,-3.37689874693352,-15.442517160060971,-1.776973850519878,-16.821144511432426
86207,,-13.827924781908049,-5.094902693652834,-18.482476419859875,-9.118769071166431,-11.392322011018177,-10.00700455932659,-11.504880738133316,-19.29152219980096,-18.617587821991684,-9.055086534097155,-4.880280905464936,-15.091574934994044,0.4251430559383284,-16.215047983888653
86457,,-15.37207229359465,-5.597077020425575,-20.191656991704072,-8.140798203270386,-13.956227016168633,-8.829617037870515,-11.480103332729934,-19.765055385874454,-19.563477001057755,-8.760180852051286,-6.444898815220639,-16.075238632185222,1.4373416717644356,-15.494635969193803
86707,,-15.748140894740796,-5.19419222024821,-19.11635850490692,-10.307246781971129,-13.080145003246994,-10.327824232373462,-14.020534638685668,-18.071241503118024,-18.679806855650263,-11.442854364018622,-4.768207582169765,-19.448974511686387,-3.763198551023658,-17.319095026495035
86957,,-15.827949636788496,-3.740929953199368,-16.112872434469235,-9.798625148779184,-14.268615406891932,-11.052911988276396,-14.714359365545793,-17.547134419303564,-14.249286809229504,-12.926519425380656,-4.782553995780431,-16.413692357533968,-4.862192259238952,-17.314658990462423
87207,,-15.225566336364878,-4.71940177598403,-16.749351210955005,-8.640388761000054,-13.281457265189708,-11.745761344546274,-16.0239625993153,-15.483461761981532,-14.145780730031284,-8.591835270791922,-4.543686149588984,-13.949299965374369,-0.8749373098097073,-17.092113497186357
87457,,-13.671699131703622,-7.188774985160473,-17.738772575007104,-9.956776133330312,-11.779948112904773,-13.10754066580044,-12.808413362772717,-13.3107353364789,-15.634279251971162,-10.810523759221567,-5.591606082774905,-17.13011925448742,-1.998614547180674,-15.768264900976863
87707,,-14.342432384262295,-6.758338500915611,-15.835725401622556,-10.430127796451709,-12.425310436958585,-15.260205067917544,-12.7972617370788,-13.69138245270034,-15.921531198399643,-12.922805209537092,-6.428580512528699,-15.327840733090715,-2.0059980922982685,-15.012384531022844
87956,,-15.428388117100704,-3.609056237165116,-17.94699744737626,-12.059272988238476,-11.202984178208355,-12.566466899254172,-15.17596121684581,-15.05110254021248,-17.562711444631965,-9.891119875112215,-8.684393705917246,-14.83297084502211,-0.3473735094670321,-15.699792189088187
88206,,-15.56293708238325,-5.495090651724176,-18.650599157856888,-10.014150575570069,-12.909570950162468,-11.771276502176336,-16.949673107656757,-16.137799765322377,-21.780625728370957,-10.088923010130442,-7.606937277342682,-15.267663103839585,-4.432631968592219,-15.091425612750502
88456,,-14.401379119984046,-7.551152951206483,-19.92769155902599,-8.68415754184775,-14.555003865940854,-13.71896413234431,-13.600913081464707,-13.88641179827606,-19.58967157424791,-10.156673857664288,-7.19175410832976,-13.799516234438489,-5.228882125635358,-14.725434913233803
88706,,-15.166636444767391,-4.848925561630081,-19.663081365479623,-8.07459437616087,-12.810691286933132,-14.0407958382959,-11.94790375532161,-14.24224483491903,-14.22253296472326,-8.13508296471381,-6.286259979901584,-14.042131887713856,-2.8622910921557816,-14.634356648772398
88956,,-16.8076451730553,-3.4742560622669605,-15.48100340715772,-10.021778736851806,-13.038566397864424,-12.74314538847154,-16.965190248083278,-15.874054236189624,-12.49038084078058,-7.132608189799111,-8.262075836988432,-13.571126317597336,-0.5759585346210415,-16.06886827396656
89206,,-14.066395305047998,-5.942397857645469,-15.664936214964865,-10.364791338753632,-11.784012450257428,-13.49544424237536,-16.904715497376998,-16.36422153257065,-15.715481030068068,-7.910484372884229,-7.685675155314145,-14.91227911414285,0.1744142594856348,-17.047833961932
89456,,-14.45446879912038,-6.444937982367453,-19.226279611550417,-9.75394750125879,-15.44863426468294,-16.96353546013283,-17.601353446919063,-13.604228333721569,-15.55950297058092,-9.59742647898175,-9.437969870729235,-17.11502795624361,-5.1744969338437325,-12.754815411070066
89706,,-16.862314083065506,-3.633698657215026,-18.894754904015453,-11.291175354387306,-13.30166265911818,-13.696851204491589,-15.44279726436798,-9.060974807097043,-16.17107000197813,-7.7582833717046205,-9.557430003384209,-14.50486998069666,-2.653365260947832,-11.451336880672631
89955,,-14.290562679073888,-3.5236603535710485,-17.911362877050014,-8.212166317648844,-12.673854395184035,-12.514418682102178,-15.561822455617325,-10.492436301705045,-12.181722926278944,-6.754400931429093,-6.486785301783304,-12.918286593293306,0.1553617386239194,-13.940478850657597
90205,,-13.247346310381705,-1.9893929351482111,-16.106248899336016,-10.293810306281827,-10.431029771089904,-10.989435465155497,-16.640335240922248,-14.127338615117518,-12.510608587629822,-6.01374755940507,-4.333731528042423,-15.29531186343412,1.309782840247182,-14.316007802780891
90455,,-13.4259676231774,-4.520601600307393,-15.662945297404068,-12.111986628189616,-11.235477357505491,-6.525361477686743,-17.837456136632742,-15.759166696870324,-14.91073555887697,-9.858498848923311,-5.226804333255042,-18.62278835692742,-1.3419637166178744,-16.682377987929307
90705,,-16.0271558874538,-11.385224138657922,-17.407953175942218,-12.296427127855225,-15.633964559805795,-7.835120869941451,-16.059038511845152,-15.95602084665761,-15.909321227122868,-10.20796712314448,-7.1661427919577925,-16.17958885270466,-1.440442004247561,-20.24471752911976
90955,,-17.333861504302845,-8.00494972140361,-17.138097969008182,-9.90931813881027,-15.75837564552608,-11.744430664135368,-13.141750498883148,-16.296942397782452,-15.12497890462149,-10.554800748884162,-8.18982518280656,-16.390668182459976,-0.9163646912964912,-21.578226631158724
91205,,-15.469510124194912,-2.8768180720883034,-18.09240826022955,-11.858066734563284,-16.24096905284436,-9.984574793750308,-10.693172157270238,-13.914107105351778,-11.373841056559884,-7.13941990447402,-5.523545817071009,-16.388135826313516,-0.5547964441111818,-20.64278028608879
91455,,-15.366050384230746,-2.4953113240133447,-16.054991422841717,-11.727201115312376,-12.844348855146723,-9.380633389877628,-10.730956762844198,-13.762933381473886,-11.187601778728668,-7.672126234446849,-4.920614184567522,-14.628048414710918,-0.3172322635444403,-17.535490660338294
91705,,-14.78398065430845,-2.4385872585665984,-13.798638263893643,-8.49499694861812,-9.40419862259404,-8.589235779484806,-9.749449406683835,-14.187641167830437,-13.777463303911084,-1.5484514100609577,-7.6940674484139375,-15.00750558283052,-2.6370334440188388,-15.401909845496514
91954,,-12.322911545343366,-5.40655103406807,-12.581310200490298,-9.641696119119503,-11.882824549907909,-12.194049123540315,-13.111105544506549,-12.950947342656718,-11.03102273808276,1.0424978651083996,-9.011099639011308,-16.782350583172118,-1.6064036759782387,-15.547126724012328
92204,,-11.926328806861562,-5.855070535670507,-15.219597185230366,-13.266377370242273,-13.792125786719696,-13.03954519897852,-17.3197906981976,-15.67362321386831,-11.906420902218178,-3.732926371502425,-6.195265750176312,-18.66402231632181,-3.043767135260105,-15.818837759121944
92454,,-12.057220148700896,-4.641386582559213,-16.041543389318115,-13.599463841190108,-13.824229890487963,-13.087077815141653,-13.78781125832189,-17.0494449352448,-13.32078247077102,-8.672407530831723,-6.332631039262678,-16.924655109161016,-1.4496073026262326,-13.886680054725677
92704,,-13.259669671214496,-6.773964589997608,-17.137944404011918,-10.64062351180958,-13.349627469108643,-11.143536008331012,-13.97084643338582,-15.34603768237904,-14.363146565352045,-10.83484925880756,-9.926498816976238,-13.09743197058438,-1.8042554404878697,-15.49817804711649
92954,,-11.290639734426913,-4.564044281329915,-17.603596984445048,-10.800631880899807,-11.379786036048715,-11.602986734714932,-16.02087358733928,-14.376079344208993,-13.64311721317696,-5.553543982013308,-6.323254319060564,-12.337105022180989,0.3689937007723055,-19.58264391861039
93204,,-12.525320489713549,-1.538755334117941,-15.659973125727822,-14.527690579086574,-9.11409880111502,-9.39442612712648,-13.77729177999826,-13.632074967451654,-13.661423910352395,-2.8276949775705584,-3.718402565868341,-15.440638902933008,2.451188610657111,-17.559873686847943
93454,,-11.73866920273892,-1.997753581293198,-16.08227228666069,-10.132811836774476,-13.445155815094596,-7.268208079877101,-10.445380540738782,-7.539718895522141,-11.00973171343738,-5.457679720190834,-5.032262231124962,-15.243053290718372,0.576910037039396,-16.56827741753461
93704,,-12.087987106129304,-3.197207478848816,-17.91507201698544,-8.278746568121887,-13.400554856840944,-11.262878339049694,-13.258098089047806,-6.648632067946884,-11.792974153117417,-6.417296029418159,-4.787417524519148,-11.366207186888936,-3.486940966092358,-17.001706729659325
93953,,-14.83364081562076,-6.768134788004514,-15.118172909986535,-10.358922993329326,-13.961538839807126,-14.31984072980777,-15.632569291380625,-12.540636198140326,-13.564170095072612,-9.516100070230667,-4.100515842050127,-12.293153057964226,-0.5549908744802454,-15.556887433560684
94203,,-16.591105064492375,-4.1146077469202655,-16.1709847233794,-13.119963662020467,-14.862250975692024,-11.73787538669884,-13.927091437172372,-14.797283029479908,-13.235001708946196,-9.066084285542724,-8.568167038589978,-15.499282795389762,-0.5306761978793185,-15.51436384278622
94453,,-17.36690991786928,-4.777950005288653,-20.5162875356201,-10.951542572364865,-13.146010550566489,-12.842383956107977,-15.33659149931539,-13.7733470299382,-13.749356416587224,-8.835983861798667,-3.725122492566743,-14.329301367591391,-4.364596486796809,-17.708640266401442
94703,,-15.937928497003636,-7.57948346063556,-19.62759860247409,-10.343267725368808,-15.15034685912054,-14.819490133155956,-15.784565436448446,-14.23982038783014,-13.580887759062506,-11.42510724593355,-1.5418487744976817,-15.190232092522196,-5.00316248157474,-16.122051176919665
94953,,-11.52369762516024,-5.319664296767559,-17.16547329207292,-9.629965198441022,-11.737860590795286,-15.26934316522654,-16.39176962959207,-12.88861718724142,-17.348651570031674,-12.215601128137717,-4.1676564410556525,-14.940850921596711,-5.526425207167256,-16.318734105677404
95203,,-11.716291957069288,-3.27506698391916,-15.138130167903377,-8.657633928622658,-13.049176248248983,-12.802002387709386,-15.12995001631494,-11.79420695014089,-18.488014912241752,-8.664853472202244,-5.743006362616521,-13.161122630859454,-3.935809867064762,-18.79661757088907
95453,,-16.663792585319666,-4.954793229266325,-16.037943174099823,-8.720290729923617,-15.947052336091918,-10.743440713648829,-13.196097407173422,-13.298947638060245,-16.62722285722451,-6.084206354301216,-7.36652468087276,-13.92986418842234,-1.4513720917676176,-16.382867286811546
95703,,-18.00969714781046,-7.819252571343514,-17.642151629792526,-10.537072312954368,-13.341226302313292,-13.02525091956694,-13.28387120606138,-14.149356835125378,-13.401817638506984,-7.1811264633120615,-8.517665740522393,-15.6249755302223,1.4174473639709224,-18.22084640073923
95952,,-14.766578053156856,-8.254159048846203,-17.653511655558532,-11.486509132919664,-13.045470142540417,-11.75169061576539,-13.366963170520885,-12.896989297229588,-13.932974728713878,-10.790066576927654,-9.917697909026806,-14.28715536677882,0.7753300741187161,-19.01323538151125
96202,,-12.157370134374208,-6.9832727125589065,-16.87092144934664,-9.918211505891309,-14.634213437081591,-10.956495333693471,-16.59420309441441,-13.16694818140684,-17.04174674568675,-8.689439304647461,-8.224111715667865,-14.315027962080917,-0.2331254307069387,-16.982922454498393
96452,,-10.45071951168011,-8.467515992312903,-17.097826045412976,-12.463641693462344,-13.743290830569965,-10.907802451825264,-13.838795874155924,-16.184847647911603,-18.285200177126008,-10.116762970352712,-9.7541184157068,-16.24382962116914,0.630592463725145,-19.28104894898715
96702,,-13.3150633594572,-6.372833793844611,-17.228863634359357,-13.430847608502742,-17.150030378202047,-9.90247822363689,-11.152028475747803,-16.536267014973422,-15.720759995170509,-9.908562291509384,-9.17629953792312,-15.470875666612198,-3.615806128219618,-18.03309303151565
96952,,-14.34501822919792,-5.09176398970971,-18.823514248728088,-11.332376907645116,-15.282020472486703,-10.317913128304934,-12.731727236091135,-16.308945030517492,-14.270954449836342,-9.509607637468626,-6.450613188028846,-14.778826511527692,-5.033882800435738,-18.05708498469265
97202,,-12.586351816438022,-4.651440423532256,-19.219191658762185,-10.189057278945342,-12.416058176241764,-14.25188400016908,-16.150087313188216,-17.403552311213293,-15.638691570839915,-10.996431746239102,-5.786276455048411,-16.439146100058494,-4.284028858805877,-19.932789707734543
97452,,-15.50894232459079,-9.504545756224218,-19.59130337397413,-8.52694754101263,-15.27929574599478,-15.423910646187627,-17.545343264649077,-16.573152901766427,-16.39616239306367,-11.431362074226977,-6.335732010581961,-18.883591029223165,-7.124443595715614,-19.790110664253152
97702,,-17.02528605368659,-10.566600641996867,-17.2159376575283,-9.842752207295788,-15.2779768696513,-13.667775848747578,-16.04953049240529,-16.135728530964922,-17.08321005597201,-8.168675859551703,-6.606267628602237,-17.784922701795168,-4.041350843064208,-16.9710369527523
97951,,-15.825686966755178,-7.94772261460218,-19.86592901427543,-12.966216503768386,-15.454677400718712,-11.959404990049782,-12.709639887168327,-17.630058169548036,-17.621301857753103,-8.811024437560189,-8.949685610712484,-17.93220671473424,-3.7323193681144007,-18.441151013937784
98201,,-14.267915858070634,-6.226832170313671,-19.296084430098464,-11.650433289169571,-17.47969118809062,-12.166855070366609,-11.41139071791522,-18.48823419616503,-16.0587892843283,-10.89155088178483,-9.414860607247228,-14.593444609297263,-3.2357321017268426,-18.508495604573746
98451,,-13.139570745749117,-4.484932859321818,-17.072049301760075,-12.246226168619032,-13.34020501080704,-9.885386655063744,-11.172717508317238,-15.83800868082739,-15.41838538387132,-8.872873455424417,-6.154752144023831,-18.028457841388875,-2.6069598658128097,-15.091975511634931
98701,,-10.321212677359563,-5.141464039344021,-16.443253302591593,-12.148990694520048,-11.419413340944397,-12.28183181272894,-12.721649151014724,-15.061020192782776,-16.733302060101696,-9.430229103529538,-5.821530862779269,-15.23927336762102,-0.8730129498303918,-15.301268806877824
98951,,-14.152875268183642,-8.949683256160911,-21.04765888557745,-12.151337447743574,-11.823452880450027,-15.423160184463836,-16.201855923040753,-15.213278590373683,-14.689919025860544,-9.83368023776723,-7.55207614096375,-16.223180121322056,-2.205270427249721,-14.698264797965646
99201,,-14.08584070759141,-7.272762949317844,-17.590497397408562,-14.283542808252845,-16.347706970630675,-15.16051128864863,-14.29542492290414,-16.390593171462392,-14.837597389361122,-10.767445777252869,-9.200666471741991,-15.777933351703664,-2.0662765557396967,-13.500880942679526
99451,,-13.558623901091284,-5.220532832365425,-17.027232034210495,-14.734654048020278,-18.091232567590428,-13.604664736612008,-16.23643468801112,-16.10972062677068,-12.24339144117437,-12.37283656998155,-10.397489416121433,-13.681290927895082,-2.508923749606024,-17.066105519593314
99701,,-14.862510761586911,-6.011886874858698,-13.407766459829416,-13.431099195906626,-15.48140240976082,-13.23707183249974,-15.365598427245484,-15.142483577485546,-12.861263040939775,-7.742615259245753,-8.88850450100258,-14.710449450986538,-1.0507936932958657,-17.94888997555273
99950,,-13.468411222839492,-7.1184758971964985,-12.08023029956879,-9.946693387297504,-13.191087207511526,-11.701027346237929,-14.403563355705147,-16.76897438111226,-13.663677843336918,-6.791001944534134,-7.493293093680542,-15.011553466056826,-3.510622479629447,-16.466198296537346
100200,,-12.206631732391529,-6.746819555747631,-14.547350526493926,-10.49198256693284,-15.231370857761013,-10.541089218079264,-13.389160250605611,-16.689760976279175,-15.468297189683977,-10.58888190301161,-6.733863084746435,-17.37533608260401,-4.336979435594,-16.46877465809878
100450,,-11.963472081473148,-7.985707012595059,-16.43370787712711,-10.928704021447151,-15.179982325471478,-9.840968259259895,-14.477810826126072,-16.02535228827767,-19.93177682041977,-12.50555259479759,-6.126139747924992,-16.12255547737693,-3.963666509637329,-17.708720301819557
100700,,-13.12911133804029,-8.871047947102452,-18.604346031117306,-10.876622877748623,-16.558070042055554,-11.539449282661472,-13.09606945714023,-16.54050752326936,-17.289014994085598,-10.111250467875854,-7.309832836404765,-17.242974846799633,-4.8041750571801725,-16.323239869490713
100950,,-17.32538898862485,-6.770334221271599,-18.628758837646146,-9.221070000315038,-17.8785408414044,-11.002690600987204,-12.348452851533564,-16.213429546337302,-13.901388322424582,-9.15454848161201,-6.437594973254841,-15.09208445224009,-5.705453591902235,-16.12594041798964
101200,,-18.57454530721805,-9.09099437742414,-18.39836245364958,-9.860526033160095,-12.878282785562783,-11.330119887154996,-13.535867050685916,-17.031132092028358,-14.063958652557051,-9.552630214294949,-7.26766853407919,-13.705089181284452,-4.811691920208573,-14.43002558965938
101450,,-14.051690649565248,-9.45313230418729,-19.814151290970983,-8.92005452342585,-12.666716445375297,-12.396953998211158,-14.42788043922188,-15.048224070310246,-14.488215827510276,-10.258102780280392,-5.812514761778368,-13.681006872097203,-3.549862072358778,-13.898551585299757
101700,,-12.340886843736856,-2.823109285863091,-18.00010981570832,-8.007829890124293,-13.853344269833888,-12.3807187857681,-14.572371948595412,-12.77415417548498,-14.925062539004166,-8.662434175070228,-5.097797722741432,-15.335821592502052,-0.3511318515774214,-13.50438396046048
101949,,-9.983274755114651,-1.470034367319942,-15.951097226014186,-8.930367871082543,-12.120543815745531,-13.76690572257155,-15.150019791599307,-10.823165709686087,-13.455423686494443,-1.8572306542679435,-6.160983289112272,-11.949390401784752,-0.2539106589912441,-11.10961448778582
102199,,-11.077702635776474,-5.475144187060009,-14.313030362621106,-13.051821617019613,-10.64608724058675,-12.28913651338268,-13.915185617587738,-13.933465264920276,-4.808106590789717,2.804729055114716,-7.210192220301662,-13.372680168949174,-0.3790427876581986,-12.70351748010222
102449,,-16.539130927394577,-7.49128350176437,-16.028752165085134,-11.920014014686268,-10.67500257696654,-8.776996940442807,-11.112807713388332,-15.344241745706915,-4.5470727418472645,0.6260703294513247,-8.330826119680736,-15.136451372393545,0.770597831696084,-14.058572677609382
102699,,-12.731360151938375,-9.484766228612976,-18.205191456511084,-12.3436246471239,-11.052249147740108,-8.229845415982753,-10.910200536405783,-17.80973276431153,-10.665999459015922,-6.807271427819481,-8.740861083151076,-16.740674310038393,1.682679180212742,-16.065579477176048
102949,,-11.76275983752322,-7.470583916016011,-18.15551768683904,-11.51553769088993,-11.834022015799963,-8.539704520066536,-13.559798384803038,-16.214578235361753,-13.134048409847562,-11.073357674778144,-3.7356041422945423,-17.88683232360193,-0.9568341232346772,-16.011227993407623
103199,,-13.5732644186945,-6.881916838867891,-17.696313717451375,-10.489416296430225,-11.122501186561918,-9.24528655540494,-15.554490249615656,-17.303309688846923,-13.963459092290444,-12.689599068674006,-5.403503453441207,-15.88431332007498,1.2282358514345977,-16.06303024535884
103449,,-15.549982915513942,-8.386657792594344,-17.225114488546854,-12.23417752640672,-8.310183440392859,-10.9183203886586,-15.99258436466032,-17.243868320458294,-16.444002938850254,-11.759613361772022,-7.45677016813342,-13.41735663817343,0.3988527671145426,-15.512186703955638
103699,,-15.31261127805498,-5.963492903257121,-17.995350161030505,-12.177518866614072,-11.371874994686705,-12.75762472686562,-15.310049009795536,-16.684140095132097,-18.04318819456379,-12.232562766400182,-5.830961847777982,-12.464146390347384,-4.654650644235781,-16.378552339746278
103948,,-14.243939390278486,-4.450629108902518,-16.30139087007507,-12.770696587519485,-14.908367224433164,-12.727932301855736,-13.143519904627484,-14.591740076115665,-12.955084967238555,-10.887814877187566,-9.338350774507504,-10.05059033024371,1.2326103408174114,-15.811469530327072
104198,,-17.218445852449335,-1.434021425859532,-15.37226244445028,-13.227724131263422,-13.24800235408298,-10.82632331483528,-11.166955148616278,-14.663766238529334,-11.98041538150493,-11.338327545673764,-10.370233067820584,-11.25548776487019,1.1729700504870124,-14.446297195049606
104448,,-17.38279477947913,-1.7617188981435137,-16.33815380899404,-13.586967154420153,-15.82394527746638,-11.532201667655858,-10.794227147747693,-13.326562293316474,-13.76672638666398,-9.093377944921532,-5.384546163933058,-13.641601578318358,1.0485481004960333,-12.985898534684534
104698,,-13.94230713586204,-3.692269576365845,-15.531101419256093,-11.956449652715923,-12.13910653601811,-15.184216832401356,-11.558285945637234,-11.855468670969868,-12.621216642673254,-11.383783903222824,-4.328911625172328,-15.683418019174438,2.7071608439848367,-15.462765275750812
104948,,-12.282748039975884,-6.439020203571884,-16.3352097562766,-12.864606847848057,-10.325774363005,-12.64410447399488,-11.258124574230775,-13.12351848790631,-11.542276071216946,-10.872690493685512,-5.549183573167537,-17.190034121101863,-0.0067364861143182,-15.967430390072453
105198,,-13.23294888581277,-2.7472415042177216,-16.935283650716727,-13.176586053021987,-12.345398841470352,-9.026854266620472,-10.508159122617682,-12.78673581565708,-13.141918742784316,-8.749919170850358,-6.958212714402151,-16.042865363905673,-3.6033369936692026,-15.323979119447408
105448,,-14.887780959506204,-1.9720381397099351,-18.81991098876246,-11.85012197570799,-12.121430589724316,-8.37662216588931,-12.734196039521814,-14.2751107226538,-15.281042843151363,-8.072441962035414,-6.19345610241873,-14.550342697566352,0.9876919371005096,-15.348988833213184
105698,,-12.98840546517516,-4.010675418391033,-20.469438272971036,-9.18990627582589,-7.980085903895683,-11.390737433295438,-14.552446045035587,-16.186719673844458,-15.436423987158843,-7.251568526515447,-7.079279743708553,-17.7337895166847,1.562516114195204,-13.207018434940792
105947,,-13.59272199541786,-2.47552888178022,-18.26889425383588,-9.263382821527165,-7.528198965772317,-11.091382648078715,-15.28037188320896,-15.734587788255771,-15.618424557190904,-6.2559002754789415,-7.300633512840129,-18.27301385797237,1.855445894872837,-13.697180057873982
106197,,-11.854684945299676,-4.002676967167204,-15.390280148950584,-13.21365890589658,-9.116780214677876,-8.339913710812759,-11.916875256080846,-12.681565130323849,-12.520263352309176,-5.159062493258695,-5.756305709896904,-13.43502722335545,3.4318453298340645,-14.694174310090434
106447,,-11.91685486310666,-2.986098166065228,-15.137111425348742,-12.974753755272506,-8.065667517524966,-9.702040867712538,-11.87915231412118,-12.204909852591005,-9.861266440433653,-1.8747606945692912,-4.56235071044553,-10.465379825510407,0.3084015057357104,-11.348676372744784
106697,,-14.327260810625544,-2.898779978804651,-16.995966178658144,-12.395105252880166,-8.242404392662436,-9.892120550347627,-14.063803244520514,-12.948374549939311,-9.80766684222077,-4.24061469145277,-4.820290014417715,-13.203022813224392,-0.3896278120320615,-14.61045707273892
