timecode,event,eeg.af3,eeg.f7,eeg.f3,eeg.fc5,eeg.t7,eeg.p7,eeg.o1,eeg.o2,eeg.p8,eeg.t8,eeg.fc6,eeg.f4,eeg.f8,eeg.af4
0,,-13.641741480096384,0.4667619181922051,-5.330221376061425,-5.440675161024585,-5.028363729505711,-6.72823728814952,-4.2196702521251215,-8.503666733201054,-6.113708560319788,3.124677906378816,0.6456762538824952,-7.792923645194878,6.237370840722508,-7.97066851812782
250,,-11.909545212708778,2.2838317396705508,-9.708717803786868,-5.247845744596575,-7.691534051538413,-5.2246588387096455,-3.383453516431106,-6.877253382393792,-5.451548373137842,-1.5860565370540558,2.218188046012779,-11.21546188219118,7.015103736478333,-7.473289029115147
500,,-9.771858431581876,1.977919273362003,-12.740699193882964,-6.130176437016107,-7.103486747825157,-4.510773953297224,-1.5560435160930326,-6.24677877345205,-6.02669898313602,-2.255490106907303,-2.574943101252228,-13.182326203754576,3.029988984055052,-7.955326344193406
750,,-7.723674747573823,3.285895921069446,-12.997497282780245,-5.914051882957992,-5.899835210573274,-5.627460381438231,-3.989012063415069,-3.658897574722208,-4.412143603089182,-1.8131028647099112,-2.426314889935159,-9.075048557469191,0.9724845892982892,-5.47737098336545
1000,,-7.850533410831082,5.8294286711018,-9.422121173061107,-6.700502582276087,-7.164232729130409,-7.677266132097881,-4.392542925342813,-5.72592888385585,-3.46656779222777,-1.4381861088079884,-2.333541824959692,-4.848493965192718,4.080118636484668,-3.928005510771808
1249,,-9.214188242843475,3.3492559913497475,-7.862848858252144,-12.089298549661056,-5.700775900005784,-4.828373737320804,-4.6659955076864055,-5.597379739387083,-4.697925500448637,2.709686855786929,3.2238045142454763,-6.871181286615999,0.2355654447028277,-7.425510244704835
1499,,-8.984664218668396,-1.394429213723354,-8.357087663023037,-9.094928547424509,-5.14970436991756,-2.22196579704862,-4.6229704533991125,-7.737672042016364,-8.205017470635413,0.3530560542659778,4.1676937050728124,-7.451468193473779,6.65543212102113,-9.38085510035759
1749,,-8.770985003419495,0.6255684594885011,-8.975301117273029,-7.160616066634256,-5.676903632341938,-4.060156901016814,-5.274711917128359,-7.359093368029045,-6.648516329095278,-0.0237721945799185,-2.159096643700697,-8.811652702624299,8.073013763846149,-7.157925530340112
1999,,-5.168594806390459,-1.197507752002565,-9.469721201894751,-7.566019031142691,-9.191560803496689,-8.177142541157586,-5.3623690331000295,-10.5886708108104,-11.462321039690266,2.819483441506488,-3.4325547684287354,-8.455530567294199,8.807437322543116,-7.776755230467749
2249,,-4.410038588955181,-1.1336702819148268,-7.986531061379861,-9.182978499295968,-8.030763006332382,-4.384392077533731,-4.693345436132093,-5.160831218242209,-7.226467003487277,5.951176994240203,-0.4668517251009605,-6.809464646331124,5.966316303514906,-8.236680242617998
2499,,-5.929211658039357,-5.6016074435179375,-9.19118711474799,-4.602505365684854,-6.103267455054961,-3.135938843089012,-6.342867238440292,-4.926764372997474,-6.566302334422555,2.977540960267344,0.5895924264115511,-4.132110266643113,3.5155244269640047,-5.404444639801992
2749,,-8.927644382542478,-4.398936764633535,-11.160740070203117,-3.920461558381305,-8.325393821226951,-4.250455441651187,-8.199121486667625,-12.490164144170784,-6.4809177723043065,-1.3705508448913704,1.0440816619888396,-4.954482391423626,3.0953497930628417,-7.784604274212766
2999,,-10.498957670041,-1.766099476923218,-9.184475418507018,-4.751126758922761,-9.57370579924276,-3.556596992196686,-8.80518209723327,-13.364266670451768,-5.66787953271302,-2.418735838582475,2.812065326157944,-8.300890970046687,4.341285826102244,-4.477236350308537
3248,,-10.654022936509438,0.5196366606737433,-11.514802559211194,-3.627578716121691,-4.186982415290478,-3.2455786657104757,-9.420395314095993,-7.568368868803715,-6.616343863930151,-6.818531942157962,2.514868191301065,-12.860750446532748,3.241726231080308,-4.61378602391414
3498,,-10.766942543197008,-1.3648563588177407,-12.98712874245854,-3.572855210960572,-4.032821719628253,-6.073258280147736,-8.502860453885821,-11.3639750153888,-5.145324364481723,-1.8830903594059407,1.029005260499701,-10.911366793174349,-0.9180216254654416,-9.381297427575902
3748,,-7.609672844006865,0.2225882837859248,-12.226045251135083,-9.153068065031531,-10.5278012389688,-2.270817223465773,-6.709098373497016,-12.623139546552238,-5.325783267173972,-1.7972824901918318,-0.3486934171221518,-7.610891816540751,5.059695202628057,-9.307193291156118
3998,,-5.801267831505403,-0.9648522405296562,-13.6981217927984,-7.747518329917465,-14.826603394173556,-5.467790789870238,-10.817294132869051,-6.908525859795662,-4.243303896078444,-1.382591358005727,-1.1302988754903938,-5.489994871958938,9.0710387380123,-9.170217930290825
4248,,-5.197500418135739,-3.897971848784021,-9.932697102000224,-4.28394016479194,-14.862005682901785,-3.431012540442687,-10.26534268993026,-4.9088083939269564,-3.994213869202548,-0.789017794456564,-1.0396252107250907,-3.726647555872078,7.638934853685479,-8.96253019391484
4498,,-7.525861512170305,-2.0328223327212958,-10.310351686537384,-5.531286067725518,-7.731861144313369,-3.892376141993039,-9.51899110671282,-7.521649095351802,-5.490711025183673,-7.247737948494638,-0.8078615928992021,-9.169692669097431,3.988708239772989,-10.474497857520342
4748,,-13.481880433486364,-0.4359381647114408,-11.419952325727106,-5.087812123470373,-6.831964863193932,-6.019793819407045,-7.618156616016757,-6.012015280342676,-2.319910941014669,-0.3011224292028772,0.9388100190714622,-9.99253891382948,3.086239879700168,-9.712306503154762
4998,,-9.12431015273659,1.0423680626172245,-10.59444536370144,-4.1776997110997405,-8.971131769686032,-4.337618629095785,-4.595807859335226,-5.663491667625373,-3.0485998874684754,2.248753903187028,-1.621970532934438,-8.40875649653289,4.122220186332964,-7.108628855613322
5247,,-8.436356245544394,-0.3709995832535593,-10.815431357956244,-4.485495925195506,-7.576773943351426,-4.56182452265841,-2.880913616886642,-9.147894092522296,-7.666257791587284,2.3199472565664743,2.123868591531299,-4.536640315349577,3.817719021424572,-6.54826024327003
5497,,-10.400559233325987,-2.4248396274644906,-9.205192401820504,-5.022451542201179,-10.820871447405436,-3.5030452571192523,-6.626731082780879,-14.289544862977856,-10.254976095376517,2.1917659772122544,-0.7051308448167098,-6.196841315226295,5.539290010143834,-11.296338613142186
5747,,-15.575701475373451,0.5540898109273911,-9.934114225723988,-3.081203906110033,-7.444741444692613,-3.0072353469394453,-6.769427043512194,-10.15958986924308,-13.019056265178977,-1.085784639118008,0.0947912449651642,-10.04204802422935,8.447554919982235,-11.603446052201011
5997,,-11.263561893121537,1.959681149204771,-9.79161864769708,-2.323554881064245,-6.662462728097075,-2.17879616253783,-5.355034318554877,-8.375266414636165,-6.162033028937085,2.5001835719416947,0.2915381710904913,-6.283795923324597,4.839331760458926,-4.988419197528776
6247,,-8.135047958035416,-0.2098356418831855,-8.744072842927748,-0.5336259705372915,-7.129224717720143,-6.518966215386008,-10.877845432226472,-8.573959102357966,-6.131855926764716,1.857765501039576,0.0511714506420441,-6.649574441699172,-0.0647568288482956,-3.973471374941895
6497,,-11.744338350348112,1.9396435751777763,-13.046548355699256,-3.1900453871046413,-7.135059004699313,-8.442975503172931,-10.29421128666491,-5.989439110512713,-6.726896890291637,-1.1433800242787615,-0.1154682918436176,-10.872626020283224,1.0576072424411436,-8.502792947261199
6747,,-11.078300379402906,3.077086166245709,-10.991521692538829,-3.438055456614512,-4.114006632801928,-5.702292069619705,-6.9386336758006255,-6.228016420174935,-9.759424659713169,-4.125202172572568,-3.6545825805002528,-8.398173947689191,4.808335838699064,-7.574651371699833
6997,,-6.304736933609667,4.624717970378641,-6.395331560075933,-2.784760741897302,-3.331395607736934,-4.295821016739893,-6.778144826144579,-7.308817353579428,-6.724369567666909,-1.806544723700992,-0.2973277876908456,-5.745996158664212,7.7504716767176145,-6.512718454929255
7246,,-8.085216690059966,0.7433964573323795,-7.486611620512809,-4.321232613145338,-5.452843267835807,-2.3406980020779926,-6.509795035454872,-6.900815466633501,-3.9690688307362834,1.55644897855065,-0.2679939042771671,-4.14537148721268,6.284765212715319,-11.130298983808524
7496,,-11.23117625952842,-5.018928005248993,-12.30651394191356,-4.467314671022642,-7.446824505392934,-5.649900212872382,-7.461630025990001,-8.31008288137156,-5.592576150865919,0.0247346484110958,-3.780370057055983,-7.084975878277088,2.72441354361503,-9.202942354648242
7746,,-8.097384122838063,-2.801356101725325,-13.39580755279946,-4.254002237701945,-8.289334336070798,-9.281677546995422,-8.008697327769989,-9.816527573682553,-8.753980580916426,1.5898831599256278,-0.6012591511938341,-10.918067738985863,4.275343284752495,-9.299564521928998
7996,,-7.8783097037636916,-2.735350299070464,-12.014101362630909,-3.845825329308139,-8.400522514858165,-10.266977274376,-11.104535562045594,-8.628608986805675,-7.87628666755996,0.2432069191247158,5.202442159472222,-11.320823090712114,6.719326183967066,-12.069267824178771
8246,,-9.746957823730076,-2.2311238605532435,-14.770361267026155,-5.7357242334283,-7.667720309847428,-5.973939949317215,-9.30395651626991,-6.321357316078525,-6.648295780888869,-2.308254210202954,2.5153130871337543,-10.389160893608585,7.030143489680468,-11.844276863191237
8496,,-8.948990666342354,-0.8988769062205509,-16.452265078909008,-6.399519020227158,-10.094459632536,-5.4992866476319415,-11.5639124885714,-6.309120427667819,-7.554556923848584,-8.96503082238117,-6.698925296313126,-7.986707620672085,2.2418104886107866,-14.513791518476824
8746,,-6.583193372462869,-2.360845347697503,-12.384734258214742,-3.86053177911507,-9.070789230015697,-5.4784297736705785,-8.527404097010242,-10.22219266423808,-11.924184320818318,-0.0187440193629543,-2.709258668478882,-11.237833110009303,7.404868227178234,-10.299681486844989
8996,,-6.848287624931916,-1.2780480532325311,-10.811025080022016,-6.131785137575033,-6.535013560174482,-9.716227423323083,-10.14016556537053,-10.681627146131516,-12.368981836295134,0.3609469381231789,0.0878241270243527,-15.47012435384943,6.556532031835031,-9.663389986246893
9245,,-9.526202954474456,-3.8785420056989626,-14.738891915396144,-2.193127267081746,-8.959645528429146,-6.961444961094073,-8.359394695133087,-9.293198667631348,-10.485316320563538,-5.9668702766856905,2.135153882957513,-15.307947820842676,7.035187300761256,-10.976902642138494
9495,,-8.645674007608235,-0.3907631248087143,-14.089983552273216,-4.4600611377829695,-8.697701458618905,-6.538509724703796,-7.303481681708945,-5.339742937975328,-6.250269998171661,-0.9989943998273804,0.5674311229249288,-14.996435684900035,6.611623124778154,-6.924313527213415
9745,,-9.42362321611397,0.9069303694230988,-11.322487382682098,-6.011265560847737,-8.205180063790404,-7.163883851534887,-6.410242552291869,-3.5723212077895057,-6.045471616260091,0.8905195512368103,2.4744062530717743,-13.905390784323298,7.539786058467863,-5.075860780288456
9995,,-8.155231934923975,0.6198699787195606,-11.522051015982608,-4.221322539189392,-6.752949592265666,-7.859741486813211,-9.892572674138384,-5.736069344207527,-8.709566265860444,0.7869232919565993,-0.1564741111699827,-10.501598316394851,5.718065438325066,-9.93169289083746
10245,,-4.714959569584295,-3.912016183168849,-10.57042392163766,-4.365745556776682,-11.282022019809624,-4.451354608706612,-8.064450224394804,-6.978857928371607,-7.150361227685909,1.68003951236309,1.216814499548518,-7.574096207658751,7.1094727037944185,-11.671861563184777
10495,,-6.276112703663572,-3.390960770434652,-7.828123548313606,-6.758394592713078,-7.2358132908100306,-7.089032033006967,-5.772175780151342,-6.359629211584603,-4.328578919161251,-0.0297608808529468,0.4378158081757297,-7.051567617355048,10.060405657121,-11.998747086290646
10745,,-8.329255644480842,0.7637275366772273,-9.572497018082164,-3.0070169172255534,-5.863679795168015,-9.549756087234863,-5.71326026103037,-9.661691655025278,-6.300548931648167,-1.9594411477461935,-2.058003755361387,-5.897912270734713,6.957367001323673,-9.260198353020888
10995,,-10.546202862859817,0.4060144135187085,-11.765355676952376,-3.3848845134935592,-6.813975576706506,-7.726052114585597,-7.35162901193619,-9.239417755074388,-6.964595856062493,-1.9036483564326527,-5.580410093615603,-8.842155061908034,3.718777410172539,-10.55069571898735
11244,,-14.69929814769425,-4.884956329515424,-13.637948366416657,-3.590596099654995,-7.938929472243176,-7.550622559834609,-8.140395460397668,-10.417270587384127,-5.434509527416869,-2.4984880388482926,-6.1702182661707,-7.992371501543111,7.140413580549419,-8.367530320005471
11494,,-9.247423974635472,-4.996746809258439,-10.115990159443486,-5.821064248882784,-8.853877176916326,-6.4443056409482455,-7.581570127851859,-9.391950888940766,-3.6595177005861945,2.162442710643931,-4.234454606971175,-6.167507551570671,9.573900769848638,-8.618546811209335
11744,,-8.086542390631747,-6.784892279571136,-13.027475885109364,-9.711663909840144,-9.701358741861052,-4.600432048875282,-7.979934845214029,-8.148217164943683,-6.955141649490393,1.9011347748685927,-2.990431202475168,-7.571189158933266,5.4785855577855305,-11.024951003619211
11994,,-8.543420481093056,-4.567811207259877,-9.927636954279109,-6.443801982828119,-8.127604513244888,-5.266215884120227,-9.410095632957203,-8.085016065667403,-10.710558695913846,1.1737866096943308,2.2067534381061367,-8.944095903195349,2.2106350178215424,-14.843618077296544
12244,,-7.636717121975451,-5.844781344862481,-7.135131160976849,-4.692688694191852,-5.678238637713027,-8.279703304632424,-10.189821730696307,-11.302972300724877,-9.142144838984285,2.598644968939428,2.4395787236678244,-8.899119052059502,-1.3553142183299975,-15.393497579951934
12494,,-8.395277099086428,-4.900931022690305,-9.662874815230182,-5.771711117912752,-12.003417087927826,-7.49416826314759,-4.839323630961758,-11.107154830057224,-9.868039628764912,0.5185711491385687,3.2430412448402106,-9.109758759442482,-3.3802171491581112,-4.425402079413096
12744,,-6.613707324536209,-0.8238056974808068,-7.7875306072109,-5.236358570719225,-11.636168666781224,-5.7843631026431375,-3.763198232816309,-4.150984732190489,-6.512369973016928,2.4009527681113663,0.4845413635786649,-8.866343923465262,-0.3572990207379283,3.0453439691221744
12994,,-7.7437874504965745,1.2693561645059557,-10.600982183559562,-1.802094956876005,-5.614142595181248,-8.372494679130986,-6.29085741732677,-3.061648647067442,-4.776736995079872,1.1401762778353206,-3.504781423516221,-7.599761718491099,3.6333820332038407,-0.7890461016518923
13243,,-6.210183193864964,2.996986399882928,-12.95194988010144,-2.6022339176220144,-7.776232195842116,-5.32293957360743,-6.739474134238726,-4.316842878112376,-6.169453668293999,2.363535425499077,-2.6717385653461863,-4.876198014270613,8.141295566122487,-10.596587959979336
13493,,-4.826844372479546,-1.0337608254671349,-14.3456850795292,-4.046945641066984,-9.680004988357044,-3.510140952641815,-3.9378667417208457,-6.169730615933186,-6.740308932766151,3.781850776512638,-1.96834916176146,-6.883757946714843,7.476597425242648,-11.457660044740503
13743,,-4.7930634432162105,-5.613746591944631,-13.004037713964916,-6.724095488836421,-8.261116218597435,-1.8587033289465047,-1.6895028127406688,-10.046065422113672,-9.246407722161326,2.8527141796139177,0.130093246284404,-13.91206094195362,4.976397740967643,-9.175954951628167
13993,,-7.451256176356056,-2.1878454110135817,-14.652173161610593,-9.079580638650572,-6.962937868153168,-3.813825090797786,-4.819459304303408,-7.471246497081511,-9.984803270773613,1.6260466844188446,1.4635481379913866,-10.667547030486343,3.678809653186916,-11.219872862163902
14243,,-8.627372236159722,-1.745464548752508,-11.04072350992066,-7.265838922059951,-7.110035272868521,-5.227209695338567,-8.776597667739237,-7.3237547925433795,-9.650540627833363,0.9325218800104916,1.1768012392097655,-9.221667758244523,1.6334014655302966,-16.034653785031928
14493,,-6.799781265390038,-3.848894112726003,-9.68156341545796,-8.934445534667313,-7.261984173370124,-6.109852419429512,-9.874373653035724,-10.252206111284949,-10.7114088103744,-4.242848496850874,-3.7005608397521073,-6.487108259195693,1.0084482080764292,-11.436411657583829
14743,,-9.657019084977891,-2.1214344927340774,-8.644754102969017,-4.917572879054911,-5.115949594437929,-6.984578141440974,-10.545321390286151,-11.098078855695425,-9.966637060545136,-0.1787963481768568,2.689908521673592,-6.133452263860903,3.059628259627903,-6.64036357814102
14993,,-8.213790349039776,-0.9401277821262624,-8.39953240516011,-1.7993006525703172,-5.186387251920386,-6.382196891935431,-9.524152376876875,-10.206218557681057,-10.461364617783488,-1.3241467225789103,3.066744029034372,-6.75811022244851,6.1696630302429245,-3.2453371040276884
15242,,-8.336769410880024,-4.284851568385081,-12.304377775968842,-4.469732735612572,-4.756343022231415,-4.496354254916555,-5.749544020522137,-11.771158674460391,-10.209382233369857,-0.2159873791858004,-2.199837245617084,-6.686371018248427,10.27784540784488,-7.963348450076273
15492,,-10.485673346608188,-0.9844818014095932,-6.461868658436921,-5.471170549007854,-5.112874482195984,-6.660858619961607,-5.251211087405714,-9.10126672631148,-7.422644413463367,0.0098651075744542,-0.9094763189790794,-4.675743853178697,10.925947844864783,-7.244938940575645
15742,,-7.468460774418509,-0.2865365975671315,-5.123142913182881,-7.860435587546926,-5.991781090391493,-5.008651274618355,-7.119595904420759,-6.189564501577735,-4.720424344987074,-0.1882607807200405,0.3231941123510753,-5.91972393110408,10.050375529633095,-7.544227688107673
15992,,-10.193031148351343,-1.8875133365272,-7.933639927800529,-6.00310638740443,-5.835722016441196,-4.935637903233295,-9.60697650574938,-6.4329310134171855,-5.808793136131067,1.443814900813722,0.5706432428502775,-8.999360542734818,9.22325958555048,-9.150994687222944
16242,,-9.620229091106106,-1.4334259944149144,-10.674994854848736,-4.850826245365846,-2.703310727581207,-8.83988868873701,-6.89745031711245,-11.554424688017482,-9.288153437060767,1.8418315044744136,4.443815339253682,-12.092593545528024,8.418759408485945,-11.730685689089327
16492,,-12.200334598019833,3.2087058541130897,-13.15853147465804,-4.545599290222856,-2.730082983247932,-4.795465628498566,-5.59537758920662,-8.178212139826531,-8.049381543825172,0.5356227668273632,3.428719382883896,-9.46713930275456,10.05915864080453,-15.406540092406036
16742,,-10.611502835496932,2.908939674966255,-7.550513515830057,-3.5793489378361976,-6.220164913506788,-3.9840931363717855,-5.689974160963198,-4.920763507505008,-7.285898722562658,0.1911027203514179,-0.7935158582912255,-4.414002364519822,9.2207089580242,-10.62630060500208
16992,,-6.704340991412642,2.009606299639255,-7.718269624916766,-0.3090171243456875,-3.9348632859790458,-5.215312963322361,-5.221611576766557,-5.709795491756671,-5.92438708113732,1.3727262274107894,2.3240310767581422,-5.232943681928396,7.956182271895936,-7.551705449601501
17241,,-7.846417412340337,0.4532148792494935,-11.471545845687992,-2.10687613192092,-5.542604056994534,-5.978990979258531,-5.7472071412977765,-6.69035289236243,-6.188853938869463,6.083098362530281,-0.0215521577549678,-6.87297863122142,10.300027071243305,-7.12556593500794
17491,,-7.514344154822608,3.5352166839071515,-5.988968055422132,-4.40222964675904,-5.712748525821696,-4.627870032668587,-6.348371619803494,-6.414277880952301,-6.682302468764046,4.940454011054756,-1.4845368428582644,-8.29572451393691,10.039281494829307,-7.30094623247045
17741,,-8.201870815861936,4.4294720830060745,-4.845236859448095,-5.184411434066102,-5.532233536122053,-4.735188708175613,-8.426228897412177,-8.146974468981243,-6.5623348945260815,2.195941356290944,-3.0986710696472493,-5.471673407542789,9.284745852062876,-7.352279405074302
17991,,-13.377186513859144,1.9413388283371449,-9.996577499860193,-7.409596460936435,-11.15610433282409,-7.581514402275471,-12.194075203088172,-15.342698717455026,-6.661882157724044,0.9945588508275636,-0.7533137482046336,-7.275434694800293,3.6201146784572207,-5.540269138192496
18241,,-10.604137689786988,2.140289595595726,-9.802135787914947,-3.5311043326488627,-8.06185008717413,-5.95300361358539,-8.434747127617197,-13.740093344789596,-6.282256535342462,0.7616359243058168,-0.4724120687813399,-8.608698867078164,2.391370963429761,-6.739167617754728
18491,,-6.267483843554144,2.301695536278252,-8.134558040256683,-1.0610260686630362,-5.362402866860977,-3.639018382814787,-4.751768047888337,-8.075153195620423,-7.22801583953665,-2.5158900940463784,2.459426491763778,-5.918101376833097,8.27282435807091,-7.549386071009415
18741,,-5.964591751060059,1.7531806510136856,-10.3932145734351,-5.96951184808873,-8.073393780243004,-7.387212477676439,-7.254646230789323,-6.845083395320688,-5.27682310157523,0.3349372112858104,2.176848631741416,-5.000242647203815,10.838726839816582,-9.28871688340844
18991,,-9.049245397777772,2.818259772889504,-12.096888032106932,-5.830869235988862,-8.724332162939229,-6.571679051528254,-6.918942783403962,-8.011117929926598,-7.423959385623556,0.077233390306141,2.260335190605657,-7.268441520668908,9.418771823751204,-9.304492950216131
19240,,-3.9631401897196423,2.008761574482732,-12.82771512017709,-3.1153091065575844,-5.188765035621988,-2.2057394798672583,-4.659628256744926,-11.958383463765346,-8.45328599280101,-1.939017758657677,2.7134942637139696,-7.973590188341503,9.289346011134803,-9.309776777937982
19490,,-5.266755416705252,5.195375473947462,-8.781113596016768,-3.8105428885993264,-3.792218928806172,-2.9297394362423583,-6.818387622139943,-10.18253663034092,-7.56157582571433,-0.4106844829355294,-1.360357118773034,-8.319850135402893,6.660858447077284,-12.276655741597866
19740,,-7.595962760301576,4.041987485242861,-6.816171703542295,-1.2133189308988106,-3.057219778698292,-2.9590783863669943,-6.343480986339946,-10.036043570831769,-5.861872660570588,-1.791504802001484,-0.6280272445232915,-7.305041603696036,7.739397971791092,-7.059396877930376
19990,,-6.074004496174222,3.065825438415275,-6.00694914742216,-1.3265795372719358,-0.2155837242580898,-5.105857732952716,-3.591678972287512,-10.35522515423154,-7.70492350268947,-3.25992620274496,-1.950600602955848,-11.138109533617405,5.675696939219717,-4.727544743925499
20240,,-4.0398280787375045,3.488467272177211,-8.305301625767896,-3.048815844943973,-2.070746618738758,-6.07305492929203,-5.548229428668828,-10.682958033646823,-7.356027643245067,-3.4936071970965066,-1.955233306817329,-7.632644640771797,6.607316008255975,6.673739846905646
20490,,-5.858837344944918,1.2726845033486676,-10.481461707549524,-5.809624775005994,-1.7755891981580345,-5.0276783658689865,-6.495763770381302,-6.95055252526261,-3.927445519946852,0.1252026000474079,0.1057112402651135,-7.402892366995336,8.769640968277375,10.258815139033697
20740,,-6.676979509334685,2.31296422603505,-8.394097121082556,-5.80973555764401,-2.027545784470282,-6.025998352190665,-6.020729538096273,-4.33414226728528,3.5212305050815096,0.8668277990626703,0.5943551966147163,-5.928760081856331,10.70599595447052,2.6592565051273054
20990,,-7.039699639187761,4.521398678922846,-7.94004387954005,-4.074765317645064,-5.525386023062069,-6.973934659859521,-6.093679619416203,-8.759124048446917,0.2083516185760456,-0.0214808258964132,-1.3682916352747954,-4.600351850871936,12.205521597415958,-8.651412285729025
21239,,-10.856839968750176,-0.0060914085584455,-8.943399951720508,-7.550397024942994,-6.854710614017064,-6.585058380946655,-8.475982638055786,-12.787137523415364,-5.006378255194135,2.006366808854572,-2.3282578601595825,-4.452037226605654,8.699900395155314,-9.023721767255186
21489,,-6.738185849120615,-1.8376205915275003,-8.809178701198414,-4.646022178378034,-5.653760411189301,-5.541018597962357,-9.9319972315646,-10.067238583879854,-5.956519741538723,0.5109941317304371,-2.9902007755156585,-6.476968129010297,7.062492241020266,-10.495535649093767
21739,,-5.51637570544057,0.4785648950882842,-10.587650434481938,-2.58230337952371,-4.70219375183599,-9.269808041122891,-10.754034093602268,-7.947973209953885,-7.266674608359526,-1.8131808821129,-0.8345625299659222,-6.4396728703597175,10.858570079928276,-10.403612926596963
21989,,-6.081888215214053,-2.1882312132467163,-12.553847643781612,-2.901017605760177,-5.722486858424855,-10.061321547116297,-7.512066768867173,-7.36592515699945,-8.222523662703978,1.0560035577550282,0.3430181572956313,-9.687116889619032,11.151259060520228,-11.998271902341507
22239,,-9.752574034028225,-3.3344341704875413,-9.651225818939176,-2.9539765288019786,-5.529790713459757,-11.111199340336126,-7.321716667257466,-11.509087406180443,-9.136991504835787,2.6553980904043684,1.9218124674869572,-8.91927091152911,10.116437886125064,-10.053142582814893
22489,,-12.984956653842003,-2.368564514168144,-11.20581512330342,-7.427282678101374,-4.816939737064239,-6.161887041545073,-8.500211814569562,-12.134017798741692,-11.885072710783206,-1.285514040899962,3.878207409038852,-8.04228056498053,7.587725781852496,-7.965912519414985
22739,,-11.274577001425726,-1.7789169954835071,-9.977063952410074,-8.773840183778086,-7.349100597932487,-3.579245714330328,-6.647388183945726,-14.535651952047912,-8.600137782041749,0.7512472264950745,0.3755726868047467,-9.18868584778713,6.002342860020341,-9.142054444046284
22989,,-7.082715601061025,0.3674328683785849,-7.492314252280455,-8.726966953439,-6.389730935102545,-5.253587214959918,-4.736095177705764,-10.116521742138168,-9.71252062171343,2.9126228272077634,1.293704626643217,-6.739062275078847,8.38519772612205,-7.418399405908254
23238,,-9.114739928930026,0.952692386469735,-9.656068367184872,-6.233332519274896,-7.409578521418421,-8.829404035965535,-6.5722904246805625,-9.302453229719756,-11.463778794755155,3.64866962210937,-0.56087830577987,-10.626110885218774,5.600530560291502,-8.370687888878141
23488,,-9.58063896994133,-1.4582972893839825,-7.516078107784669,-4.929755849991157,-6.714849237017287,-8.180419151153428,-6.544907119889283,-7.865819189700245,-7.003708608533138,4.286707008652178,-1.4233261210383998,-8.386940236305843,5.373765818483836,-5.627326255209978
23738,,-11.857033192475749,-1.5014994261655978,-5.998592901749148,-11.159705835557208,-7.369224799137285,-8.432689525384674,-7.685772104456086,-10.278297158473665,-4.810071296040736,0.9251391652292604,0.6505910535541336,-9.017814500943166,9.463947238376472,-6.166310757855897
23988,,-11.602121749024075,-0.3473356949607491,-11.29660959329229,-7.002102998619502,-9.472364505918604,-8.399885363281804,-8.418741825830608,-12.199570863468326,-5.308709403043828,-2.230315597363133,1.0301542529925147,-9.475157543976016,8.142814101151128,-10.308970390831282
24238,,-12.235546904541616,-1.2294918502943155,-15.928033920129405,-7.044880121155028,-10.722983612696124,-8.319844032678242,-10.405276539915416,-9.216649149583509,-9.419776517261532,-0.0564747402590244,0.4016074846812359,-9.53410116053086,6.622241591341896,-10.833559314211229
24488,,-7.877630111731129,-1.9362206218076927,-11.42177751462124,-9.086845562470725,-5.829683103890126,-8.19186202937155,-12.469787494441192,-8.193678143636467,-8.396728358386882,6.735630259109112,-0.2685229895547261,-8.14702443753326,3.966895730906183,-12.369841773920406
24738,,-5.580645403518162,-1.5789315573610652,-10.936712154627848,-5.334160051614251,-2.4745040755434755,-10.030702522828726,-10.682558235814192,-13.04901977026436,-7.095045439289346,5.59801042609719,-0.3164677808275536,-8.645455260707687,-2.937555908795285,-8.79902089775472
24988,,-4.634925821257419,0.4121812061498858,-12.89789759980902,-5.426900507001663,-2.7037566747555,-8.926175732250178,-7.88397340656395,-12.313782565894208,-8.820918198076889,3.3299965942855083,2.7966493678368085,-15.825008973786108,1.3382035752165635,-5.376703641643975
25237,,-9.35460018961562,-2.4358574335128798,-14.481936267891502,-5.257745661233139,-4.966247057603798,-6.881340507423756,-8.878672764041,-9.545195157127676,-11.18779966319604,0.6816441581908604,1.470777322029329,-12.149484718796444,5.324394329122415,-8.993463870379506
25487,,-12.342534808941137,-3.629967872322766,-17.748161811419354,-7.336344796939284,-8.849570092997114,-3.6910052023425655,-7.399289337397478,-11.775471210934814,-11.100057116073398,-6.060227890469823,-2.9200156790114984,-4.981344763152909,5.137110470975388,-10.489824938646228
25737,,-9.164138770345131,0.7663236641950305,-16.216193621556428,-9.919265626003442,-6.71111403082832,-4.543663598346701,-7.28256644246124,-9.224833296202725,-10.338993853013172,0.2799950946981551,-1.1874300709977912,-5.250075309020796,3.976345502428285,-8.111449002704662
25987,,-5.039359926197343,-0.6006432125266716,-11.41721056978308,-8.683120857449046,-8.582454883918002,-2.4285126294042017,-8.680214400090552,-7.291091354469234,-8.980438521832793,3.8611666827283897,-0.6804950630704204,-7.47907177993703,5.588729476994272,-9.183000666359902
26237,,-9.361196847282365,-0.570309243505152,-8.149603191694855,-5.776964883554186,-12.415953999192585,-4.459224645281895,-11.09384510164372,-9.412290432846028,-8.805758017797176,1.6835956138503263,-2.461496741856732,-8.784276185470393,8.229366160881742,-9.603915403869406
26487,,-9.29023600907996,-3.016990342523584,-6.322705509235523,-2.551820642061784,-6.58483267682326,-11.704675897859468,-9.297077349024011,-5.764594785306667,-5.73958774187262,1.341794616045958,-3.638495507721524,-9.66438350626684,11.028766205010449,-9.327047573633129
26737,,-8.4406012269147,-4.357930851851195,-7.6142802005098975,-4.949201792614437,-7.713880866616444,-7.935478769532721,-13.104681817254969,-6.888138378428015,-7.919673959429023,4.095705121557468,-4.4309249969601625,-12.059744641156364,7.92849851385945,-7.464634694706832
26987,,-10.3625097094592,-4.755798735343431,-8.946296895446835,-7.709636093898061,-9.392816129097184,0.0271576922910191,-11.13447701104375,-7.961680367527794,-7.016691116828269,2.980054278481829,0.2035029006863478,-10.203375716371148,6.939869666537008,-4.741234698052662
27237,,-10.178543079331297,-3.313591578505688,-11.558233137420835,-5.969566829738298,-6.771446462973425,-1.2429826715988066,-8.635429849589118,-5.759117056564921,-4.1913521707677255,1.1276132889009416,-2.627226743990429,-9.05326861369342,5.475263220886398,-7.218750144060336
27486,,-7.785596674700558,1.2252034324500978,-10.943068562510422,-3.1166967005061674,-5.15404007506975,-2.478915862906252,-5.885643647401519,-5.356337976175047,-7.751735197625939,1.6802759907978302,-3.399470691029305,-8.754143040284623,5.154489510409724,-9.688958997422734
27736,,-6.595412600627952,0.1518939265050208,-10.54259840733739,-0.2051804875184814,-7.029770174202539,-7.64097480530988,-8.423737325531055,-6.499394457764218,-5.331676602111192,-4.587703250845384,-3.4731040301094245,-12.328163361473887,10.18894559327785,-10.28021890941904
27986,,-6.836638700189706,0.0199260610038578,-9.84405117807428,-2.8846671710926737,-6.529438007942726,-8.026579714910312,-5.932139980837478,-5.532018084309891,-3.6546428587635456,1.8194350377641493,-4.616286084211402,-7.570110271733102,9.347400706299483,-6.622272934370693
28236,,-7.165570437979198,2.725907123610326,-8.539529147381302,-3.218875531667267,-4.092353736250243,-2.2966935712574883,-2.973487757597579,-3.0069038724808923,-6.456231835990427,4.305897005925814,-5.84810715092269,-2.257814026126686,7.990816863926708,-5.379029347064566
28486,,-8.789644134861746,3.8050616542680302,-6.752186379157719,-2.500211244930452,-4.88858566276974,-1.4652690330574905,-4.666673296289902,-3.833821675531641,-5.528630994780993,0.0291903668949806,-5.067813344909232,-3.800524082921687,10.28481059039019,-8.130943578259323
28736,,-10.061944582848248,3.961891112078448,-5.4051264846029206,-3.1495307018514778,-5.690463071992115,-2.491943468096778,-3.755245845535209,-3.6396412498737742,-2.237804261011783,1.3739264784125282,-6.620005135513519,-2.9482247770840466,13.816415174167522,-9.59156964648646
28986,,-8.492380841116766,7.746966003055283,-5.142700489158678,-7.746105974976835,-6.8911968598035465,-4.7984966641987965,3.5231744017576183,-5.199514006144548,-3.190556973294046,3.143615622058198,-3.142233947810273,-2.603544863515994,11.276323476120073,-8.2888890325762
29236,,-10.843414524616286,4.915223859951282,-6.310065539224286,-3.889720012187163,-5.609204497863899,-3.808199903507731,5.703689308558121,-5.796787163967483,-4.620369458448796,3.4385430584348446,-4.784057842106705,-8.628380462051052,8.767653898552348,-8.865148865764136
29485,,-8.863240602700174,0.9620484323358952,-7.988319150856704,-3.5430106459333963,-5.416798933358581,-5.510208349370003,-2.664644496834288,-5.244082504346356,-5.8403462859998365,1.580622688694997,-1.9032234530849368,-9.606791860029952,10.128683489676696,-5.358605700913142
29735,,-8.61254258680329,1.7643191080824916,-6.316317066267039,-4.131276784543827,-6.847473294545577,-5.797233208581316,-9.200488885393726,-3.529611239353484,-6.956382595120241,3.1927437757791743,3.1756013611113,-9.002637324660176,9.274411705442445,-7.023864175308806
29985,,-11.51984354611198,3.135794101150984,-6.755824105559958,-1.1560367786985504,-10.200786714149466,-6.596818947000536,-7.476314713417784,-4.153341404004576,-5.203422980136231,2.7976955758623623,3.321123042124733,-13.923776783949933,6.732650634601024,-6.841635727298259
30235,,-6.847417869696244,2.1168602318149543,-7.737412206252895,0.2473931681962043,-11.452580048002028,-7.553174801824751,-8.392737049086882,-5.066952254457304,-4.663941813774969,-1.9357428053336432,0.5550186064575373,-12.753939541031388,4.747768596022921,-8.566993302547049
30485,,-6.779070119105739,-0.0113024543006444,-11.68310004757214,0.1387006299368472,-6.101970014055532,-4.0030309534012245,-10.851547601342356,-3.774066070660455,-7.261972863507298,2.221631693869844,-0.4312168011072237,-10.58809324578626,6.613306968535642,-12.232449427014895
30735,,-6.006907117947849,-0.1237400317623027,-12.569221719076037,-3.4424418318997017,-5.84397087728534,-3.348801987962464,-5.158601300939374,-4.94111248383281,-8.56079382197633,1.2253447759526068,-0.1307509594957091,-10.133901184000653,8.102404218560885,-14.864935963927168
30985,,-3.490532038876268,-2.3959232051816466,-9.051580933923791,-6.14068708234681,-7.06891851342398,-1.6567428558445756,-1.3823803155932035,-5.126071000603627,-5.299909531196196,-0.2848244928067244,-2.5416799155789027,-7.330769953449079,8.960928808007019,-7.508396367061549
31235,,-4.293238621314842,-1.629532959694429,-4.819264178534518,-6.157360203808999,-7.290024322480432,-3.357962194161641,-3.534902061547688,-4.349116417211159,-3.1913448921699263,-2.302869539579884,-1.8440505856631768,-6.38015042036306,9.18028989868388,-5.1073681203731445
31484,,-4.108203429669582,-0.7032556202052986,-6.392978184529715,-5.382421779820982,-7.145860693525735,-3.0264224735556158,-4.942877015105555,-0.1086787553959738,-1.165632279827738,5.666091154993669,-3.224252176520053,-2.605174704533715,9.288529462147649,-3.8366397129779206
31734,,-8.721944470971454,1.1746451731921836,-7.436745616443333,-2.6773706320549997,-8.282239463372598,-4.630389850435137,-4.967325864463451,-0.1355260248278832,-1.6220149030838074,5.49590821474955,-1.266851852938907,-1.2400360275921192,7.45675849798475,-4.149479614768834
31984,,-6.139744030155978,3.415276335667785,-10.01562853444748,-1.7509641049261104,-5.751870439971559,-4.193470410531258,-2.753072769212864,-4.859869652505868,-2.454250215571988,-2.503486234403388,3.3430509522841496,-5.228727793315401,8.813590063325183,-10.707022272685876
32234,,-3.932942929734924,1.1832329227369245,-11.806262227724693,-5.99294268640815,-3.932135298767766,-6.404727576509983,-5.258946083703492,-5.865251547382905,-4.776202510608009,-0.2819351421628293,4.460537477857782,-6.398314401250459,7.77303257345014,-14.282958168707442
32484,,-3.710765466105248,0.6215262908523047,-9.744649218896145,-3.2632412095778007,-2.810315998788829,-6.5550108374556935,-7.1158749115884,-8.240789117959439,-3.6070915740952,3.0657509174508557,3.997031656875916,-6.268927094533494,6.0967476261428,-14.585207787779153
32734,,-4.555671365117846,0.4467885939306731,-9.400355730798362,-2.8104001925089914,-2.136335094758648,-4.195929043268112,-4.460278889746354,-7.292579805008213,-3.6812622315341033,6.660129994646509,6.21288513168185,-10.383548685483523,7.048955395853422,-8.449529384139183
32984,,-5.313917041149142,1.0849959515232903,-6.254522243494454,-1.0045322823905227,-3.9009794093224337,-2.1326787604396054,-1.6093593215999291,-7.155532242900346,-2.526044074711633,3.742077579310653,3.842610030382978,-6.499829737630551,11.808388746455162,-6.801128962033102
33234,,-3.188406863271162,1.8661592591447276,-6.7461641434694775,2.1787456477195803,-1.54097390545435,-2.0290858508810503,-2.1230286939055327,-9.05162643673431,-3.0164793005122865,3.134754655947323,2.7267243906356544,-4.98727315376557,13.878020990906696,-5.62086970857356
33483,,-3.351639281510481,4.126661977881158,-9.575529897561577,0.4343521272925444,-2.291680759005512,-3.5692835513233856,-6.417572477711135,-6.39217608177507,-2.89564391326723,0.8833535603919023,4.165682621083295,-6.8600748289329125,8.647098245349307,-8.182185027583294
33733,,-3.445314188937353,3.824306363782281,-9.192428703069176,-1.8515267320497484,-4.587615613291155,-7.363029869193596,-8.411983817957918,-4.0741120086637554,-3.6400516131523153,-0.0862761690874734,4.633850002328432,-4.12343454978357,8.490675022271015,-9.119322294574388
33983,,-2.397203346923629,1.3868474013981658,-8.757873347456448,-5.770156271992892,-6.250760609303364,-6.687150915488801,-8.038588691850846,-7.729106294762232,-6.88550246466769,0.3681059216743605,3.017606106886845,-4.387332189548979,10.199743005809378,-7.605234946095666
34233,,-6.369275412140172,0.4793716852280884,-14.623850033033465,-9.243049866222728,-5.727561494554067,-5.943114203320231,-7.291816978803509,-7.964511718441845,-11.622450252610292,0.1909508206667694,-0.8450435981847215,-7.957170003497072,7.97962102152698,-11.555568157380613
34483,,-5.420143918779178,-0.4236915052589345,-10.165434456253555,-9.114065015700024,-6.848631601104391,-6.825731050145318,-8.344477391192846,-8.974415279421281,-8.911905038105473,3.4356894179678568,-2.977894302771127,-11.036591990394427,7.908647761678372,-8.698059144281453
34733,,-7.335355313126808,-2.657713085290539,-8.285367391453459,-9.085659633654332,-3.4918897648040623,-2.1002167520222352,-6.9034004087617165,-13.194241500462947,-7.306053773682562,0.7952984201872532,-2.191534400286377,-8.990429842229549,11.0063627863813,-9.19414127317057
34983,,-9.009271299773548,-1.1338426496660292,-9.816964188022885,-4.617508210745635,-3.801222720142494,-3.947006663644901,-7.496937055848504,-11.348381356914237,-6.979382884715552,1.449466728312203,-1.351264901794445,-8.986915405271713,7.754859435073964,-8.879410846834618
35233,,-6.176481644571371,-0.9590071117017148,-13.288931795575516,-0.6231403053652579,-4.918537422788477,-4.620683028291614,-6.019288104898965,-6.902548257226537,-6.263677838158863,1.2946476457631904,2.903067043358871,-5.549270966420736,5.529184415919777,-6.294108251517001
35482,,-5.239954584336567,0.5444511184263521,-9.756567912772637,1.8973240975560175,-3.4554500620289827,-2.0386916188471145,-3.801479983530124,-5.813575352770859,-2.8065164218063723,-1.537188288718911,3.8605310903851455,-6.463609365150733,10.259086933065474,-5.691867668079623
35732,,-8.352963878190105,2.4545803542168274,-11.58015594142795,-1.0000235457208664,-3.5381881550754644,-1.517231262229093,-3.084372471753916,-8.306237898080894,-5.016034802021133,2.663669927714966,-0.4827434052683417,-7.860861028469154,10.806965731131031,-4.020229242660503
35982,,-12.094070193509165,2.556058082574576,-10.342078240406378,-3.868245201656216,-5.719638934731092,-4.544999950218569,-4.503145871721421,-10.06109711767181,-8.695056653971958,4.727391718280241,-0.7508460288997332,-7.826511616216054,8.347525977389074,-6.119524367894363
36232,,-7.370588069965854,2.9761704807389355,-9.064660237499918,-3.365740980528023,-4.006200052822794,-2.030795674239982,-3.197781521349543,-6.492760691948866,-7.4633699592740355,2.4098066375622063,3.105868329550071,-5.379477956881224,8.470848903404216,-8.029497734193322
36482,,-1.8793103102791715,5.705680182548731,-8.602415625375956,-3.073416690183985,-0.1518261204876091,-0.3853810026662402,-0.9654029246999972,-2.846759413115773,-6.086939611755283,-0.0559321476248425,3.633386274669823,-1.0914926546549044,9.8607990211714,-9.284758128227631
36732,,-4.463596603514076,5.384375135185193,-9.182142048051816,-2.5739754739323755,-3.599833216263871,-5.630941555218358,-5.628052683990764,-5.634471041769894,-4.686410766725548,4.5139968835668975,2.7325500670975917,-5.622528715790996,6.692723197173708,-11.737869919092772
36982,,-8.424601247516271,5.3442585280360975,-7.357924568286766,-4.440746754261807,-4.4636109664092425,-6.7817782907548025,-7.639225278980685,-8.59822846934659,-5.003022658086448,3.5069680997267256,-0.3202594862118269,-10.219841675170048,6.004802949337301,-10.719048947499484
37232,,-6.191112566385257,3.7966851302178872,-4.916189600861162,-3.245059624880411,-4.198018002431922,-5.606554240851635,-5.3695316876809605,-7.39282897528617,-2.141958945962371,-1.0926306123259106,-2.362792502077461,-8.520643275571743,11.245444945864431,-8.425971954769448
37481,,-5.709788110686983,4.386491206784063,-6.420699174304778,-1.0382595850428116,-3.707857134930327,-3.3561616721913072,-2.089474141487349,-10.189721804034072,-5.934884515131898,-1.810544476844588,-3.5065711412391143,-9.54444092348976,12.400009061010524,-8.954228038553477
37731,,-7.96938273282904,3.591916367653813,-6.679010485329258,-1.9180959799221464,-2.977400375508314,-4.214081137918765,-3.457460326644103,-4.6835696876074016,-6.504428986529401,-1.4325597226567872,1.7937723072851353,-9.591381301725525,9.019222273074766,-11.084692357455562
37981,,-1.5875283033096996,5.005941513030521,-2.798746943211234,0.883071870979265,-3.7805694600714137,-0.6767427941844493,-0.7956898709502533,-2.863416649867101,-5.5260076570633,2.0496871411131465,5.867843954728903,-2.331615158380767,8.975494767993426,-6.398006562833288
38231,,1.392214700731216,7.301796274960894,-3.928837256976731,-1.4955428251406375,-2.6697334927157126,-4.929088614118458,-4.44343265801504,-6.454964601764787,-6.217724606691465,0.7574824758829444,6.480695735634181,-1.6765018144308108,11.549580805252337,-4.89985312481895
38481,,-2.4880643553036217,5.178216212192837,-8.981098499014424,-3.435616617924272,-3.546405893685919,-7.615042906079683,-10.8272105014204,-10.960306357692646,-8.08318682180613,-0.0293572895075805,2.925651735425701,-7.405547499627705,12.534650134875712,-7.940551100858228
38731,,-8.111775112354884,2.8121243939838534,-8.721389093280417,-4.824051918367602,-7.295956341671816,-4.220046159107818,-10.404518985287556,-11.351609873611093,-11.986905240868236,0.7360800189974275,-3.4455240011224992,-9.600496344682403,5.350394221617027,-7.130590964887641
38981,,-11.496563705999758,6.272902382765578,-7.151528430810884,-3.378461339593033,-6.459341948675494,-5.938103055824582,-6.805177628079797,-6.250194241425846,-10.014252327748864,1.6018844462079975,1.9272673221914105,-6.677518102666365,9.13949274480974,-8.994820115567922
39231,,-6.743990951405174,6.340880323722541,-7.6891879728998305,3.1912209115130263,-5.061822256911981,-2.8411297383046192,-1.860263488062872,-3.7380457118768593,-6.487550520343692,1.4528016364318372,3.080853157537136,-4.666959022748545,12.65082474933106,-9.702159456397707
39480,,-2.959844627696398,7.459027037234773,-5.762270026498242,4.897446741178034,-3.1847789122368377,-1.1721774786278218,-1.6674111328909471,-5.017262869512327,-5.573582856757573,0.2110753378981546,4.611043157839916,-4.295448223267847,12.205620146771484,-7.198083075622356
39730,,-4.971443034438478,8.108943082639353,-5.1905498412643,5.052750152656634,-2.703279569475189,-2.5174927759274253,-6.412048667318494,-8.854134150817245,-4.794190638008143,4.014861769869594,2.801399068104526,-5.358055033293622,9.237435150112116,-6.841926848850006
39980,,-7.149235636145882,5.195773200708485,-8.373841040019377,-0.3790847608372654,-1.8058261904439936,-1.6731971770412988,-7.062939330948053,-9.899034447555623,-4.044798410932787,0.127152544837595,-0.6104950656321937,-6.317467512219511,7.185044702752174,-7.248593691222855
40230,,-4.386205460886316,4.547130447492537,-7.108594120204903,0.4588200481548937,-1.5866971304431945,-1.879426204688928,-7.400613988102483,-8.656644736965692,-8.391837085645292,3.743820514098776,0.3189444221365212,-4.970066488599654,7.736664010158045,-7.260378168718784
40480,,-2.3999439629174173,9.65995897735824,-5.430252197974056,3.177590037930168,-1.5325853003027043,1.27456718467713,1.1431973722275557,-7.572829501061333,-8.434679759436671,4.858149817818119,7.049067984519627,-4.325446211755535,8.790587367993245,-6.926238516204709
40730,,0.1380185280076785,13.130573486048744,-3.3711968765386557,4.3005983249039,-1.4812418692167135,4.382700853311327,3.3019890674864305,-6.451329688969815,-9.402082962355587,-0.4826380172479239,6.592812352967608,-4.978869742640506,11.243082592799512,-5.170461588924939
40980,,0.5639990198493074,10.77910802048562,-3.1475625177648228,1.2128347515833722,0.8895629689876583,2.4888759013023387,-1.4246366189797173,-7.279402727759516,-6.723527011871536,0.125195069155513,5.70784890113352,-9.562755344465328,13.827968778433458,-5.570390685069857
41230,,-2.8758646359016584,9.812713188491047,-5.635263867852914,-4.331840428734887,-0.3799657523554801,-2.16771547006537,-4.408850297725726,-8.05137353867084,-7.991197251650637,-1.374128146921303,1.0911004349591926,-7.255972522545807,12.068823747087276,4.607412958791056
41479,,-5.788773383982731,11.42990904216507,-5.892664642030785,-4.616318768709363,-3.420539471718919,-7.421130545574702,-8.916908884200678,-8.433788541783775,-10.609289532779265,-1.506540204218214,2.9493474747712662,-5.219602402402895,10.450431283117696,4.23491575861714
41729,,-4.059834229784986,12.69362925535176,-2.9257756233435064,-7.15032255559323,-0.3425569450558764,-4.462507057366758,-5.690844744229566,-7.441899547578727,-6.111702373633472,-4.135432451093575,2.238547130032099,-3.465796720380636,9.30715144761676,0.1367657293465725
41979,,-2.41998786244981,10.911408843379554,-3.915793000271367,-1.9631061170517408,-3.748014702081322,-2.007688742574476,-4.869948402282274,-6.496532848816052,-2.69267119026642,-0.2681031244857944,1.2166536875308185,-4.408004830304523,8.385910385525484,-2.471307119470457
42229,,-7.663776368179337,3.7778470686197183,-7.693328063325873,-2.9214555743719477,-2.347898160817661,-3.2586332335539976,-4.474262922294486,-6.952549658878056,-3.9067422776744554,1.9037095228266476,-0.5206816198548158,-6.268163649867379,6.592722259451857,-6.295957828297901
42479,,-5.307205241285729,8.923195804714453,-4.113844478295597,-1.825951420700068,-0.2044708945594079,-2.900749673084664,-1.0618359013424965,-6.601104269142412,-7.38546972455138,-0.1278230057392619,-2.1013993619173266,-4.508076475497287,10.45066551254468,-7.447485321265334
42729,,-6.495588891434707,7.1380459522644735,-5.172775311121869,-2.215143868636052,-0.5337478826989561,-2.032489787270241,-1.5854203580509876,-9.907269757965482,-5.525861970796696,1.2025745959835177,5.96242137586535,-8.853175725094683,11.789008244597063,-10.030794528351842
42979,,-5.794377095054055,6.8943624743284815,-7.494212300342161,2.6869774513909883,-1.5943210295692165,2.584977556825901,0.9112297050525892,-10.213183811078226,-5.625126887238954,4.826070092021476,8.348166363035007,-7.396794755808099,11.3590935505321,-7.264988100527901
43229,,-2.093605887719919,10.00511058513353,-5.316117260423061,2.030721780771243,-3.718459552116105,1.5746411963039189,-0.9644620879346348,-5.337961315252278,-4.770607825122845,2.080390411415875,5.992827029438739,-2.493504848465082,7.925341909556744,-5.112313311056961
43478,,-4.152857162969616,8.855020464319644,-6.953982031852112,-1.3370135001937595,-3.587815134555839,-9.120263155666422,-9.794375670836471,-5.9974764460142005,-6.766945607069655,-1.4228211392531982,7.254968489748612,-2.244213110262718,7.700692608028762,-6.150476540117191
43728,,-8.543463787795877,5.17028232687138,-6.992336691684489,-0.2183145728850114,-2.6580403635478644,-11.415533447223224,-8.156931506447219,-6.124161613580038,-10.4354791101011,-0.5630693031631334,6.647703380782383,-2.6828753967785106,10.832007707733652,-6.473715235493287
43978,,-6.010736310714914,2.6856553377278285,-5.2048213825049405,-1.192673729382998,-6.081213444799593,-9.115167113154072,-7.605812613506877,-8.584299322766135,-9.056542855282624,1.663648466515128,4.571545609192871,-5.88991485327915,15.259579171818755,-8.58621151215894
44228,,-7.531537313976809,3.56510099253562,-6.962421727683042,-5.264039598773126,-8.016114774878888,-5.172836812818118,-7.988742661019932,-8.30258361632426,0.8919536951932583,4.51821430086387,0.8680658859144261,-7.539597314352447,11.808174204113936,-9.2122544812419
44478,,-7.845483013840882,2.3360502108186254,-7.569835585033272,-6.249074888627516,-4.083000805670619,-5.04709974023967,-5.992943241141189,-7.301547290061919,1.2782639886122449,0.2957159650506645,0.7633380209371079,-6.675367987144094,9.231412087679905,-9.438392684318842
44728,,-5.416124749880087,1.4007989997034578,-8.419780332683086,-7.5842440763152705,-3.903052938222239,-5.712741794834307,-4.380146506892172,-4.987359395387227,-7.451587267532878,-0.8045277552119554,1.7373438626830977,-6.6627890539928325,10.62422683263322,-8.226354310882535
44978,,-6.430314883431471,6.830373879747311,-6.374787575299584,-1.895355010293721,-3.807897437446981,-5.137921389022012,-7.398809897065901,-4.070730843420527,-3.4704963258536035,4.40940546683763,2.4171216415338432,-2.600198929206049,7.346036198632357,-5.439697361072012
45228,,-1.981986737925519,7.724910454671408,-9.26246126404124,1.3541288205277968,-0.6096350609539971,-0.5212648146186581,-5.231634066673583,-5.595526090063298,-3.205589928416538,5.943046312141606,2.6963345132412098,-3.4864287204717,9.95387206227596,-5.567287485544861
45477,,-3.7801769984331326,8.293563283955608,-5.237437238204357,2.964813268034817,-1.9634315977134944,-1.950470817515858,-8.792704515092062,-10.458323154924456,-4.076675572037013,2.93683600557926,5.503358854015964,-5.237533035062741,10.160296187901135,-5.056536829097351
45727,,-3.9139716838273926,8.787747989970248,-8.373971682813748,-0.0833559870660704,-2.7337519984244163,-4.552652540521455,-6.728441296329143,-11.222843479159591,-7.811773689461781,3.009889749630557,6.873703215568408,-5.6027728596895,10.72331578485769,-3.1226018629833145
45977,,-6.130375761964025,3.34849259039912,-10.910787620335212,-3.484747246546991,-2.4769941715225983,-2.885172244289458,-2.951408227636942,-9.00848516665937,-11.850633998339571,2.126339490654192,3.4938857769287743,-10.102857733459183,8.174980893738164,-5.993893171039729
46227,,-9.498885254948,6.855039747745446,-8.99526924898939,0.1223159423598189,-1.195625726997238,-4.6856150247677055,-4.666888019049363,-6.905802001157283,-9.228309991813145,-0.6809415647988939,-1.0535982151355716,-10.670578975578124,3.791082633781888,-6.3161526251754
46477,,-4.25131499879593,6.695020181634876,-5.734552482402707,4.220448169542531,-1.17881631558996,-4.024730946143759,-6.255964089570071,-5.5105795662150845,-5.495729831874126,0.1446263592802365,-4.429089141582399,-8.076902847051672,8.88479973174644,-8.53626637705699
46727,,-2.5614568430074645,7.448914347339479,-3.9340427428726232,4.696950779142658,-0.0573450413787389,-4.605625595019003,-3.919812045696088,-7.6198120586278675,-5.198202302918691,2.4912554575480748,0.8328177439351053,-4.563682168918303,9.82246872314544,-8.143933900329749
46977,,-2.620410415400544,10.877327474273883,-1.7474369553278668,5.904871871020246,1.405683634200554,-3.842243794918208,-2.683770160607444,-5.777762198625646,-3.327816338216873,2.589004171992588,8.371835547586148,-2.879376652419015,8.380009857132526,-6.3345034896769645
47227,,-5.279877155599477,10.467391246403048,-5.583845381592752,1.9131347526243572,-2.12563260435301,-2.2701760720369664,-6.085792208669738,-4.813353827564643,-5.471715059037874,2.125057066835442,7.117852133015666,-6.63102497734512,8.26282542309966,-4.458889534936223
47476,,-11.517021887150012,9.866421557181532,-11.495458231856883,3.6486549492379,-0.5811177147064668,-3.938151440393988,-6.322587986799482,-6.441344684855922,-7.062928339522724,2.1022243657639024,2.455765409713256,-8.688426024108775,7.763175343691756,-7.027660268642033
47726,,-4.554179283804826,7.980850767703426,-8.551302042666913,0.5044434641988729,-5.386488788875056,-9.219545264940246,-10.256207581839863,-9.532728537332105,-11.187608884261389,2.3441089654987284,2.488951396623407,-7.811262181473111,8.763768474668796,-5.447195043512691
47976,,-0.403435660310188,8.401441012122419,-5.550108030944157,-0.3293133460525579,-4.553906186386864,-4.408023704442446,-6.630544378128221,-6.060429990158252,-6.465916336588134,5.351075449460296,7.270687393422902,-4.305399967192129,10.900031999997688,-4.429140303020232
48226,,-4.260099536631711,11.109693114381214,-4.417079598530524,4.055989890009951,-2.1442910072293064,0.7698891985024524,-0.4713756426903742,-5.264135124203087,-8.469267897274197,4.757631906879837,6.887693281697271,-3.127048547415175,12.37186168130206,-3.78352438125725
48476,,-1.4256873364605585,7.717431349959902,-7.508227882134204,6.464727695076148,-4.655549774191286,1.914694463778925,1.441583723864722,-4.489647610449195,-15.596262784577108,1.4608962821701277,8.990170315180393,-3.619155871207009,13.1705442444467,-6.956776237638467
48726,,-1.5877740690751738,8.185532927546923,-6.514393041082665,2.9950960720383204,-3.4766510537134607,0.4831315468793139,-0.7282177453985883,-2.8696294375121667,-8.730324548505205,0.9223291536122192,11.373487719873626,-1.904706764110284,13.475582769720775,-8.310567612360904
48976,,-3.710634731495715,3.947483473012845,-3.253796823976711,-2.1629856865381303,-3.160135873154692,-2.5554642091672983,-4.610358207079284,-1.91387542008386,-4.842852739699303,0.7802320502093664,8.583118889175644,-1.939052257234537,13.068627391371535,-3.8584445722829024
49226,,-6.134668355345977,5.090523367318628,-4.655196198047578,-4.063494433479551,-1.595166317939589,-3.2391744576908343,-7.419691668273797,-3.3130922888160947,-4.1893067346718285,5.4599526484369365,4.972855384315795,-5.353740794509965,10.762239976396344,-3.188262915729249
49475,,-4.663730721713552,8.156032638415248,-6.79572765583015,-3.882571658843624,-3.5234893112531798,-5.792394705143056,-9.460358669734791,-5.745105314498811,-5.377762805669343,3.024796683758781,5.058911847616374,-5.685254382523902,5.746982015652046,-5.203716550986424
49725,,-6.381731930780122,5.213203695721891,-4.966021226168547,-6.791251042672416,-10.307445333323244,-6.814088196670907,-8.989865331218997,-4.845037560860027,-7.534564356830366,3.6772307403250153,3.6973891139050585,-6.107663105101755,8.04266130902215,-4.793042304384621
49975,,-4.682490278653432,3.200622461505491,-6.224717731182848,-1.6007474786837053,-12.021697937676656,-5.689247814644225,-5.361323609679785,-4.889522218369987,-4.761538266400761,-0.8618699921358666,-0.6396111926480587,-4.2927322445194775,8.080409745135807,-6.221717582781794
50225,,-5.423910315103413,3.459341855700908,-8.951762038503286,0.0605550824061677,-7.288918790339931,-4.101218194877447,-7.12262135194369,-8.049767386287481,-2.13991268016414,-1.801207232198419,0.5051504833149233,-2.677159477420722,6.600428911855421,-8.081742945872737
50475,,-7.857962039998113,5.266569032486224,-9.750467593456618,2.782275120535758,-3.820028974939365,-6.133280645621873,-6.497084068263771,-6.957877210423947,-5.330991778072516,-1.977332953649067,6.307982375453552,-5.928528967056547,8.211444031349313,-5.641541519925315
50725,,-2.089597582259132,8.383209079023212,-6.803417852955349,0.8422896534105946,-4.695784342103366,-2.1512364052802537,-2.4016459877414578,-5.466936262621942,-7.2873346526739535,-3.565313708957796,5.285882083482669,-7.715299362511264,11.390392489673344,-4.853260253323423
50975,,-0.3957258486587941,13.163921580401883,-4.961128182511682,2.0434409702785032,-4.427232412265073,3.691550456858183,2.052306776733353,-5.82584398074784,-6.123468058940991,-0.9840576456882232,5.543863222790268,-4.95789611756345,12.062207920182288,-4.936293672225736
51225,,-1.2485127662341138,12.533588043094326,-0.8963483037651392,3.2075166482781228,0.3562875444905245,1.8259847962356144,-0.0349675506661638,-6.576842358503786,-5.4407023993154375,-2.4785090559374976,4.004643088276831,-5.989443146631508,13.248311393047477,-1.569863029882045
51474,,-2.321052740357741,9.351312335372524,-2.6907857132501745,1.8386562477743773,0.9477224296295688,-3.8554591608289135,-5.3816963624592695,-6.306601244269661,-6.14938310273968,0.5641581381415683,10.114927073529392,-6.54967301182657,12.784367603341424,-2.464486617080948
51724,,-4.563646469868699,6.620373216588628,-8.046237647939291,-1.4857383000338942,-1.5061875192491556,-2.3976946576033087,-5.165569212261615,-4.696231668474626,-5.820433497787658,2.8573746370334234,7.811250073713136,-6.336014200162907,11.613505679870697,-4.414411841316431
51974,,-6.028834412477215,5.455544467088438,-10.76179417183888,-3.2023950528010143,-1.631767825282146,-5.6882996541017,-8.842992900453728,-7.940809706606387,-8.566994106880854,2.759852872638793,0.0538494844393811,-9.563437080464675,8.036639221935566,-8.174211734699703
52224,,-5.37817071797603,6.026099246712954,-10.584772485588475,-4.871241724631281,-5.063271631964335,-9.137975213551046,-13.387264681114972,-10.450503651994264,-8.830443139657739,0.7270573851339678,0.9180210741714054,-10.792592188083267,6.019453310219129,-7.961072984253904
52474,,-7.877157316246494,5.574171309955986,-6.120305793596319,-1.4872623302399055,-3.908961917580027,-4.537541495582859,-6.347523095369503,-6.770296738889109,-6.152197598988096,-2.0945908864843386,1.32480911361404,-5.816562496629457,9.914774496793523,-4.866243485452536
52724,,-3.4920680872702574,7.827446581453593,-4.993641148422283,-0.9492606674297196,-2.988237768991115,1.0581862367595007,-0.0758589547543874,-4.231739309179748,-4.421120680053569,0.5747835876072686,0.7264742855591355,-3.508802764809756,13.722945684290409,-1.4936027998557848
52974,,-1.9611435271223752,8.570500510250472,-6.153770296757099,-4.118127305455264,1.9634889646957927,-0.221515702893372,-2.120036046412315,-3.1496838180492177,-3.412916742430474,1.2145402905973628,3.2457588863498312,-5.663135548780504,10.79897522322556,-4.544860730048292
53224,,-4.7639143331023,10.676667579476003,-7.209696786747224,-2.7047781994097826,-0.5478611574962036,-1.2384410280619758,-4.4924866337066085,-2.0608141203977253,-2.9667294024606705,1.1247265009490828,4.729560389763789,-5.452061622004716,10.00758065693056,-4.87920550669725
53473,,-8.037952393638163,8.123958552853372,-7.0421868529382605,-0.6623434409383409,-4.504289731824525,-6.249194417339829,-8.846615141381367,-7.653971382085966,-7.675633763865983,2.798383030602304,0.291056709983823,-6.534909332103094,8.332784113793547,-0.6820248042145962
53723,,-7.332293218150959,4.660485866231389,-6.869890460843036,2.3898909933353507,-2.661862930652108,-8.492075622182206,-10.368488847851726,-8.731752434066843,-10.867972993491223,4.423357864777413,2.1816328836352685,-6.398321700552456,8.555461188006895,-0.0224621745668525
53973,,-6.645585664675392,2.3573986362734383,-6.200917480844325,-3.2928400172408248,-3.6202818438097326,-5.793255509376979,-8.232864798021867,-5.388851310662085,-8.047941347482354,1.9834634779706417,2.314957698916726,-6.558347576589264,7.8725446159613,-8.66472845577907
54223,,-9.406377402583765,-2.2356914509858137,-6.567073340121628,2.765656767921194,-4.509108327393508,-2.278821835425986,-5.619917014293106,-2.8301560147012883,-5.446835030998728,2.724316186277326,2.037008536576772,-6.2032010841547685,9.809611014685354,-8.052083760020295
54473,,-8.736438512489341,-0.3465664428180312,-9.199469165834472,5.793174638203382,-3.2015993134359437,-1.9410813412606036,-4.476683092294709,-8.51368436380705,-5.877870555676088,-0.1789876466615149,2.7082303887104047,-5.77107739961054,11.992500430632408,-6.284245157823213
54723,,-2.8225210082194447,6.835403051671214,-5.370059117291116,2.4546221199299665,-2.759771726728577,-1.958157797777156,-5.194231814343252,-8.453205348098479,-8.453083894293172,-1.2415994098378802,7.070927392527491,-6.954433232288278,13.365767098053292,-3.4184678154035426
54973,,-0.9107838006170496,6.669347140749991,-5.411993995964016,4.1261406439381805,-3.293103849403113,-4.009360009362801,-11.97853665662555,-2.8431310509959062,-4.420717784501384,1.866849854186614,5.008547836636074,-6.838767890549998,9.156023177077085,-7.1984628094904455
55223,,-3.899447933305965,4.56637852447474,-9.159844101191762,-1.2755374424972152,-6.778276186331624,-1.0158260261623946,-6.618980463020733,-2.2591773371156494,-3.839993713043792,0.3416010421387019,-0.7009708643011491,-6.757724216240372,6.427595495033339,-9.53352538263742
55473,,-7.670824879967881,3.651253968078229,-11.60134591716645,-2.4910531484204994,-5.813878992653887,0.2295669815758972,-4.948849941124505,-6.523430330267597,-5.624328282358542,0.4958096625245924,-0.1361687594759914,-9.108385041776344,6.909660790359756,-7.676997638609598
55722,,-4.269214675411753,2.1163001595644944,-10.339053836362012,0.3761560873424567,-8.044195131307921,0.3530087780404168,-4.923068475705808,-10.86814757657219,-10.58334558687953,0.8223178992971147,0.7769762661863134,-9.593800728619504,8.926814676712285,-5.443496444426268
55972,,-5.359698921444468,3.5841034478620983,-10.541082643660404,3.484468603304048,-8.582570128287031,-1.8891921948743,-5.884582817681503,-6.8991291356532205,-8.618016282173809,0.4061324846722935,3.1445972487614555,-8.973738557904676,11.269071249662767,-7.681564885547207
56222,R,-5.852525817483247,9.690124113479593,-5.345586509915715,5.167742472421502,-7.761526319398746,0.977976277047588,-0.9040966884368828,-1.0019474002637017,-4.060587731595584,2.860326011757423,8.489617839447579,-4.042720575861206,13.440483765222208,-6.03414738059832
56472,,-3.463771363430449,13.160011231189008,-0.7123464036914757,5.500466714930879,-2.9855590016196007,6.797020023897239,4.830903737155079,-1.2760374875581646,-2.4751744812559866,2.8413816217925096,8.539941535957107,1.4043746728160262,15.680387269771776,-1.6394535311095155
56722,,-3.69074305271778,12.88958856652695,-0.3804932520042101,6.577541949035748,-1.0396507872499492,3.280553395480379,1.0994839836856494,-3.848860385538224,-5.0568911967995644,3.2462783544243567,9.560445157578606,2.470593280780752,15.017153624561368,-3.6439078622714
56972,,-2.422895684844508,12.363829371572129,-0.2217949135061067,5.024785616640784,-0.840631061188605,-0.5156729024865054,-2.113305574158744,-5.261813264547079,-5.019471303867697,0.1713938797651274,9.356882962937911,0.3920722684272945,16.97504946730601,-7.612684395573773
57222,,-1.8381975957021863,11.021998656539449,-0.9630028594122902,-1.557869243367869,-0.5176928863821586,-0.6155546923114337,-1.201102726815035,-12.49207014983767,-6.950637319934984,-1.4419346426145174,7.70593718459952,-2.5146450677865166,16.239968446722763,-2.733300705857929
57472,,-3.0652374939080413,8.201784012715196,-3.7906861983293183,-3.691433982685014,-5.259750854968016,-3.8785206049306153,-4.703646532695335,-6.652133654678018,-5.585885543020007,0.320623370398257,0.8264146336508705,-2.993644449734025,10.620446575406715,-3.832296584342984
57721,,-6.029573628662615,3.668024055538732,-6.609682595571078,-0.1734853888992235,-5.915688468864331,-7.342451980999732,0.7997732835693363,-8.41766766369717,-4.816282380954167,1.6226112121067282,0.2874591938285278,-6.237244519537243,8.649144053663791,-7.297634148675314
57971,,-9.55889538233182,2.039484345828677,-7.921097008161072,-0.02347825871899,-8.416343112462116,-8.246235812884564,2.959569075592201,-7.251775654800449,-6.506233593550338,-0.0836778489272702,3.396362606917605,-11.851020981583886,8.21477113471847,-5.011708773477014
58221,,-9.49912584635276,1.6241790731743624,-9.54742652232735,-1.9238726747365695,-6.437519735254322,-7.284819155832116,-4.722171535069343,-7.982716199869792,-10.458446580352042,1.9388666004269692,2.2916185668941944,-12.659851449765982,9.581777333197971,-8.50746950885292
58471,,-9.203412231255324,2.445772704096803,-8.409548486115563,-4.344895516124718,-6.761920339829811,-6.586255398980776,-7.737894898900515,-11.73930368970314,-14.318315143036136,3.862785087679403,-1.346369606061095,-10.350824505627829,9.933380712069424,-16.405792129266498
58721,,-7.16485270788916,6.9453036445842695,-10.747343668897358,-6.6604767162519884,-3.0676333727573555,-6.520072300348012,-3.6043598547299234,-11.4340464272742,-14.18794241482334,3.0521315673460774,3.510936524266523,-8.006817551028377,8.395628671527305,-10.25619141701908
58971,,-3.837521353068045,7.4254614096424625,-11.914536351648213,-5.46600946142293,-0.9434990310966264,-4.262030258620558,-2.4070014798090686,-9.387891725961172,-17.066164810465843,0.3241098903782731,4.312195713024274,-7.948932670142322,6.0317937889207,-6.7858684506523765
59221,,-2.8910611925256653,5.526579975558899,-9.332917727191909,-1.743301898623952,-1.64307978669727,-4.645333740888317,-7.576905705356385,-8.22463340087361,-8.269756322616406,1.695449183878273,4.8856106495137634,-6.227869244770052,11.364688202701656,-9.896013959240904
59471,,-4.180711509242893,5.88469719349677,-11.283716244328003,-3.788845304939178,-6.472036520922444,-5.0708196906019705,-8.993578752803725,-6.243275794948743,-6.530739798361092,3.484391355213444,0.1631939944285521,-6.215906136139157,13.193292402503143,-10.656725236355284
59720,,-4.488209010632199,8.918253945382206,-10.479033991824927,-10.843232275959991,-5.851813008213917,-4.660005299631264,-4.75251212955078,-3.8993862652807785,-3.5974933690424016,0.2810511941048648,-6.157444714528105,-7.1486145569484405,12.1268797808873,-10.850391314541517
59970,,-4.9498737376443405,5.7386687130165015,-10.72795857013102,-7.081394238656619,-10.901449396868692,-1.5333591769740966,-2.249150799906269,-5.477663214271038,-3.785263887007432,2.78748743127087,0.6836657360939866,-6.549406925226124,9.33052992415774,-7.864192979460341
60220,,-7.998617381142194,-0.1705066923414916,-10.742803338231802,-6.934169070706902,-12.25824370112154,-2.1005187363211992,-3.6991383628573575,-7.87554625425503,-5.450941116276338,6.726637364410692,-0.4989485620527971,-6.367408956609548,10.206873807863088,-9.776817640829057
60470,,-9.18541048156147,2.3503527626218235,-8.918778799398812,-8.388294784727035,-6.283456677915994,-5.1114324877039685,-6.038104051989897,-5.612658442784511,-9.005046504668387,4.286981523749052,-2.5487016703822176,-8.356919704783525,8.206596696964823,-10.44981665746758
60720,,-9.92268367244439,2.200222855985194,-11.816928954844103,-4.799994254369951,-4.659284144871245,-5.236965483664814,-7.234904717061256,-10.283613869316875,-8.940345224188126,-0.4053565454762795,-3.1114487991170527,-15.814513928249877,7.003004072032151,-7.246157863611828
60970,,-10.900877281858566,-0.8711929254383541,-8.319535267456766,-4.760787348349061,-7.230067162851068,-3.258933986405914,-8.7471747801673,-7.095451804430453,-4.785343311482016,0.4733623140086008,-2.1486638472787982,-11.184789035085064,8.415971470303198,-4.833546000214762
61220,,-11.313864505890349,-2.8988076596249117,-9.244117611715472,-7.772178471125205,-11.592017624971216,-6.098091240976929,-8.876374134511423,-7.648132112964636,-6.177131793846891,-0.8231239881163082,-1.2280553588570815,-6.302953100957387,9.758467972813309,-6.855267145896917
61470,,-10.888019141422705,-1.724573524412746,-8.655657938837981,-4.005539959878343,-13.555089281849828,-10.25578422021493,-9.764917221452922,-8.986650092815813,-8.474555857900661,3.402940101811543,-0.3645297487653645,-7.616050237019058,8.715060626312058,-15.20270059564674
61719,,-5.106344487350446,-1.916623956620665,-7.587118967536321,-3.875647583322696,-13.955515610569693,-3.770361597878964,-6.146204167521805,-8.108803309505642,-5.603514346032688,3.3382396477713177,-1.8745836231708328,-5.635996676676058,13.419158111770798,-14.592049426350348
61969,,-4.530923170122764,-0.5880470753013445,-5.4214184034838215,-5.9206993883491545,-9.476834428772014,-3.5338979513104967,-6.063553545205497,-6.791141913710321,-5.811041304130242,1.1810603526582115,-0.7430994813628604,-3.497812851941624,12.621854744581755,-12.269216801544292
62219,,-3.456463442409288,2.875778992836418,-6.251903745813526,-7.388294685373726,-5.186017831621086,-1.5521969039626569,-5.092292225181366,-4.430695019957608,-6.202323990654556,1.46625729975735,-0.1256582861229303,-4.982273372426545,11.977661087915044,-9.623645056460528
62469,,-4.807743909174017,2.765466499033298,-8.1300196744368,-4.490754934276201,-4.688942522791391,-3.8750882372112985,-6.266260545674975,-6.689611210524315,-8.601396195585236,0.5831663903305918,-1.0782066279605396,-7.959964694827843,10.515135833217943,-9.014995672375202
62719,,-4.620651459227021,-0.2390838708901519,-9.35295873953508,-5.391813004220021,-9.416515932916504,-6.731173593428109,-5.50862924193733,-6.753139056419495,-8.95094648446348,-3.220984901551915,0.1132642056827697,-5.858322290159601,6.371073749658405,-11.21440874323273
62969,,-6.081072561511975,-1.283771671557301,-7.658975847612478,-5.898642649065629,-8.823551806459495,-5.660434770962838,-2.870011903375124,-4.221968807785993,-7.456880820351492,-3.0017025128807355,2.180999585043468,-4.317764936111235,5.664817031284615,-10.37890188564038
63219,,-7.149872769643119,-1.4088845297229171,-8.211919584090467,-2.5765283171282523,-3.5956001842017566,-9.54291357370827,-8.64215534562651,-7.2556235563775076,-9.877528460654627,-0.7033725034994686,3.127208885048648,-7.365505448223622,5.02029236024728,-14.113850782019943
63469,,-5.732586801199505,0.6179944442240468,-10.2249944469981,-3.138987858604275,-6.464352627975413,-8.413658769000442,-11.176589537635408,-6.6640112473869415,-11.155141459215129,6.069271402681096,1.5274078168344687,-7.503850685813643,3.968615023077326,-12.506915891315913
63718,,-5.616221176211404,0.3799050121614832,-11.188330186540547,-5.17518482598152,-8.252418483494559,-3.978417522021677,-7.834905779648248,-7.878556253326843,-9.622772369214053,5.708125693094365,-1.2701324684560722,-6.439502568915639,3.955455763455176,-10.997513570731233
63968,,-6.913048703144883,2.5708935668804926,-10.681156329580508,-6.405631175283931,-6.352689589520374,-2.652311252477815,-5.043596899831132,-6.637036925716294,-6.93508536322076,1.1143177533535933,1.2908096317973854,-8.55463637119578,7.588382234990584,-9.646706061248103
64218,,-8.21796184477206,1.3232378075322555,-11.989232528514284,-7.587345762563025,-7.111620119435889,-5.935294406565328,-8.911237411215673,-3.1405728009870155,-6.051232199448046,-0.1744692156284762,-0.2214249792972161,-13.913758458595453,9.322189772600808,-5.674194741782754
64468,,-5.171872466275916,0.6347660749040118,-10.134502541797684,-0.3880200135060576,-6.266908309170955,-6.609197180059182,-8.311392563214731,-4.543361659693037,-6.743462462247317,-0.602572793302771,-1.1128697991625067,-7.556066631329252,8.488727640325386,-7.365236472422126
64718,,-4.688613175349016,2.8296291757496626,-7.981229683389582,-0.0804071059726229,-7.974181126316036,-5.489443387582663,-6.714461805586072,-6.9108781101153856,-9.955074006532028,-2.619609962090029,0.823932320546052,-4.987068363826889,7.210841228738117,-7.233873701481702
64968,,-6.954282200292053,0.8790012721520856,-6.312973796684141,-4.677883815852198,-9.412051757508332,-5.853714257076705,-5.404759919464094,-6.336258964521033,-7.975343713963147,-1.2085354007289264,-0.0667172354288577,-4.028653356959447,9.40036266721679,-6.897938314921869
65218,,-8.535507872546882,-1.8862233239945745,-7.31263320200644,-5.591702620617975,-8.385583491824349,-9.216469385617454,-6.153298770076465,-5.873238051017243,-5.762441782896593,-0.6503901408873682,-1.1653243934630206,-7.160446873710576,6.925458373930492,-10.015150318425585
65468,,-10.822629582469162,-0.0804309996688694,-7.768700033572136,-6.27341699990316,-11.19379315951079,-12.732009058615404,-5.869378933417703,-6.183408158115606,-5.437400323762249,-1.856429276169704,-1.2878964761477525,-4.630782459981097,6.296683672949637,-8.733401847394598
65717,,-7.586021513399237,-0.3520404972222408,-11.686632976482546,-6.56419041186389,-6.885197053165269,-5.724562525216431,9.00618776857143,-9.107717815118704,-6.8324002271193525,-0.8539099344617518,0.9617671702497436,-5.467785979309133,5.998041955191621,-8.2939048645824
65967,,-6.107440418904988,-2.339120854440269,-8.721259448703112,-7.478595421257854,-7.003604291370511,-3.9292645676520777,10.572915658059996,-8.536061138084673,-8.419688692032635,-2.9678424381277453,2.1387047983579293,-8.74715264201344,6.617060478933955,-7.652621703577422
66217,,-7.475063923643026,3.427771445115146,-6.405924633426476,-3.9541525435816953,-5.431711134766948,-3.7882070668487335,0.120052283212898,-7.097064829623029,-8.140580324885955,-2.7741001444854967,-1.213783703486171,-7.59496917980365,5.8030851684103535,-7.439376940191673
66467,,-3.584307869141539,8.60617239809947,-7.279347422489675,1.6599878666709822,-2.809477096582468,-3.7855009955370447,-5.723155828167447,-4.618797749809717,-4.627574855683278,2.107436305954437,4.16886081026605,-10.335760404728218,3.5955266839219795,-6.972011844498411
66717,,-4.484339448460268,6.2749076033409965,-6.732604687511331,2.5830194617283464,-5.625596926358809,-5.355655712320361,-7.659587324403904,-7.277354974534669,-5.14745076277884,1.590418900311117,4.875154204723902,-5.983007291666917,7.041651321219222,-12.124949391884568
66967,,-8.747360366851044,6.803020130068161,-3.1834874711657264,1.6005778537418411,-5.048148613007417,-3.308092316537517,-4.673775870707274,-8.849522259712895,-4.978351392009019,2.2837201066957054,0.7094841878115731,-4.202671634417397,9.21196037015353,-11.476502428931532
67217,,-4.748250451132903,5.93720912498058,-4.362283426350605,1.0288533455314663,-2.983791882935022,-1.7102418787502955,-4.682409229018766,-7.425373178323133,-7.323417920652233,4.813611113576886,-0.1054223049976883,-5.467409967018684,9.153006980425056,-9.796118083352445
67467,,-4.348328877089898,4.50627802432375,-5.755599586661267,-1.17506047399679,-0.8947530376041152,-3.1156515044648243,-3.696056374622436,-8.326233936223044,-8.335463054403204,1.0608252748516835,0.423401514588366,-7.028305383791937,10.308626485244613,-8.761380746086978
67716,,-5.588675988839292,0.9036098378345808,-8.185377820873018,-0.2003388196029729,-3.214138642951783,-3.005171392149406,-4.223057695136814,-9.01463216088256,-9.145677583045956,1.347142555353876,0.4230443582576538,-9.638725064818544,8.34742027433029,-10.170355778593388
67966,,-7.3665482428424465,0.8299732156108992,-9.192846309443231,-1.5810881966342585,-9.173228506699267,-3.763221243852364,-6.454322917222351,-7.656315443662107,-8.387415936537387,1.7152186555968043,2.6962900428733634,-10.854178076622787,8.019245491263346,-8.598434502877218
68216,,-8.150684841951097,3.722241966561128,-12.40061343683168,-3.5492186630293245,-10.95876690276414,-5.656496100984057,-5.997098585131737,-6.099978012708788,-4.125623785055935,-0.3390121663369169,2.4688879460621527,-10.14701307953763,7.40462449318906,-8.359849441706906
68466,,-11.229914110111324,4.958300566960277,-15.401163083417572,-7.389143210922841,-6.978814189891706,-6.905591642928314,-7.030887978884165,-3.716793945586762,-5.282270822186652,0.3266421520174357,-1.9795639712889623,-5.792035216359085,3.6916809134138138,-8.474313169087122
68716,,-9.946906200606056,2.6535763634202603,-14.328545281778338,-4.717023228392657,-7.931627127351122,-5.332770685830797,-8.54445847479757,-4.49017365800772,-7.680119556975406,4.114156184745675,-1.7648423090112195,-6.477536392286498,1.8896836816878304,-7.9431763826506305
68966,,-10.062003158474331,1.7594823066441578,-13.29114426042179,-0.3922175968031391,-11.311724512513027,-7.784218497732396,-10.208302901422332,-8.359804208005553,-6.980524268672274,4.1601390011760095,2.4907189488836923,-5.025960358565699,4.79678542780481,-6.276961190896876
69216,,-10.199952335925948,3.1997495113315004,-10.855996970946396,-2.752621353683536,-13.409573361556602,-12.339141928577966,-11.724368184563495,-13.137783338130465,-6.79168219131984,-1.869273110494276,3.412133150190241,-4.150296933912141,4.857994793667431,-6.141986803153648
69466,,-11.146811127597402,4.858971331335667,-9.156019603210115,-3.810104901504153,-6.821069283568067,-11.53087842724388,-10.788736718245062,-10.674408696659142,-7.002445121326395,-2.9408414652888504,2.6845280865496592,-8.221057453387509,3.603965081162878,-5.816750071169741
69715,,-9.45257299924384,4.83659027788957,-5.968372447772017,-4.780695448779363,-4.687140512632294,-9.33101214174383,-9.017976253775078,-4.081733215354257,-2.0941844170130066,-1.432867837486583,-2.8039497254454924,-8.629552472976235,5.559874448269627,-10.347612744897152
69965,,-7.560851656220238,4.994769142595395,-8.239260191948073,-4.277780518145849,-8.305406121574453,-4.500231653056421,-5.336116415620824,-3.895436344344553,-2.7397265443427177,1.063678962873005,-0.1800852365414155,-6.976523124226,7.894265447748213,-8.650232495104046
70215,,-10.963259801106169,0.8697133367500045,-11.245989649495694,-4.233291949196774,-6.60867546487265,-4.8543033467566685,-5.693809898132518,-8.237762960604174,-9.175804260506029,-0.342395387621789,3.03379740423267,-7.716843423421995,6.8605594575060405,-7.10203235648708
70465,,-11.3701591173674,1.2513468581720395,-8.454373869139237,-4.043402184580181,-4.2077743202233,-5.4942881320124135,-5.707955643787479,-10.920723736312212,-5.994628250040107,-2.7121106726081523,0.2436913232446473,-7.11940995769624,8.046171583370018,-12.941112806030098
70715,,-11.840776531580588,-0.0491129593878523,-9.518354600542857,-3.4725666068028223,-7.897513506869488,-5.151936338675311,-7.195768480688901,-8.281552566088804,-6.424959173657725,0.2188518991299539,-1.584884456597755,-9.146230980798348,5.746069573892507,-14.62387258966494
70965,,-6.239241386793343,-0.6654751867274723,-14.5234690119747,-4.396347126931046,-8.200311947159143,-5.363956989604672,-4.961454588635073,-8.89462033731583,-8.756510422397712,1.7119875301851637,-1.4968438910613338,-12.414925403858016,8.852894803676842,-11.326772554429274
71215,,-5.956159619307363,-1.021425980143158,-12.841377194989668,-5.100187629752034,-3.8202226866468223,-4.280206476414143,-4.758858137086018,-7.788424624241113,-10.73411442251544,-0.8386660396884765,2.0160940128852003,-11.73432062799824,11.876639412243916,-10.148186226987422
71465,,-8.319405196037707,3.217135589593987,-11.429408645922829,-1.3994647381941103,-5.964548229436664,-2.435696003949305,-3.8145113312050287,-9.565338006423534,-10.27037300835909,1.6026356607830712,2.529266196783559,-10.40979049936884,7.861127849558251,-10.671915744865132
71714,,-6.940271059732717,5.970534156693147,-10.370417790293526,-2.5908902622504595,-6.220437509907342,-5.501132760066904,-6.476789566303212,-11.883462215374305,-7.937410252354863,2.590726320706731,1.7860520800947366,-7.558280098992087,5.125051675096191,-10.46271917991784
71964,,-4.743658018177797,4.978469336801491,-9.518885590309974,-6.693903358088013,-5.883489595650678,-7.852980203353778,-9.833799647738704,-8.388233277336392,-8.050522546032617,-0.1562861393412525,4.075822097075984,-5.03787083625766,6.837655700036873,-11.703706604923802
72214,,-8.828153601901356,1.2948722123440546,-7.470721664851197,-11.317473110063696,-7.926609082140806,-8.901731921146204,-10.67705656341364,-4.599271617641556,-9.120686372184304,-2.3721790813049743,2.076879839470385,-6.274077655059575,6.260788520382638,-12.743147785054244
72464,,-11.450903220874252,1.3893654370683897,-10.376844927395767,-9.378117710529772,-10.79606366517365,-5.855376880377724,-8.927298773112959,-7.342555051477205,-8.7803237909787,0.3101417129364045,-0.1788545159514922,-10.032616681239166,4.553549712990101,-11.712575622401186
72714,,-8.703823071653167,4.126574254656004,-12.083709382492122,-2.881904084409495,-15.43542965815721,-3.3514641468980635,-6.735649334791534,-7.337966153539535,-8.920995537672752,4.267455097413077,3.0612961244244867,-6.714658280774851,8.002334487437285,-11.975447015388164
72964,,-5.443336234713437,6.175932614279228,-11.210323629080303,-0.7345858937180088,-10.434373270922633,-5.757526264448324,-6.241247521364094,-3.0889865697455403,-4.911815816861461,2.0345860199818024,2.3672913678218723,-5.034473855056332,8.138683612984616,-11.874467932413236
73214,,-7.424462700046073,3.6017746121810106,-9.937557674474434,-2.362114027072943,-9.58365191712118,-8.870487642562209,-7.843393619837412,-6.665256873005545,-4.572902394844595,3.1650211791599263,1.3122680728355498,-7.531338635866554,6.705827004846779,-8.781556146819089
73464,,-7.747819235209699,-1.9680339275987409,-8.36739314208057,-5.09787581624461,-10.732524928347331,-11.289411213589648,-11.272225668801482,-6.826521718905068,-5.184955747767129,5.611359180760332,5.208905177610593,-10.067269495714848,11.430608725505714,-13.49543139084824
73713,,-7.2791635489944175,-0.4702413138673993,-6.974048032454724,-4.259612225896754,-9.740502092566164,-6.13117082677741,-8.27120253211898,-7.235025391525927,-9.464733035408324,3.442187450783889,5.142918236618986,-9.447314806193974,10.709889315523666,-9.22669242461138
73963,,-10.178922865976944,-2.377300262259564,-7.296108088878342,-3.573641379289059,-7.885889638843324,-7.583933521481327,-9.021358680626395,-9.901668172071949,-13.777788037847545,-1.1360587747619553,2.793233589956332,-11.01190026220751,8.268428089713048,-8.550244278209433
74213,,-8.596421478606455,-0.9988944565230022,-8.520242450097003,-2.6753020991728995,-7.028405701849793,-11.182044164699152,-12.964512500766723,-7.37913637116256,-9.539507985744626,-0.8596992284774969,1.7992005538407585,-7.420703506039775,4.689464726038267,-12.161174301118692
74463,,-6.984256221097922,1.1570971408238078,-10.196506077476853,-4.085510511022189,-2.5660070499571552,-6.890760976609997,-8.096968325131122,-5.839576489061219,-4.906536797245994,-0.6030162993166391,4.077668969062315,-5.266928957806708,5.778040657189694,-9.890481802207518
74713,,-2.670528675639814,1.7193698069740255,-10.18651912358212,-2.497259762461326,-2.09790462625052,-1.3790302041644986,-3.530907713247723,-4.980726439319907,-4.926642650481147,0.4067956153725531,2.701241352961998,-8.052762413443215,5.669616071277012,-10.45722752623444
74963,,-4.424875313434149,0.7944846626487672,-9.840409398704823,-0.735863697776229,-3.911454714977981,-1.8600360183259688,-5.53217450092245,-9.271256588914866,-10.834081758618652,0.6596992375582602,-1.5361082439375608,-8.443175789740348,8.838100943654084,-6.992231729651682
75213,,-5.143500151070425,4.257570114283068,-8.090630200732722,1.11031409036623,-4.447885588286393,-5.924534396383036,-7.624300043890918,-10.17627888701542,-12.55612301166346,1.4105070518612308,0.4310466982488735,-10.16342617564359,8.244297409274907,-3.941693986823069
75463,,-9.502443226421352,3.9231129774001934,-7.043949628667629,-0.6486584869075542,-7.644304292649813,-6.258891428087031,-6.711990002289467,-12.720266885087987,-9.679988206754164,0.0514311803578489,3.921452125036748,-11.27605900110429,7.9232742218243075,-6.267713404847473
75712,,-5.987269771018805,-0.502146852896894,-5.78935044736668,-1.5718028543081015,-7.798565543203106,-4.6013675623428005,-8.766762819695238,-9.152168708821502,-8.58289155630092,-2.7886302984728366,4.81744760036113,-7.970420390103606,10.2431329874949,-8.2231976515547
75962,,-7.783709565484176,-1.7728189242978551,-7.480206508675002,-2.6317611604034004,-7.384676311035453,-4.309036519185847,-8.067807735939702,-9.773771906226145,-9.804678122883717,-0.8604889250942502,3.1825855204726734,-7.810664046864186,9.046464851283456,-5.6133377708135
76212,,-12.927546828801482,6.050294742178116,-9.578351938997134,-3.4599595066832918,-2.729511193321754,-1.8110007767987175,-4.892393643472306,-16.156945389155325,-9.8581911792838,3.264905692383435,0.2859070448957775,-8.353945339425694,9.286819245967324,-5.484252439469399
76462,,-11.318083638368172,6.721489928138089,-10.863394654136393,-5.764710356445152,-2.629918658192404,-2.0846061146262325,-6.037752292200089,-10.54305786683028,-5.763323966128543,3.991631734781146,-1.4478137988465976,-7.589632641814133,8.940147701342832,-6.873823698866588
76712,,-6.246838942563384,1.53351424278745,-13.742473781736216,1.4071700744159197,-6.9202097869492585,-5.925418980563419,-11.49690150698187,-9.36116715932946,-8.579219473347354,2.234765969014421,-3.319633157420343,-9.32478149928534,9.765653063297584,-10.955240620755925
76962,,-2.5675996920283444,4.927571348021608,-8.425114236599555,5.537256937542629,-5.818930910478317,-1.1722359814965773,-6.473833198404798,-10.492001383054935,-9.036893022000337,2.907401430453369,-2.394308876955639,-5.558071160637327,10.257047306233543,-6.722649870236632
77212,,-3.696092347439017,5.738290950721451,-3.310688348088614,3.749171568032063,-2.063693248950097,-1.076727121394528,-4.186324210439965,-8.832899729760051,-7.20484997988621,1.8327731607147568,0.9881453683023316,-2.642265100190218,9.064952064687157,-4.587583693414452
77462,,-5.472454406523433,4.369640265265483,-4.026606041386497,-0.9383984362228954,-2.7486555418893124,-1.8828718567631344,-3.0360240977110866,-6.479974607328063,-4.869778474981256,-0.59053076973324,1.8687095231031343,-3.790728420635952,6.826086699761721,-4.432415713695194
77711,,-6.738994775981375,11.7651786025787,-2.238969832288678,1.571997248687537,-1.7396082108173745,2.068797642808505,-0.1664802122560785,-8.425130512858876,-6.091494928307528,0.9290457689699528,5.104798591866169,-6.848747932663941,8.081658549373856,-6.975118566748858
77961,,-5.486538058798205,11.894626004887748,-3.4426856606284835,0.4354872515168848,0.2450768226447551,0.143036547517486,-1.4435695685058345,-6.469339039579694,-3.7671085288309705,2.460412157818244,4.201860358367028,-6.042422607975486,12.0967395097626,-6.215252906115475
78211,,-3.0935930500399067,8.68823188466326,-5.402981727051529,2.801262672668434,-0.544556670706752,-0.7960877075408136,-1.8085127814017292,-5.085430470981878,-3.5144270736283376,6.090101914392631,3.2877971250249587,-4.942957179608818,12.814082174065312,-5.276786145170696
78461,,-5.011759242144405,7.743608453534925,-5.526353291641037,1.427246323974569,1.0489466896819932,-0.206372147192837,-2.0515270694598136,-7.406776013935769,-9.049575658179986,3.7970261435577033,6.00776004303468,-4.512345805176212,9.7628429424836,-7.292310716172093
78711,,-8.3787864338263,7.765274626084631,-7.020077740535528,-5.104343168949452,-1.6029464564570757,-0.4980988027346182,-3.693445637045661,-4.7920963075105405,-7.119801216905497,0.0123626006151449,5.549747695701701,-6.195631596626575,5.87794770829917,-10.973744796000526
78961,,-3.758572245787264,8.044344714892928,-13.49982210781345,-7.170464728478814,-5.58215746989262,-0.0681178482301123,-5.327609279026804,-2.953336257617116,-4.265396308220933,2.156381287602019,3.408619759041855,-9.19078487341936,6.8293623746022005,-10.909610014836028
79211,,-3.628353498440267,7.437445036471733,-14.54787491438971,1.274585217565975,-1.04743900436194,-0.8733521931594783,-2.9888861297925127,-7.830064313623089,-10.507677833739992,2.5175533540611057,4.408660494240008,-11.107823208935612,11.881331943043351,-13.809126135377245
79461,,-5.400633209272524,10.850784537884389,-7.547861276085912,4.5462100006941055,-2.5279979752749018,-4.469534091191809,-6.8785989893474175,-11.299767536394404,-7.889430993128218,5.301278857198685,3.9841207523302846,-8.803888342215286,13.27081749662594,-9.421902944196695
79710,,-2.8210536897916167,10.791291225487903,-7.247247404673391,2.393611893449399,-2.715566980921677,-7.302416403942527,-11.948359298750129,-7.613106242664102,-5.215834829265145,3.494805123872759,7.725746381867829,-7.937180896012626,12.480777297881874,-8.110046024785154
79960,,-7.542286868776733,6.9742698416461,-4.850123200939854,-3.155969887230908,-4.967115321238067,-5.826507194359812,-6.66546157704735,-6.816987733907684,-5.740321108388842,-0.5371989185881415,7.39231761096527,-7.71459643972204,12.882683341210742,-7.017995177717053
80210,,-4.855008664815487,6.494529620932163,-6.947942205380629,0.3509598927966442,-7.666061953550943,-3.40088383478802,-4.6715802346581565,-9.76323809456808,-9.008405750765458,1.1509203515376034,3.717196768036281,-9.628490575631393,13.26970056534039,-8.276639941025772
80460,,-5.337073311196576,4.986777596727173,-7.314513652696469,0.4678490750913686,-6.15590344486415,-3.505496490518736,-6.320878867732067,-11.114103466928793,-7.972793104896475,-2.881623267898913,0.3750567358039292,-7.968530615961031,11.262024944184432,-9.236732084141272
80710,,-7.261067101999254,3.917380596744658,-6.3525214928129365,-1.906362201583347,-2.35833396799647,-6.271589430222294,-9.12456814640008,-6.185140428972903,-6.893775885866726,2.258509360271857,3.738141290590967,-6.00075049262618,12.317515249963204,-7.573580967468402
80960,,-2.713923362870782,8.857433583140145,-6.217129306127417,-0.9450891251681992,-2.902137516603958,-8.961629938066354,-9.928891330593691,-6.253651315648584,-4.170808443384258,4.082912280688654,3.332220336573575,-4.807750103643693,11.039726453627726,-5.428351836462968
81210,,-2.4528868482534656,8.632940243586916,-9.55343837461846,-4.330895691107656,-5.746324833584342,-6.06349237970062,-6.237752602074909,-10.310137659355693,-6.254421664671003,1.9591739971877136,3.907499992825876,-7.710463024340885,8.859830749075776,-2.173774935382074
81460,,-6.139666771571069,6.787297035307409,-9.236275284175177,0.1738327549565755,-3.4282753686866982,-2.413408283494333,-4.930824894025439,-6.232388995189141,-6.096731914156371,2.412216103818383,3.270549538343525,-6.134871605275986,9.347115096791828,-5.1362058634225205
81710,,-6.001443578160137,5.293922321732122,-8.421403340782712,3.528103920587007,-2.592346785396406,-5.6093289909391055,-7.35868956306405,-2.6107204607364936,-5.761704992757331,1.4868486281404696,0.7158747244755098,-6.445542021366554,10.602048505777912,-7.582905599843422
81959,,-6.560138847370095,4.974818487113987,-10.484583035061403,-1.8702900351280172,-3.696857691520756,-4.67649806069038,-3.8023398818936776,-3.4963098897920712,-7.297202761489586,0.7308621036477378,2.849281664937404,-6.293440140180355,15.013509544016452,-6.7447108856219815
82209,,-4.282126808837773,6.743595878100242,-6.0069193957561815,-0.0906295147333082,-3.8920276762349215,-5.4096273849776,-4.899851654780155,-3.0664027420248576,-7.0382284657844805,2.1836865723342878,5.05067490890864,-4.523380290893453,14.81350550488894,-5.556153983626326
82459,,-7.305863063466686,6.512230803729935,-3.711897949501647,-1.679976052154375,-0.1482416214690778,-3.2542347562644025,-3.986976990092728,-4.401070861540434,-5.48604858705046,4.689570927524719,7.518169848176363,-3.9855194655574113,13.4804043545478,-3.440660039350052
82709,,-7.77503396118275,3.969028210741361,-6.477700982651944,-1.0313617711488348,-2.505063379800812,-2.2273106667963605,-5.323364880031591,-3.2591193226912,-7.3373129801749615,3.4939306284624507,4.090186873050056,-4.94156012211887,14.150112601274907,-4.090293828085842
82959,,-6.96271504935747,5.43700337889787,-11.355144114785205,-1.0245225265043976,-5.829202910402103,-4.074753992051501,-8.473888046478011,-4.148223479195552,-5.6935139966044765,-0.337094104513127,3.2584176706874968,-6.399769113584898,13.008599667402311,-5.932984376286056
83209,,-4.911856814224668,6.122054213280713,-10.876613565260548,-2.3308743921172987,-2.455044007726157,-4.917452269173856,-9.204024403498522,-8.249069318849335,-8.264952110877502,-2.135073497566795,1.5257382634858798,-9.92826371020609,5.786609231309705,-8.487745044787614
83459,,-4.342136084541023,10.082637255424869,-9.77836188675959,0.953774380970494,-2.857368169644157,-2.9031951459968672,-5.186669914102601,-8.123764555897582,-5.842523577074807,-1.9905161558806077,0.1168303093085663,-6.644340623656632,9.898423169816176,-8.963469491781694
83709,,-6.838429217685238,10.057374179122338,-6.977168081366073,0.2941860492451233,-3.9292271595388457,-1.64786614681341,-2.2386127410145917,-4.766463365807095,-4.603741192954635,-0.374824388824761,-1.1368357775883002,-5.19261146741283,12.147114917091129,-9.446251019994786
83958,,-3.886995665465616,0.9624565815662792,-9.09902700610914,-3.562315190029336,-3.768498109265232,-1.937189404603473,-3.8568770762700777,-6.25675938177122,-4.68985249240145,2.7066263486705635,0.8787757192040275,-5.124770271041161,15.837339761208336,-7.445785776278121
84208,,-5.9002120829781255,5.724083484315883,-9.34322563659279,-1.42316197943023,-2.2416688189350182,-0.8030684200864889,-3.8591126967303215,-10.77213748658869,-6.615493198385867,1.963414917354192,-0.0149094156499381,-5.146629797970281,14.110358047663809,-5.736474674466709
84458,,-11.671950522986847,7.0195672479227404,-6.731547585995409,-3.355473528105291,-5.149229642071697,-4.685407525284106,-7.7539347573163075,-9.461919773471347,-4.691986558686637,2.514656290300805,-2.646650005567812,-5.940442172068376,9.36851346069462,-8.474807577772273
84708,,-7.612022535825551,7.127256608932736,-7.362303740053225,-4.419399996204405,-1.6191146531496716,-7.118276107253374,-8.526984325595137,-6.146777727574789,-3.992342265350872,-0.1892170023637011,0.5257665848646574,-5.272256291567663,8.031562390731212,-9.598150547336184
84958,,-6.863221131686917,5.08004690986624,-7.096564575421271,0.10304146303232,-3.889598654846009,-6.514386867595934,-5.695333075191872,-6.75597643609211,-2.8385396792383557,2.8107802919536917,-0.8281100875046848,-4.841536364093136,5.837246946053347,-14.577027148614164
85208,,-5.468693029691712,6.414264857671203,-5.446885273004582,1.9993848013633104,-5.689418160263127,-5.082811570185668,-5.515654392718616,-11.676106498647904,-4.096400653134882,3.956239479028528,-0.6916369154197656,-7.556315960966641,5.7535588740390695,-10.559030084736332
85458,,-4.747765960733315,11.543326441819218,-7.606288711254246,-0.8115278047466706,-1.8539433993274088,-2.433233179658437,-4.903731472003901,-6.245931624167786,-4.412692080913971,3.860681420666195,-0.0132038113793149,-5.96053992889602,9.97498157022765,-6.276928534242816
85708,,-3.966113072987876,11.53732428770585,-7.982464154840771,-0.7099248297771203,-5.245251445964529,-3.644699243970657,-6.040812054669315,-7.288963617238747,-6.765646065491584,2.443228426960152,0.4204619271709842,-5.3408947387919525,13.769217446454524,-9.16108761233359
85957,,-4.758387311688898,11.86945937860743,-7.899021157976911,-0.0896868575858344,-3.3013798105832444,-4.139578840062988,-7.359883500005626,-7.891927247068388,-4.9223047249350005,1.790261450639703,1.6350602037745212,-6.101532976306887,11.055058014725812,-5.606946399676447
86207,,-8.165073090805642,8.475739508040446,-4.491916829056162,0.2410989956624576,-1.777681059983396,-6.275215552417119,-6.798185818394456,-10.540455585179645,-6.355255482139683,2.2866830722021727,-3.246597745171562,-9.83025335515524,3.9201589839752016,-4.580941740353167
86457,,-6.264043834712839,8.31598305092711,-3.938884649329957,-3.5664814860761163,-3.866442161987957,-4.32596442466843,-4.992672292684977,-7.005557344912986,-6.048707361412644,-1.4585406162441317,0.3635756589850628,-9.284808357478694,8.370148960330027,-6.47747128475377
86707,,-6.97657662103391,8.810610880620404,-7.203863233057667,-0.8797291665448513,-5.266375515797415,-5.53409249650346,-6.904436944600492,-8.393181818539402,-9.201109462052662,2.2719766909799914,0.2497360511662639,-6.93891866354015,8.3815789503286,-6.955554745968215
86957,,-11.172021769867172,8.117884452696384,-11.350021824716086,0.5805911724812665,-6.235852224353592,-3.435070352466377,-8.776447490652147,-10.553053295726354,-12.332744835616229,2.7072693802602306,0.141176209187531,-9.031737245062011,9.89171662493856,-5.997565730384055
87207,,-9.02130029270673,6.204491538126642,-10.461232182908777,-3.8401985760531376,-8.56049695540474,-1.9889498897211533,-4.571800384801968,-9.562372215216977,-7.857915103989937,2.71545353069548,4.451952638659508,-10.991251279281585,11.590689875797588,-7.180147624527578
87457,,-11.065918036806137,5.460698513760651,-7.494393104197515,-4.821403607848145,-5.066773641146276,-6.1703709325294,-5.613613074563164,-10.11793123334649,-7.886874478351315,2.221575152850723,2.601239671487515,-7.771226029753047,6.216897336339077,-8.115529399792754
87707,,-5.608727917943814,5.693899401495932,-5.729213907485934,-3.099367602594263,-5.9670620685613045,-5.588706505097477,-7.0974780026964375,-8.067927944814688,-8.095647002739204,-1.4511358815907307,3.414407678309665,-8.612190556528084,6.920728467630362,-10.73723262096221
87956,,-3.656737473587406,5.156320384962121,-8.791713816488935,-5.313256121155651,-5.734818465824631,-3.941314673908341,-4.738649673218819,-9.018976143911768,-7.218541636897577,-0.3175983706093443,1.7652474244832883,-6.296037867386538,9.70894942565135,-9.376846130840429
88206,,-5.14804817153265,8.177854364142688,-7.328173220391831,-5.034023011464603,-4.915057972534619,-3.904468198619811,-3.440985286265452,-13.758124035467794,-5.055824913420918,2.2075268526449183,2.9429717513133613,-6.674394661122715,11.206928962622824,-8.301525380181488
88456,,-7.80092945401835,6.005286455784069,-6.588909678207382,-4.36009572014449,-6.844828876977416,-4.712725063906214,-4.265375881295538,-14.198107302345292,-6.012824917872937,3.705824043046872,-2.803760861944608,-9.431614969964144,8.67072024417849,-8.97683936403312
88706,,-10.973503728983497,3.842188058234454,-8.494732938756023,-3.7838657661189545,-4.516827795754608,-6.554093127385507,-6.809899662154319,-11.856072319300416,-4.271509415385463,1.9584471144358728,-8.650138957815345,-14.928618473348154,4.085772591923311,-9.048273814197398
88956,,-7.438767322120969,3.885218143099491,-12.465846296193162,-5.022397999864534,-4.771616330901133,-11.02934436873614,-8.240178309537217,-7.713720003697522,-5.2287635943733815,-1.073424736112786,-3.948692143019312,-8.504672021422921,5.215168668576306,-14.53255120806018
89206,,-4.095862193929241,4.586662821868501,-9.851296325215186,-4.90059278978356,-7.316330451057502,-1.4934232266099747,-3.061443541027028,-5.9807151172787165,-8.490299224845522,0.3540815158435582,-1.7446929522454615,-6.194308724467847,8.60678037302617,-11.25884552935574
89456,,-2.9371538016440075,4.249975525234621,-6.673322772324464,-6.843602515080964,-5.170889535285452,-1.3638504497348412,-1.7559997484924268,-1.869115668441533,-6.5663931348022615,0.9183084284844087,4.237632753254178,-7.1205825040766735,11.512588281044312,-6.349118251600601
89706,,-3.420260089310011,3.4053704224465458,-6.442850129870874,-7.176005740563554,-3.2319673018630537,-1.2100900747347638,-2.6037333240325724,3.965358470415648,-8.51910985716128,0.7020077280385307,4.250141804455554,-5.485689375072585,11.496254774621908,-6.297653933203304
89955,,-6.456369880137421,3.482329734889092,-9.650173763879234,-9.015834684788196,-1.026586508705054,-0.3447604417960092,-2.82532344831458,1.3178126133115289,-6.339076022295177,-0.9127874791377252,2.8378300460625216,-7.215328397168132,10.982907482764688,-8.325779117546023
90205,,-9.58033387269098,2.172710866662268,-7.750760315025618,-6.315274851062834,-4.8739454009051695,-2.3162579931696623,-5.882345618516095,-6.619012388802652,-6.273020351336719,-0.3866860830284105,1.583980037321432,-12.91781330681941,10.6390312462331,-9.59601144632408
90455,,-9.848324137797036,2.8181509222301315,-3.5823852422431157,-4.1031330286653525,-10.408664663395248,0.4786743479570773,-6.855040514584352,-7.219931196493858,-4.1985711342253005,-0.04476443930929,3.140792700713515,-5.2012241987768935,11.926325487510756,-9.588150976873465
90705,,-6.975390818059447,3.5879171336679505,-4.559100899438984,-3.934858267430041,-10.025758503111,2.2875286982769856,-4.320442117306894,-7.7737249999489215,-5.236761250940427,0.962438594847406,0.6275488814196888,-5.363229994765824,9.922581475169492,-9.271620345795156
90955,,-4.004606272422811,9.859421719272047,-6.885489132046806,-5.58046680695993,-10.33922561706772,-0.6550734628339667,-3.038048003014409,-8.437124529641963,-9.86827191555698,1.803333868350142,-1.0814239381391126,-11.610975022596806,10.334971699040088,-7.45730706011596
91205,,-5.432214870979635,12.642472753441355,-7.205101948593963,-2.7409760560897234,-7.831160405207228,-2.725544368221118,-4.746559884728723,-3.184833049738657,-4.530761181574699,1.4132310180411631,1.998303339774904,-11.945928147279062,7.487135665170874,-9.284358490844754
91455,,-0.9427939531435652,6.087282544882438,-8.014732062032795,-2.284206820724973,-4.296927587129976,-2.11462939976389,-3.570704580946354,-1.5737297500039893,-3.0351856552864023,3.070592813702593,6.568612568813276,-6.795359378186584,12.27677483717705,-9.607396649675678
91705,,-1.3835872649254206,3.1106151120594365,-6.38953857061431,-5.977223863793196,-3.432410856991215,-1.9945779649554405,-2.4144605046455285,-6.4337627618672455,0.0508107973198824,8.466831975178637,6.44253290480981,-4.9586329997495735,11.873851969731684,-5.736191148528235
91954,,-2.4943420915191266,4.892346167755236,-8.390330218732199,-6.969049760477879,-1.0068581214210464,-2.906603463149354,-2.7524031833743337,-4.47362325182208,0.7729257683853712,7.5828078366076115,2.175993702124437,-5.557984738085252,10.803315557505492,-5.171918826237184
92204,,-5.50667767815599,2.9101401467792867,-9.059482567026508,-2.1565854947237755,-4.756049114013069,-1.3281824028498046,-8.24588157352215,-7.114136076069976,-7.541129975069315,4.412759303105963,1.0193908416016626,-5.689366879856919,6.935909847044158,-7.030860747851896
92454,,-4.313351422555912,0.9836034073445205,-10.909263154524735,-1.3630055147329805,-7.595604001958263,-5.061591658580187,-9.133307943297648,-8.984853752762088,-11.156699146221952,2.048976832690702,-0.2921338134411441,-5.626559352253677,5.654927841978914,-11.57308914636537
92704,,-4.773465112912282,1.5188386753451677,-13.045523276088836,-1.9222804439278949,-7.096217495097127,-5.597913244247433,-5.467115910241854,-6.670788619051695,-7.685656464569441,1.0782272357269158,2.680761571042021,-9.279847985035802,7.627417169958893,-9.007454024877724
92954,,-7.776253581208213,4.210660533536603,-11.819367740361988,0.730924555954371,-3.929724283239933,-2.682508092867222,-7.543861374032387,-5.781285844606986,-3.5408151354807926,2.1464555965436616,1.5878103525280618,-6.093679406444724,7.625787153359457,-8.92040115506725
93204,,-7.952701963604114,5.845959315612284,-12.754808498933578,-2.405448653097756,-2.5183008641842903,-1.3121807922721769,-6.371531108135596,-8.471218535902128,-0.534723284131845,3.790285022541543,-1.6483496089528549,-7.981071552036802,4.280010451080797,-9.892136877267578
93454,,-4.7237950831718765,5.5382359401713535,-9.235206322443828,-3.047709210068136,-0.9683664884015064,-3.0168172799499136,-4.450706299099895,-2.059948754961422,-5.510237982561196,6.073709093814907,-0.5894260545357193,-6.112796349682068,6.224138358768707,-9.65916115934847
93704,,-8.10228918165073,2.2692087229596964,-11.5640978756184,-2.487266244589482,-3.446450798199379,-5.098970170725146,-5.8562785621823545,1.0126217968415938,-12.666739971242722,2.627020101206124,-1.0145224896938274,-5.305931191887298,8.778027960503577,-8.123571371376414
93953,,-11.31569369824521,1.544108844533215,-13.950306080878631,-2.398799669682399,-5.569018429822078,-5.826592856788007,-5.429286121123949,-5.3283344131530335,-11.414287775855954,0.648731726461102,-2.5224832985675767,-9.109460091867444,7.22095737254084,-9.118411896820213
94203,,-10.778770309614323,3.53584080826833,-11.018033910518692,-4.726449139441764,-4.810933971901351,-5.985406233140274,-5.664129475065362,-9.306232728040744,-11.604746173486433,-1.501296017638276,-10.369367401966096,-9.570545615247836,6.47370084181733,-9.058061059144242
94453,,-7.999413819744811,5.7634563640596905,-8.60643054214935,-7.75320346153054,-4.150150653124427,-5.656502738860356,-4.554464051021656,-8.936953449111073,-6.866205977022556,-0.2407309087958602,-9.656920309577332,-5.083606778170079,10.640854429773889,-8.690755293856927
94703,,-5.611385203634693,5.022313055135644,-7.038240457116942,-8.484232761687009,-3.670258617416605,-5.678264604452986,-5.494078886784294,-5.03881121692888,-2.8839338260303715,3.704184203405324,-4.624486528618357,-3.5607390214053347,8.85420570384731,-5.006310235832308
94953,,-5.131547096551668,4.404907329302089,-8.98496630962439,-6.621400993104702,-5.6534177252300815,-6.743736947111122,-6.975838241687447,-6.757576574200148,-1.6211991477643322,4.218574143200584,-4.589022116216376,-4.383269843735162,6.883512422848,-3.5869548911646865
95203,,-2.9271575156115337,5.920521455233521,-8.410395654913131,-8.614429019200537,-4.1994588123399055,-7.8996022355140125,-10.273087091813816,-8.233981265951243,-4.094159415412497,0.99422033615999,1.995701726304009,-7.734594514614253,8.768419776044642,-3.812446875863907
95453,,-5.2277956533963,5.730933379485631,-12.85490926303698,-3.1178281619418198,-5.591220865063428,-8.572065644609523,-9.007246970032025,-6.364695232600638,-11.33443580801276,-2.4828507778047952,1.8429435140955697,-8.867927769725814,10.176837396140357,-9.244975473795002
95703,,-4.381751097358179,6.389924574609114,-12.126456343679944,-0.963378982348998,-7.257371133787664,-10.27198030644774,-7.661618461275977,-7.6617995910004435,-13.085165655321047,4.357644548537972,2.354010247446693,-7.081843679125884,8.846779272933796,-12.876552206504616
95952,,-7.068782329985256,4.170515866024616,-8.709667246867623,-2.63658743440632,-2.582657289190054,-13.916881361373504,-8.190345978937398,-8.061317557232215,-8.172264980727862,3.6622947076159007,2.0440859887718843,-4.38296833866676,8.332097462763148,-11.219304117819714
96202,,-10.869400378580202,0.0624952063534629,-8.44207271465179,-3.717818441607799,-0.3059650033984348,-15.856399280913678,-7.431865691921274,-5.7155615302463945,-6.747541680433868,2.904579061373555,-3.03756334051241,-6.4609705919900335,8.187726371866194,-12.521935463856654
96452,,-10.015150924714982,3.053867788748178,-8.067795000319107,1.3019701786775164,-4.925409215670271,-11.519128996022072,-9.990215834669062,-9.06845066620251,-9.087204810528306,3.7727767306263216,-3.864585018888355,-9.63825381836049,11.017525825674024,-7.593731099453274
96702,,-3.398964967105101,5.651347372654413,-6.5632646289266425,1.055213923740794,-8.102229694792511,-7.501356713231355,-8.871939834586994,-10.27187853221216,-8.371727034409806,3.5630790386847018,-2.8591625944878807,-13.253031847298557,9.55443817924374,-5.520388944982919
96952,,-2.4119986607521158,4.550707338966583,-7.847810408603978,-0.9358788651852544,-8.037141013151759,-3.3999913741042977,-3.865114684710489,-7.693526300641377,-6.677505842063292,1.5836950615711645,1.438234180808158,-7.921342615405077,7.892664836181355,-4.719839054894552
97202,,-5.911631237610743,-0.3000643039843715,-10.88464148948413,-6.507406148063659,-7.659254494257119,-3.866608308092608,-7.315860955704929,-6.663171745300165,-7.619816591129885,-0.4511995623445206,5.301941886675923,-9.34047823292854,6.463784122133017,-6.7146663124798645
97452,,-8.207297526589985,-2.059862085538174,-10.802812033028305,-7.062866942380996,-3.917409120101225,-3.2360479725865305,-11.13938897244605,-10.59485105844891,-8.911295723218945,-1.8563019826092493,4.461113578519455,-10.76249399974853,5.736067758269988,-9.20467157062127
97702,,-11.265718199151545,-1.4073672351466096,-11.360789408695304,-5.228862231589593,-7.479566754015259,-3.901220177271312,-8.203526141075038,-10.919860846695151,-10.692007091638285,0.2524814479153963,0.9386638763744124,-7.487457911702723,3.909018233058182,-9.354167398009256
97951,,-8.323706551212204,-0.0638888332423976,-12.49694832370535,-1.7350213265190708,-12.632223107576923,-4.148391738875818,-8.27425690207582,-7.356332131362916,-10.820264438388644,2.5001210297110994,1.7358374067274012,-9.03040817923428,4.353991296140212,-13.620870399290826
98201,,-8.398864180051316,0.8033364720025542,-11.6575544360003,-1.596569006653243,-9.572775245201749,-5.792199598774599,-8.868914505841039,-5.589912123213062,-8.808766071649202,3.2159702516771294,2.602612995810901,-9.604554924311117,3.095396402872044,-12.917001104877556
98451,,-11.75376770760768,2.5087081424324564,-14.276011299752945,0.1337383799568202,-5.7392563688438685,-3.775844832261148,-6.54653405194208,-6.939875928632828,-10.724164932908325,3.876844493934751,-1.5436243306363635,-9.153207296253486,5.262152203196492,-6.325052084628297
98701,,-8.18855421979081,1.8350424461669783,-12.538283759898206,-4.718209368542176,-9.293283228965954,-3.225996184927155,-3.7651927635175566,-8.953559554196282,-9.511020972508614,6.514032440630516,-0.6144918913564397,-10.869923914713732,8.577022760843413,-5.9259907773611245
98951,,-7.995833482727862,0.6175810888493922,-10.66352393720506,-2.0394249045535107,-10.420253830434092,-2.893995289514269,-3.282100447051067,-7.60016065088688,-6.986840794369952,0.8630654022446181,1.063311705092507,-7.925945767064022,9.58139186432548,-5.746877405559844
99201,,-10.667019135790198,6.553213604356315,-5.254151384276398,-1.065754299221313,-9.04170177496447,-3.2224503501539523,-5.425110729152058,-6.465139201771073,-7.929140601483652,2.216230210413745,0.1462901153933338,-3.6187996305791343,8.760183450335335,-3.097087359116191
99451,,-7.922247880600629,6.116079090243385,-8.12096265328336,-2.5485463891232985,-8.237343038166355,-2.248272535284533,-3.379883379771034,-7.896126296424825,-7.5669119404193905,0.4803842937106639,1.7423617794766018,-6.847741535788007,7.911576506896193,-5.822942521230299
99701,,-6.969512269150321,5.43586052154919,-8.645411071074484,-3.995121122583309,-8.86205397020589,-1.392049356667044,-1.7619559009376422,-3.936203892348752,-5.392643889112366,-1.7813683422979247,-1.2064585003742736,-7.709299154494466,8.149034825831157,-8.548773062760635
99950,,-11.91850235257775,8.213071282898172,-5.109655845630376,-1.3425881050129584,-7.851706319508062,-4.644969220387548,-2.5340574012113226,-4.033072945089318,-6.495794790220913,1.8810338506272912,1.413811262066951,-7.312460706170336,9.647408792121963,-7.090692182133138
100200,,-12.080439195604548,7.466422234654729,-4.503790733692691,-0.0368779972489806,-4.989102499140951,-3.5296247952193767,-4.0024442609119735,-9.565239571898074,-6.302091792111816,1.6515209236230923,2.706901919660468,-5.599622032939547,9.069819798861964,-8.85564192874832
100450,,-9.495015570286826,5.80689641240033,-5.0700744239732725,0.7126583926608294,-6.579957394219499,-4.364018507183559,-4.488657837407763,-10.77899799226872,-7.678755250745666,-0.3549724317632424,1.3000269351267906,-5.746806663263047,10.331298518458905,-8.600291951642383
100700,,-8.753574578183063,5.308621819176781,-8.811324210947774,-0.7190537481712276,-7.014827947198504,-2.9785433795951266,-3.772120643530248,-7.773497654266693,-9.14881998518252,0.5813355083006534,1.772943675748477,-5.310232670198634,13.304501733403796,-9.06407600510596
100950,,-13.008150805586707,2.248387810500555,-11.553787019711397,-0.9819790023290812,-3.8465557834027626,-3.917113070607416,-3.397995200152817,-8.047389172664762,-9.407049243061996,2.1849766673036983,-0.9428601151430782,-7.559631096998791,13.231799068684431,-12.469026025823462
101200,,-11.608816142317206,4.247573262972549,-6.298065467737582,0.2199108581509622,-1.9371177180809545,-8.596473858691647,-5.638811613941241,-8.956352112651336,-7.21679423452379,3.7064069711847702,-1.4150038574230877,-4.471019895211436,10.562174709136825,-6.134805742732416
101450,,-5.62340312600532,5.977159924609844,-6.153427356010978,-0.7994527323547809,-0.7200201563203794,-13.161588482212682,-12.68259422444282,-5.563705818222752,-7.2267713140421375,2.043316463859175,0.6184899798467075,-1.8367314524710563,7.237127759394335,-3.861982554341368
101700,,-5.0397413199165175,7.159999077577465,-6.817176631568445,-2.924510131797182,-4.834786245437567,-14.500099556554384,-9.515710574717437,-4.482401135830036,-6.634905845539501,-1.7554408910754309,-0.3644573919190993,-3.6215039316219553,9.022103339905827,-1.6377866666707668
101949,,-6.737196465597776,4.8433097795103,-6.566101593812251,-2.3254388589043176,-8.1577212151754,-7.853134450300718,-6.136942581583806,-4.940830997595401,-3.678627515031612,1.2103443626814676,0.5397631991907013,-3.5825516988223924,11.758466560749389,2.4627946034659405
102199,,-5.672474398001985,1.6874514536372296,-10.791264673430993,-3.448302777749197,-1.982656593535668,-1.9943457795571264,-5.052897420963371,-4.808320374365516,0.7676210678140343,-0.0891662572797406,-0.11083058115664,-3.101757637374547,8.828687741333207,-3.160329621612117
102449,,-5.425599105917072,0.928535332767466,-9.508012192343498,-5.624532931022892,-2.654819603796172,-3.294806097987257,-4.005360303189914,-9.17347667386328,-0.5012583797825101,1.8239017409555125,-0.1927513716115599,-7.199481403125569,10.598433543333256,-7.652034518941059
102699,,-4.103357439818643,0.9947413488005674,-7.058136537249812,-1.296786395721381,-6.224794278261708,-7.062508069619868,-6.502284456025558,-10.947398018147258,-6.282064144848876,0.2549954324062494,2.3494653239857937,-5.896635644741855,12.44687930143565,-4.289861003279722
102949,,-2.334639383530317,6.384769994637449,-6.659149610162101,1.3887229349509225,-1.4127918750189774,-1.8754436011791875,-5.356855995309707,-8.739113348018495,-7.850913337732949,2.8276233292023214,3.4241933763834504,-5.13165306426261,14.577557043183957,-1.956887886586225
103199,,-2.191274036983912,6.579241726989392,-8.128496290713974,-4.246257809367773,1.463676921137818,-1.2340607678424385,-8.254660529770995,-8.884283803121969,-4.900768274896553,0.2530231679223244,4.988123212576587,-3.549232152838103,14.190282215091036,-3.0414821893068567
103449,,-3.07669754698086,4.314633328572214,-7.394110378700233,0.121247517428463,-1.2638642778175266,-1.3741008512977195,-6.735079115536264,-6.854764528908934,-5.20682526141552,-4.885192551802379,5.530207915382551,-4.8245744186647865,11.008208520427624,-5.215004267422515
103699,,-3.484919784614682,6.581412676103752,-4.409837788995834,2.715013040921201,-5.438523228559755,0.3337171291874982,-1.2681634437423916,-5.555920147177655,-2.486741683009892,-3.88007005473389,5.767117162097285,-4.081209304519656,9.538175354621323,-2.674773244847228
103948,,-2.432890711113656,7.704543889387229,-2.787973866068265,5.309452282939533,-3.64554488522296,2.848754240450295,1.4450942702091851,-3.7968205497039897,-1.3368637718505607,-1.1040211723086166,4.221565116311218,-3.7269629448147583,13.28483102182025,-5.20175258751247
104198,,-2.2720475955163097,2.355928996967276,-3.639183013683345,5.279486874662219,-7.343823689304543,2.2591538077681057,0.9664644448785616,-2.847952456038652,-2.0565559532925874,3.5673746043227634,6.229861262070044,-3.158300820333114,15.583045816029513,-5.239955216122519
104448,,-2.165447187532006,3.308865797296576,-3.169846046712305,3.073359164253539,-5.744273985660097,2.257612038598536,0.2308298808773708,-4.625798555744385,-6.137087084834427,-0.5167701791596482,3.1332454222034087,-1.0134456851110365,15.354209107251949,-2.211975497362782
104698,,-3.469945717441795,4.4158349464669,-3.891707202904736,1.119949675300356,1.5073312516375783,-0.8928178704406409,-2.402250731318608,-2.436000095115501,-4.50567164638043,-5.810924417532753,2.9540832469041822,-2.851628029640344,14.09859012448015,-5.90041290836825
104948,,-3.793460511788785,0.8658191755561824,-7.724765519845875,-5.650510391106392,1.070616215093743,-3.9549899640381634,-5.573126897299519,-2.241815120242745,-3.7398045933173663,-1.0662360397214343,3.360189594162857,-9.497569989566296,10.561464703625772,-8.11329422869006
105198,,-3.2119124073316585,5.550674892278206,-5.336284662924693,1.2733628467815876,-2.8692434339069672,-2.8894378757263857,-8.673948731227712,-4.313740498131018,-4.801020022284202,4.384157367602502,5.650937825992943,-9.05810885233405,10.421827260283331,-6.656177907381844
105448,,-0.7300974835387097,8.85427856792781,-3.321059793362033,2.4874979156559456,-0.5979206293720439,-3.574478235864316,-8.079940379099726,-4.027639076310677,-5.111284685875508,3.1644990892918274,8.838019594114146,-5.603427607405616,11.853046665697232,-5.599707378589215
105698,,-5.313257256361286,8.521652533670379,-5.541966465204414,0.6545683709364253,-0.0955242193574771,-3.6422253790137376,-5.68413179448452,-4.283960488674467,-5.52647550739866,-1.6899304230751184,7.1481006149201125,-5.586267038965747,11.538260924531691,-8.08149329820402
105947,,-6.53550173733773,10.944131971500813,-5.715069659984721,-0.1612520246451484,1.0351772046000594,1.5474893864404338,-1.7104156194894604,-8.565388091645913,-4.69654080016519,-4.629394906035752,4.004862069789238,-6.888611978724704,11.974739170571173,-6.818018060917861
106197,,-2.250235446033262,11.386910239035316,-5.169479537764236,0.0578209572737591,-1.5781916111957894,3.8469562515347255,2.043046212358401,-7.222114352058876,-4.561084747851096,-2.0199683810504614,3.72783526150204,-6.552026683661677,8.27351277327259,-6.685537622608128
106447,,-3.977367026056119,9.42729798812196,-3.5481059933014665,1.3862182842265405,-1.2543934250913025,1.4363218112525542,-1.199042297628769,-5.439240418612352,-1.7447175500307122,1.976639206160891,4.252732254439051,-4.300569112984639,7.958880794010025,-1.7514377212006078
106697,,-4.575544219294207,6.034571833527018,-5.5755751909643525,-0.837363969486346,-0.212390122622296,-4.240497307370728,-2.708736616793033,-8.534502289945676,-5.112206396396274,2.5006895556021016,0.8758786520826584,-3.451175972095018,11.80969396919978,-4.810746931665252
106947,,-3.376143204412781,2.8289999299406694,-8.763013435297513,-3.7147059221825214,-2.423765764186337,-3.4890017727631903,-2.9202663869520693,-9.586428784917,-8.901396236876549,3.9935188721714985,0.7592624894934531,-6.889386345207607,8.140068594125747,-4.177542426964585
107197,,-5.837400084897945,2.0464303057028905,-6.645699094677512,-3.9343733331523727,-3.0195389075761274,-2.961366525412368,-7.172993674231414,-5.301018268375229,-7.021760679603104,3.377986864600504,1.3121687187964266,-6.381550109988457,10.196690102669098,-4.490193236548642
107447,,-6.658942155146237,9.34117060565668,-7.931396891345098,-4.534243491431834,-5.753804288624033,0.9680334482174902,-2.8980933647162197,-2.5015927314420368,-2.971810832264701,-2.509238755492172,4.305501890961746,-5.38144717736044,11.817001309006008,-9.492397912628018
107697,,-1.8577373742733243,9.077525693447845,-6.855538309212491,-2.479922966289245,-4.748800273168932,-0.4805283956783093,-3.372349522069393,-4.684409552218059,-5.037517073037084,0.649009743925208,5.456519874390095,-4.883098507582016,13.141178621514811,-8.483033736138879
107947,,-4.712843694516254,5.35168926190422,-3.452902220224725,0.221817861379347,-2.0897381552569776,-3.1529400074769702,-4.673990279645755,-4.634495247998501,-6.207927868664214,0.9415711656055514,2.134087053117781,-3.50210793780922,12.614346205656531,-3.3314440534343923
108196,,-12.155824677428646,8.702325919302512,-3.4048818071952764,-1.2079600062640652,-5.600529048645585,-4.0480619452532975,-4.109772672640305,-4.324792298718166,-3.7029512923713943,4.155529541383343,0.8483188489758517,-1.8311773896346968,12.560699291774718,-2.716084804155344
108446,,-11.287809487247952,8.531161556979296,-6.697763109599682,-5.850715024827865,-9.204586597843118,-6.495919177251831,-4.983793528712194,-5.711314647496084,-4.721959229195328,4.113404006201005,4.133373035391185,-4.589061772398247,12.75935463198659,-4.382527958468403
108696,,-5.859300166185872,8.87046519665195,-6.099315396820575,-7.096840375411579,-6.161841904973723,-4.8502701119058855,-6.556935034180475,-7.851335092808862,-7.5021499747901,0.7832584758184167,2.764898050994731,-7.345762966574743,9.308901881526507,-3.7489840834012056
108946,,-0.6845205733553316,8.265778425178388,-10.56502216300164,-1.875282957257829,-3.185773972955279,-3.3477923433046444,-5.963458131058015,-6.831672774726656,-5.401375274447809,5.148855623376103,7.039664513186286,-7.789617568410288,8.596350569390717,-8.717457488923628
109196,,-0.187226946027232,7.992721723217329,-10.309250953345495,0.6705313246300877,-2.7197931198227367,-0.2405153292033323,-1.4005831051713362,-7.209328215927949,-7.11442655510873,5.294629627370389,6.652287908169731,-6.13103912865114,8.603535625610945,-15.14865869886447
109446,,-4.425733260615317,7.89072143533433,-8.976244574923129,3.043670303992481,-5.865561821152712,-0.9490042742244308,-2.358740298308083,-8.870090359663918,-8.401069859354287,3.139257899608724,4.21533689039522,-5.816125021159973,7.708356778967254,-7.598456253519229
