timecode,event,eeg.af3,eeg.f7,eeg.f3,eeg.fc5,eeg.t7,eeg.p7,eeg.o1,eeg.o2,eeg.p8,eeg.t8,eeg.fc6,eeg.f4,eeg.f8,eeg.af4
0,,-9.461756385596429,0.9933212682974176,-9.692061187219366,1.1919432527682403,-5.434926905361447,-3.359548809719502,-5.941482827165831,-15.570052672221706,-6.787487326837445,-2.479505847928935,2.736695049935516,-7.19014280461193,3.641176719291774,-10.652719457517792
250,,-7.319972566845099,0.0322099877938276,-10.220698377503073,-3.0659548110942425,-4.0105069096426105,-7.190575522510732,-7.693239756191781,-11.33238023084915,-6.981940648947599,-1.3222676503238542,2.671124690484051,-5.502585833319729,4.000326988558366,-12.881112347608576
500,,-5.985054384048056,-3.788102431539364,-7.909775646476783,-5.019114326005152,-4.299184599226543,-5.608880591863316,-6.52292568111561,-8.534374890204884,-10.609518733719662,1.7669558926866036,1.434902489456239,-5.939129348935675,1.672845659449972,-10.435145596805226
750,,-7.132612107628505,-2.719149659218792,-7.873690676479361,-1.913381489167213,-6.990372526152448,-2.13513654212458,-4.672630196821542,-5.910789351804877,-6.4551381628812265,1.305323672465461,-0.976732723380348,-6.599724796101239,3.838112176346781,-7.612073066816518
1000,,-6.242503531640262,0.2760898151188732,-9.322208863292683,-3.266098158179114,-4.876251356208609,0.7763276183826889,-4.883710672885097,-5.954304130581278,-5.343357959129733,3.2018021402130503,0.3815968839730016,-7.089934678063502,3.7158759815086575,-7.204979298157711
1249,,-2.8014871434692195,2.658439952889241,-7.586389583660884,-0.8836341862527842,-4.590835647715036,-1.7513971274516058,-4.781427099650893,-5.084668993727773,-4.237071849676512,2.426908267156283,2.1735313912451746,-6.890790686697321,2.903219020919518,-11.110839607548504
1499,,-2.829180433496073,0.6121472154576801,-9.58839210624785,-2.5996963648947364,-4.353268555854401,-2.555633303973944,-3.0954596815865387,-3.008742448936827,-2.8100564133643653,1.5913286549969687,1.5266857197362669,-5.834082665427768,5.844801838588332,-8.584087044612147
1749,,-5.240469446546742,-0.4477155356110702,-11.031748166478772,-6.382142899889324,-5.406081588709587,-5.663884214078433,-5.061583246696324,-2.412225991491685,-4.546161494609149,-1.039372044437247,-1.305163040957665,-6.0212165847524455,6.176342123752062,-7.1164042783011885
1999,,-5.864574671628256,-4.012546105176435,-10.487974170612835,-7.61794698199491,-6.261412333408037,-8.750842749962368,-6.84729956851755,-8.804909808274365,-4.887648176736462,-1.265444039326051,-1.2712501557353515,-8.508197882077681,3.635695297160235,-5.466606939164615
2249,,-6.9598042032073,-2.388793297816934,-8.429582040935571,-3.993503324749193,-4.707955390283882,-8.9331191323488,-7.659082856784474,-8.64920875700886,-6.94967839267525,-0.2316148253449108,-0.7782371812849838,-4.105824355466349,3.9706157151165935,-3.5305002567090185
2499,,-7.608653130249808,1.6449710110007882,-8.231131746815567,-2.2189329108127254,-5.475848745725066,-7.440159441037428,-6.780121981101088,-6.719820241349889,-5.270428423828731,-0.1836928123996234,2.0855776202532468,-4.724592135287388,3.7496006183128654,-4.2382022856836175
2749,,-2.218982468094469,0.5560080007120126,-7.246015533691331,-4.605045572231283,-6.411882868047808,-6.245796834681318,-7.590487268691315,-8.77448560313946,-5.074728346361677,-0.1936132335462678,4.504815626215883,-4.88641346488181,9.229689090671368,-7.00394393026603
2999,,-2.128880367683344,-3.0357519813265865,-8.019581242589611,-4.915198685088203,-6.834445400955155,-4.939580858364313,-6.694003054522475,-12.191329664317534,-5.4004099440240285,0.4825712534281948,2.5110020835555136,-4.666422090885422,10.77407220561061,-6.292694718293806
3248,,-8.008597652877658,-2.962322739174113,-11.792080754994778,-3.0442683455768007,-9.619781065188493,-4.070155552932602,-6.882517702619447,-10.886272569856256,-6.715656102051485,0.9486418296230896,1.7472387965641547,-9.36428993314811,6.755845358605399,-6.838447429565738
3498,,-8.596191148829986,-0.4526612223975796,-13.781036340968534,-1.6751510334742392,-8.114657234397844,-2.0422262202146126,-6.78011880591228,-11.050138174555268,-8.187486311487339,2.1371791170314207,2.5753173729783034,-8.356365249262126,4.586452201028955,-8.84666397277536
3748,,-4.272097680459426,0.3848042404353871,-10.33511123276783,-3.7793081791992695,-7.581976280430608,-1.882146041790285,-3.447572888499711,-7.93181900294222,-6.1424478724432205,0.2523076642625407,-1.5163834741305653,-5.890286062467752,1.9736609321434,-9.396387629131643
3998,,-7.807387601917415,-2.291902626641263,-9.467920451628236,-5.230712044703527,-6.990914057482794,-5.561370678010961,-7.071083618580901,-7.271681423287943,-5.896291079188619,-3.5216985433516106,-1.1698766643417169,-5.153337786796731,0.5997010127701867,-7.486040241508346
4248,,-9.959844018405574,-5.974817505369479,-9.090729374130298,-4.602078118887469,-9.437670409547197,-8.64867647763236,-7.763584914786565,-8.91278630472444,-5.348887044635675,-0.8297309282055537,-0.7654881219213873,-9.136138306777026,3.4678274496079062,-8.266700443118989
4498,,-7.143524009521372,-2.765569690045375,-7.269315216723226,-3.6005526112157487,-11.706919582289917,-6.238549558864652,-6.082707876835899,-8.596244483262076,-5.002238841087929,-0.3432168777937588,-0.7903494585906712,-9.018556439369718,5.284697939122727,-8.508673030707087
4748,,-5.3588473547132365,-3.0991308675941944,-5.840385557405368,-4.0847574203711225,-9.61145323512667,-4.052016481661357,-6.879185656888543,-9.60253063585358,-9.499618129015577,-1.2411761564857515,4.159292533970403,-10.512742470058216,6.14376791382883,-7.833357391201304
4998,,-8.1697328305452,1.2311366481886783,-6.830899060976719,-3.9348428343213855,-9.251920122084936,-3.876783476593676,-7.282376433575981,-12.202925957806627,-8.981626932945991,-3.2030274443888453,4.45937352735723,-8.792891047482675,7.284907893701918,-6.511617854096095
5247,,-9.060500419170298,0.8960813746631423,-7.104572841344724,-4.679785977935019,-7.046807472604312,-7.121833061702274,-6.847342879277791,-9.097690420453322,-7.400017878025787,-0.8062818309361739,-0.5662407808559609,-6.833156007415489,5.056662485644678,-8.547901357089762
5497,,-7.721229087324163,-2.893009900401959,-6.921353662451785,-3.173511064960226,-6.0105256924279615,-6.506554075278471,-5.549088345363486,-6.405597323387209,-8.07003419026022,-1.6808669252666222,0.9875933986139906,-6.096850037058016,6.807925430116696,-7.850474320727373
5747,,-8.214022735077645,0.833300579210201,-8.864216814046353,-3.527333188014414,-7.7292736543681535,-3.4962902059782253,-5.667647259280616,-8.461714853563391,-7.820686247322084,-1.712628421548902,3.320599805744134,-7.676287408271079,8.537156685720543,-7.498805279184455
5997,,-8.29757782865327,2.1731506244576093,-11.563036918855447,-3.3674289715902543,-7.819687554392905,-4.570176499085386,-6.850477270939583,-9.478134265777852,-8.185511493870694,-1.9092456294279496,3.948404741339629,-7.365589100468304,7.390645717496936,-6.74882424280252
6247,,-7.48485381527742,-1.0066562131880232,-9.290998605754554,0.0192856928139197,-6.91434460649404,-5.069842238336032,-8.349490151923074,-6.518130980582047,-6.597623363133796,1.0616565610637283,2.052199915663677,-7.360411497820825,8.266821590089256,-8.368255972357472
6497,,-7.967252359353933,-0.8973692174928878,-9.63662174803173,-3.167908772852572,-6.342942508781121,-2.051424042265579,-6.033801466902375,-8.226830971121542,-7.267450962386604,-0.9219109956403652,0.9844559607768212,-6.442964284526633,6.449605705734173,-8.195322335829221
6747,,-8.35366710405563,-1.204152376641958,-9.89815457675524,-2.9982406707403864,-6.403940909078616,-3.094698601589179,-5.820763547194336,-10.742874680651145,-8.976554004290021,-0.4631629575907406,-1.98798370825046,-6.409997800980087,5.022186131657234,-6.972306559163128
6997,,-6.826853990679291,-2.0291090538839573,-8.704918775374502,-1.6199275758010416,-7.525046791174064,-8.446904944870164,-6.700092293713443,-9.66414762483579,-6.727864347912646,2.3928438952742543,-5.321558161565335,-7.0287843870888524,5.087969016797312,-6.9062296761283815
7246,,-4.818987638983697,-0.8066712629776931,-8.766365519503518,-1.5911688395980668,-5.467770671986473,-7.887716748314942,-8.658878700708602,-8.883399936093978,-4.080321727875504,2.6725273743783937,-3.5896911413401877,-8.392444423515578,4.703880242428792,-5.851875264314802
7496,,-6.1968305175064895,-3.1961206202514347,-9.722964161455232,-2.6600583137032787,-5.442885776507058,-5.987443510571081,-7.981213454228832,-11.569973023282978,-6.2132258236672975,-1.2424887641027342,-0.6093902422037447,-9.016777273900926,4.97508094524878,-5.485416971296343
7746,,-7.496206433254777,-2.6149252384987944,-10.289126967468375,-3.2521684313714863,-7.768574221829553,-5.418822282785012,-7.251147130588133,-9.702895593445096,-8.720590060349082,-2.5316920954324704,0.1273824883743448,-6.29064987140119,5.188709627880663,-9.173982937902055
7996,,-11.658287227850815,-0.6278721514826825,-10.486073426197454,-2.566351302415101,-7.211338504541384,-3.4561391011013924,-5.468184728511646,-8.93017802013493,-8.141368616256901,-4.819605435934776,0.6450535858872335,-3.791203494339652,5.335548800380455,-12.17033927592954
8246,,-10.15319654065402,-1.3595458611704747,-11.14301078468208,-4.663897420418377,-7.588706014843853,-3.2553746811028077,-5.672004351647889,-9.91783674963433,-6.908153343999459,-0.9265876288020662,0.4055751980932442,-5.331583655625554,6.087165271866313,-10.244584248689373
8496,,-9.375236280018376,-3.1542275990250164,-14.23348460420488,-6.075960698672553,-9.923712674946996,-1.59869264556057,-4.005848889300024,-8.97898313288289,-6.669083179972066,-0.1967330365509779,-1.1154246281902918,-5.427300335447773,4.33117136440615,-9.00083644940542
8746,,-8.604867358428296,-6.013387484382637,-11.429842925542903,-4.243813664030747,-9.588920539510736,-1.8225952393783655,-6.029213671538761,-8.255883061680782,-7.669997936169749,2.677779511812272,-0.8622162673398276,-4.881588439937438,4.767309477021746,-12.026359781056522
8996,,-6.539793452150056,-6.511547206346568,-10.036989305689632,-4.829316020954918,-6.77625128454797,-7.164748374285863,-7.357642199930558,-8.456099856093314,-9.201365167840882,0.0272653563350621,1.5270046890876676,-6.214927693869722,5.78735762057033,-12.570715347100212
9245,,-6.220562093745038,-2.379646477133443,-8.26169838394404,-4.493146844996233,-7.612058749520251,-4.720531880668148,-5.766143815190885,-6.259119785287021,-6.244084054233015,-1.4083174733650672,1.7801844726335632,-5.860554805480074,4.597608252458221,-7.750653999341784
9495,,-6.54728303077603,-3.7869261709827207,-9.898890847129206,-4.764350812661744,-6.331052174179009,-3.72811125789951,-8.332738146706104,-6.2216104980293245,-5.705927755884805,-1.8980828603502804,-1.0146902654696628,-6.113448852028985,5.272412506789868,-6.960258430017107
9745,,-5.474025849046734,-4.859141825668602,-9.192167749531553,-4.771592700357993,-5.184652199391935,-5.2199434276153305,-8.739396575294752,-7.707674417345958,-8.360243611781984,-3.733828929266922,0.6535568789816572,-5.979657837136413,3.852389287593691,-9.969403256598032
9995,,-8.943595326946891,-2.637289585658141,-8.068543853440177,-4.21284755537728,-3.6922815403900575,-4.653556297303579,-4.5685627756622935,-10.281753858247688,-12.197353844429829,-2.247841091066328,1.1192994882377123,-7.497214151112972,2.8277952433332887,-10.327819056045207
10245,,-6.885024233227126,-0.3505561331530628,-7.141058431703128,-3.0020414762600027,-5.4435017082584425,-2.0908093810829564,-4.879583713831537,-8.811106981721053,-11.024735979641276,-2.365654930295606,0.2307277690474501,-9.499163562370962,2.5857895460579967,-8.412301419923745
10495,,-4.561479005204614,-0.7744581086115275,-6.648168160714173,-2.494517025085032,-5.675093351798218,-2.448376786451454,-5.938395400923374,-8.515352543376284,-10.605652369001534,-2.4836813637379413,1.54499635439013,-7.84402773996905,4.1619253206387565,-8.55198650932442
10745,,-6.807955010962719,-1.3124238980336165,-6.418896922214917,-2.973853631757977,-6.234106761437232,-4.4382160159392186,-5.89789928791676,-8.648407416694216,-12.237905519515872,2.187437314510465,-0.2457337093006214,-4.49859665950684,0.6242031241304665,-10.474315668332745
10995,,-12.224373308151971,-0.6366747341072152,-6.950358692152282,-3.202014454548414,-6.946036001958396,-5.051966931926311,-7.953743030909791,-10.938295230623956,-9.409978111667389,1.7407206900490002,-1.7522691353653324,-5.750313985684896,2.1108784229300666,-8.659616599414404
11244,,-9.04186094060436,-0.6604373725227346,-5.579199661886236,-4.3885263180175365,-5.88095216865093,-6.444279743632315,-5.473021151937064,-6.123297240612018,-7.775716696115396,-0.4398271994708219,-0.4142470785093679,-4.719370977182382,4.460348478632006,-7.338550879792821
11494,,-6.991325497585087,0.3020640719081727,-8.02771437359522,-7.776741216736314,-7.0606530089978445,-3.5889733057289592,-4.969519845246091,-6.324292775066346,-8.340283414027509,0.7953411280603031,-1.2880930892844886,-4.6247136601112135,6.06834047220223,-8.881545996870027
11744,,-9.70312602010566,1.0279229693603722,-10.354181981486557,-7.0117017456219966,-7.447152956691445,-2.7861823459306985,-6.7569437065471485,-7.478293226435295,-10.613905829597057,-0.480547225771178,0.8749110029648243,-8.675052434837395,5.833149103946713,-12.52471826845024
11994,,-10.362000924226802,-1.0676432687553783,-10.575054352143695,-7.737496253254076,-6.083216569414226,-5.6905171364841065,-7.542362229886007,-8.03838861755978,-9.188646498009629,-4.104703628966434,1.8037862494100447,-9.571666720275102,4.656407593675068,-10.236959533862626
12244,,-9.815663391058528,-1.9244090610702045,-10.019837715493082,-4.773965180184889,-7.9057492747103,-9.743810659436486,-10.523755648276886,-7.677760449316215,-6.412221583057453,-1.3698367453446023,3.62336024018598,-9.373062243324078,5.284501372134821,-12.34199854885434
12494,,-8.155330833008566,-1.366068265406598,-7.315188125512061,-5.284530833304276,-11.053741291555848,-8.102289331428981,-9.649343536214106,-9.469276790018634,-7.487931057167772,-2.5549596521416404,2.8746333714942174,-6.066409295850951,6.086368128154583,-8.483245364631317
12744,,-6.614268673492074,-2.532920103051545,-5.270254534343037,-9.542696879466062,-9.496989567035484,-7.91365109022871,-7.962208243952173,-10.123039560658023,-7.930578079809079,-1.5616960325444746,4.415604386549667,-8.716513254358103,4.778860184707754,-0.3218030293214295
12994,,-5.5447003591334365,1.2193845242610275,-9.847750696215943,-7.965990595030884,-9.220084296241897,-7.486679870300589,-7.071274364174459,-12.433945155145205,-8.9427256412418,-0.2974011227017192,2.3650551638385657,-10.153679994086051,4.769154417043485,-1.437614031134434
13243,,-5.664982853159463,-0.3549351246965187,-10.442320868281634,-4.58687774726357,-11.531494207797422,-6.438811805877361,-3.850092234222929,-10.76825914267238,-9.467125787002692,0.222972436237524,-1.4742936628748995,-7.975141920382227,6.123511509217624,-6.382563826545108
13493,,-7.086038434260348,-1.1953512261807109,-11.93946919997266,-5.623153015058974,-6.586353749201985,-7.149370692153008,-5.017686627554976,-9.493969517191092,-8.075300661072276,-0.461923701162266,-0.0841225392016602,-7.962893213337454,6.219124620298235,-9.197330173008789
13743,,-7.336604619799219,-0.4543422775930641,-11.757463014996404,-4.977994236635587,-5.85598128962057,-8.431465753391409,-6.724344321786273,-9.304494937727366,-8.514743726268524,-4.456829713254992,2.553732740084344,-9.838393658574912,3.0677562077366782,-9.217514190444184
13993,,-8.615856342853675,-2.200699962646958,-12.375769445652365,-4.175925199258996,-5.971097484478523,-4.90486724024964,-6.765255484903117,-5.608532365839665,-9.236571918085597,-0.736097533666143,2.066307081839724,-8.364302797185033,2.968453457940043,-8.148664470248857
14243,,-9.651627682940685,-4.3551687810763005,-10.080255400217975,-7.44089833924437,-4.7186206240160455,-5.879319321999614,-7.959266105508655,-5.703851211296447,-11.193098974684464,-0.5893790044002805,1.2793816713647472,-4.802697791040736,-1.9217073710558656,-7.948088623604923
14493,,-9.895345597629174,-3.913345336148181,-7.998121424130353,-4.939681731055825,-6.817592203820846,-4.660540594578323,-5.258629670570654,-9.631956768674993,-8.371631971358225,-0.672227377769668,-1.784278218404307,-6.36327967550629,2.5072678141892046,-7.061711226570965
14743,,-9.541097382158112,-6.010614718067767,-9.734564155571787,-2.429507924225004,-7.167717217515435,-3.852049531265161,-5.632741625671187,-9.482697897327364,-7.488177375605415,-1.6570472507929974,0.7920303663030857,-8.835647856108093,6.8024320587525455,-5.370069208725327
14993,,-8.528633475787002,-7.323373115000295,-12.28530284385652,-2.7362278185787066,-8.8072949864289,-5.466426423446076,-7.5228442035545,-7.679511145641741,-8.244229820296612,-0.4829556768928428,1.8728519759667897,-7.095230580931152,4.241030848264876,-6.728593206739996
15242,,-7.184756827235904,-5.281191913611682,-11.086621138997817,-2.461954577622915,-6.497927826145734,-4.936788412531865,-7.646613193407584,-9.073796585406326,-7.470956556190744,2.2190251631548485,0.9231781132838018,-6.8615877590208925,2.7728540543894247,-9.210653342761058
15492,,-8.59591822649774,-2.540250268966516,-8.152223633187067,-4.111731240057201,-3.8746915501787274,-7.13861663312305,-9.443117616050486,-4.327258050552323,-4.292853499365107,1.7008260721139674,-1.938220363895799,-4.495047546943722,5.526843609144009,-8.211782146455013
15742,,-7.190999850518108,-0.2219528222022018,-10.522008197857806,-3.3846537772535177,-5.821487187152653,-4.173023064389631,-9.039788397679514,-3.895512256747896,-4.497576251063559,-0.0409068524963599,-1.2896450368848291,-6.887603301527667,4.876007003571719,-7.17284191858457
15992,,-5.026919854310133,-0.5968525035046006,-14.413790110857729,-4.116045036375509,-7.503055068852451,-1.6672726928434336,-8.516249203255878,-3.980572216646421,-7.079142467613626,1.1043160894215407,1.406820213628951,-6.462572296851164,5.327318676754475,-9.31080916962178
16242,,-7.628237513165159,-0.269773767185875,-8.817523581878074,-2.683996059839864,-7.53336716823026,-2.310174116556008,-6.006420182841772,-6.107549397572142,-10.631653913980797,-0.693682717840576,-0.1913608968932961,-3.944855072808975,6.160466560638768,-11.582748171955377
16492,,-6.332497378767686,0.988382618964818,-8.071595098808269,-3.221196659473869,-5.762170207532824,-5.06960453467232,-7.610930415973028,-8.727309248003598,-6.14657042838771,-2.380761416759228,2.7876193385955568,-4.546849806580561,6.20048873305969,-10.614915413741327
16742,,-5.600151686248961,3.981679947297173,-6.92135926733685,-0.9135962613520704,-3.7023071833050114,-4.905056993741286,-9.938144336475329,-4.503733818214368,-6.654000305935664,-2.079486541012485,0.6728696978802505,-6.581244834539649,5.996102912933096,-8.44005013513722
16992,,-4.834638443110107,6.223457276247912,-7.044012363654808,-2.144973627156663,-3.0427255333546004,-3.4742381316148507,-7.367103786525231,-5.99460959965472,-8.76413329589726,-2.3285626056321225,0.3215696447004395,-7.226230928902034,5.51831681783952,-7.859576611399196
17241,,-5.101083484165131,3.595869121484379,-9.495571504100369,-7.048797794455198,-3.481141436923061,-3.5669618894373007,-6.414350800547788,-3.534180928721622,-5.914064865359773,-0.666654355629745,3.0698565818215533,-5.94421168517199,7.345597666457582,-9.927634316726696
17491,,-7.849744784390463,-2.114927732329439,-8.63571080106768,-7.03078053308627,-6.929214028156312,-3.534893230037744,-6.161893258472791,-4.260952013160191,-6.749084578366469,2.9163509901144296,0.215797559746491,-6.73394847473804,7.330567209637976,-8.02496063403516
17741,,-4.980308260046237,-0.3946789112216223,-7.149997330235019,-6.069471310744218,-5.121238454829239,-7.656473883179842,-9.932028875137592,-8.292356279558662,-10.19301827505698,1.7290562883254812,-0.8350531692217616,-6.801862260204922,8.04042427165832,-7.135485701538322
17991,,-5.003738647595306,-2.265009970057797,-11.226386043294683,-2.8274576797520776,-9.08781926900401,-9.333847578951998,-12.207159760010818,-8.416440746815926,-12.15451243409685,-1.858910887525052,-1.3954416262550695,-9.561631391789565,3.811821431811268,-10.450448656703156
18241,,-6.263212695526729,-3.1621104664658244,-10.40515618889316,-2.0050203845930743,-6.679616912969044,-7.226648489461559,-12.71650600140919,-10.160175833899086,-11.09054972229602,-0.7579801846524259,-0.0964144775356879,-9.095370627612548,2.38764087291,-9.892648002818897
18491,,-6.658419231599275,-1.7189418798640934,-9.72378984461147,-2.452969957004094,-7.4811479153510785,-7.174028266744794,-7.759393647760492,-6.481568366179081,-10.053471908808085,-2.130592936491853,0.4770579716636549,-7.407751891719572,3.094492187218216,-6.493497709326199
18741,,-7.482353555184087,-2.1259391053331345,-10.821955011839284,-1.908745061236203,-7.420569069995424,-6.101437382042168,-6.793699458064908,-5.889531047169477,-8.72925373294227,-1.9790928017380367,-1.2864184849031592,-7.418872580138064,3.193950932422076,-5.659777760779247
18991,,-10.318763163789242,-2.3894303162773345,-11.755260709856833,-2.845692961944019,-4.586948154179281,-6.495977426353794,-6.77517107319617,-5.985252124211035,-8.434921765475362,-2.137707472491732,-0.0901847437008985,-7.5256587078476125,3.914383635235784,-7.535125704053113
19240,,-8.782828072060568,-0.8515008514559151,-12.391328271230275,-3.295351520937093,-4.413047766553548,-6.292585743821881,-8.084045343691797,-6.934731297784282,-7.889891766023068,-3.4123226114047025,1.1060172654086131,-7.518864551245265,6.496883913228947,-9.416778589162806
19490,,-6.976488003643025,-1.8032539147895816,-12.11268989502243,-3.5658310784784653,-7.024210338774902,-6.782466581364464,-7.409464047121234,-10.373297031118591,-9.89748266567531,-3.318811690865674,2.837673882768825,-9.624466293019491,6.087008416721681,-11.316673089268166
19740,,-7.932351781324964,-2.7226878100748304,-13.691512540741808,-2.0808304332054384,-8.62756503869041,-4.67649134692671,-7.707311032216487,-12.660689706858484,-10.222528402242732,-0.3820935703606853,1.6034230086516317,-8.633571369773575,6.530189373932455,-10.116768789041592
19990,,-7.628113090000666,-0.3837995976546653,-14.18751458279775,0.1664169375649706,-4.006456407762993,-4.933001956575997,-6.895339590685287,-12.528236303958206,-6.179736330450837,-1.924160961471512,-2.543218435401136,-7.398348232125025,6.874504682881037,-6.955597462564293
20240,,-8.417438214714458,-0.558835758113459,-12.533175474208235,-0.61737959709681,-4.9620276273306105,-5.353485054688213,-5.083274052824698,-8.677455747804867,-4.664165907414512,-0.112840000920775,-2.636959380778805,-9.029973577355522,8.14058878576507,1.138643264997174
20490,,-8.420450030060756,1.5664335554480224,-9.869808969208842,-3.65810030373099,-5.519297703476861,-3.209480683350685,-7.192168534966756,-5.6290341056978885,-3.809701981968787,-0.0141887900589106,2.630487018795505,-8.870779745929134,7.609994590927455,5.1636438158464015
20740,,-4.718996074541871,1.849400628673239,-13.245143526542336,-2.609893392058706,-2.832320596554148,-3.0525994180209763,-5.00222620568816,-5.215815655902757,2.530093051472668,-0.9547937869359956,2.41905601591485,-9.584272390353028,6.859594924705162,-1.4420954781880964
20990,,-5.375170680130124,0.985942419076069,-10.612424073911342,-3.918944638479288,-3.2541871406719536,-3.6741121370654897,-4.532293766382426,-6.505449167411195,-0.4900752289650261,-0.843357413584122,-0.3009396283554668,-6.253389701167736,5.953352920619998,-6.339457996610087
21239,,-10.087107435957709,1.145123962872581,-8.228031822370081,-4.065554214370489,-6.855896890913215,-4.531921182430119,-3.6608252023193257,-7.617736790579129,-7.787506893293736,2.1672948001100583,0.8047306479292076,-5.951780814162376,4.302539696450948,-6.622534670263117
21489,,-10.484116372711014,-3.112200876417441,-7.774628580062566,-4.202461652861374,-4.874128496190666,-7.119350253937208,-4.428181291719309,-6.355791189177751,-5.984718109633995,1.2345674251334464,-0.2835187358739277,-4.692470043397004,3.79824219029935,-9.257938556952622
21739,,-7.639729486794917,-3.835549054084917,-9.741900557619156,-4.495851870441626,-4.957396491767038,-7.674519110185132,-6.720704607981958,-6.091680931167622,-8.350716124092711,-1.5791320845430878,2.8290133338305887,-5.229270940258889,7.08923428222982,-10.41898159682935
21989,,-8.770538908391197,1.453363450658911,-9.175570282081956,-2.74818878402904,-6.706741311223015,-5.233716761054833,-5.530023511589512,-8.165298334597985,-8.944148144356003,-0.003266364405454,3.230961866012924,-5.301948673943754,7.996840194568568,-9.529542980088143
22239,,-8.963271452949183,1.5134740628886267,-10.448072668897453,-4.698028924176011,-7.4921048720938845,-3.7594950796890174,-4.296376508963056,-9.94900138422812,-10.326883999926071,0.7492667883993107,0.3240475155119712,-6.1737497143699365,8.57796423185571,-7.928235053245505
22489,,-8.38682472142867,-1.3150838255231592,-10.344373343132707,-5.386300156508607,-7.87001202661954,-4.189003485908245,-6.173743809240689,-10.022638418691582,-7.033135862542964,0.0689035269356321,-0.4469598321468118,-6.9512866218621845,7.145537936760837,-7.413351440360153
22739,,-4.618807793159941,0.5091256850001931,-7.7082757838460765,-6.192937426303374,-6.159035936172691,-4.900447811672772,-8.28845411476356,-9.968276321738797,-5.647625039330045,-1.542355857665891,-1.1133587059937191,-10.483595241068016,8.355988715397999,-7.54406591474945
22989,,-5.184179732374582,-1.6745558447749902,-10.447110867458363,-3.89862064798905,-8.212046990038903,-6.188583465613526,-7.17729219081114,-11.518938298385777,-6.736668324178721,-5.024801596736726,-0.7235572294492227,-10.651782142845256,7.415332191683557,-7.007468537051026
23238,,-5.346780640857217,-1.744452637685547,-14.038451910730094,-4.806284270751769,-5.600452481133158,-4.951933149713075,-7.571914508218764,-8.031634866735976,-8.018087956935391,-4.739561999737334,-0.7396808200765403,-6.102509773242301,3.111043398665492,-9.679629661664004
23488,,-5.890075083580323,0.1962355423654477,-12.73417325871586,-4.218363932735725,-4.613869875292113,-7.538068008453724,-7.443812559734275,-7.235852392293241,-5.792583427617047,-3.0776579055954434,0.7047596025162712,-9.176300081763932,3.287572719936068,-7.65905663464784
23738,,-6.638130845900915,-0.4480467081501689,-10.913302397941749,-2.4153309211914715,-6.34663051928749,-7.362150622118781,-7.395794692790197,-10.221346465531765,-6.0290144694925285,-0.9986763830582024,2.73344345385869,-6.984339045115101,4.699510887002059,-8.165395250146714
23988,,-6.427474615633923,-0.9378560044515104,-13.31432161361247,-5.602582465268625,-7.148754321082393,-4.501653080680066,-6.949767183200784,-12.221959435555728,-10.364579774945993,-2.146038302700247,4.349513982371861,-7.493217004756167,5.941447940044993,-10.656165232770018
24238,,-8.262947019308093,-2.590690576676768,-13.106451739079787,-6.338107130082057,-8.10970415255674,-4.935092690665005,-7.175868699869143,-10.5866340570306,-14.356714734774192,-2.153766219445895,3.91851948255012,-8.026607971614737,4.840945310583386,-7.949286666089733
24488,,-10.146871745534868,-1.7460449883382392,-9.853866659898548,-4.523366780297538,-6.231278510917782,-5.800951642454049,-7.309578976101053,-8.318834454164609,-11.450109087746805,-0.6547725184444698,-1.1757981896839862,-6.572643756683217,5.072431299651584,-5.66782390569621
24738,,-7.40611839762321,0.676607769195416,-5.542063786629338,-5.109448449542089,-4.071570583448382,-5.007556780995958,-10.28150442237038,-6.996019569312862,-7.82838796115561,-2.0851130166543683,1.5377755530151935,-5.733564969082612,3.2411938178366526,-5.301312294188982
24988,,-4.034832898709887,2.640448465472163,-4.9924267896015415,-6.352370697846576,-5.067525687890711,-4.216916508597613,-10.6299924428831,-7.022003480471188,-9.024091570269604,-2.9048362052097114,2.808582056679787,-4.882246947029264,1.283291944807823,-7.117776377336972
25237,,-5.153469147864799,-1.589907031076618,-8.458502365611288,-6.140298960478912,-5.751680418752678,-6.550201726196152,-7.402068898260977,-7.178915452507205,-7.649693146463877,0.4738121374005863,0.199284503548454,-4.5043534521517605,6.409341560661835,-8.968847551501081
25487,,-6.289908863826559,-0.0715289486801167,-12.311710807106502,-5.186680576075071,-3.905883629440434,-6.881428260119085,-6.314688787954417,-7.472295146246068,-6.698865426707163,1.3345141749770464,-1.9857986688150453,-9.17082849742348,8.56841866523505,-8.420402071100284
25737,,-5.922816552959233,2.9717389030933523,-13.610332844984042,-5.124035238382319,-4.860192218724394,-4.036857383052722,-5.596781447531985,-6.222152624191415,-6.913568848670316,-0.3546197909434773,-2.02740049723074,-10.391390329401752,7.530485733599271,-8.366356101507646
25987,,-6.631753654004257,0.7736907984853157,-8.21278933066665,-6.6528393168751965,-8.98890120922559,-4.2080532984757815,-4.079444753977446,-5.8383272276487785,-8.223622206140082,0.7300011564667958,-4.549662851458763,-8.465856928832643,7.825929804872399,-8.128990438502603
26237,,-7.507913538773688,-1.6121885445038138,-6.095418104033154,-4.846536889398076,-6.596517632502467,-6.021547720016871,-5.543763302707477,-4.615036158087321,-4.039129491997688,2.595352159211432,-1.7303164337517316,-10.854542790990408,5.820956345437058,-4.167421893588524
26487,,-8.83826978450982,-3.462513903553996,-6.568801198071411,-4.47220572649159,-5.374842354196074,-4.159312801279596,-5.8926543764862425,-6.512850313955859,-3.6329887673948407,1.960737582879133,-1.9332558270561293,-10.67285597413822,5.583305643126795,-5.955443530371031
26737,,-6.915251936957862,-2.310828114259784,-8.97266973397426,-5.125110531214174,-6.060130347745341,-5.567467620112099,-6.7570715518955335,-11.290764442808062,-6.6605433578653495,-0.7449831100368111,-4.409356607001514,-10.35820264705288,4.967740674660382,-9.052341151966534
26987,,-8.29220922373901,-1.618407418705738,-13.503438699105386,-5.335446469392776,-7.729902409138702,-3.020500796511733,-9.937352744458028,-11.096330613102188,-7.117187085514233,0.4364045683847265,-0.8072284915028081,-6.957074880165184,5.307356715367421,-6.022141806814353
27237,,-11.977108996537329,-1.7264144269788864,-13.917541170832,-4.954718734017579,-8.025068202814968,-3.230533739086796,-8.774599198729886,-7.584268159105294,-7.724169295567867,0.7224279210934369,0.8738564437102581,-6.884195617218724,5.460620998457913,-7.166786338783342
27486,,-10.860571215841606,0.6976078970609723,-12.27908143305507,-4.230343526262303,-8.165143140845274,-9.486548460061003,-11.012038457850997,-7.549533839913773,-6.884470005341747,0.5620939822834834,-2.2662694465857864,-9.168852342479951,6.831610353088818,-8.246862908111405
27736,,-9.102484392768924,0.5617110152223869,-13.281262821942637,-4.534724302844246,-7.778138005415363,-6.369638993584216,-9.201930928080284,-4.617744483717555,-5.133560495420908,-1.8444787912790424,-2.707703534616786,-9.12278687686618,7.472680334124295,-7.048637219383053
27986,,-11.97053577104919,-2.6052398869737887,-13.153048970424274,-3.657131450620917,-6.439996829501636,-4.498778372484338,-8.039569522048334,-5.043748309499497,-6.026238199182064,-3.108747316210988,-1.419796239329306,-8.099780103118741,6.262920510609895,-5.318783145928162
28236,,-10.792409408292803,0.4723476749914884,-12.776315121838335,-3.626501311998162,-6.461085943980969,-2.310503189948401,-5.907693415580889,-7.066553966894654,-6.360485428745433,-0.4554837462209591,2.886937801527709,-8.024873292134028,5.0876632873410905,-4.451847705202488
28486,,-5.477715685317955,4.8797185284832185,-10.179373667713635,-2.623920269707341,-3.366723583285129,-2.863724612274412,-6.506284438936598,-2.026474941595541,-7.680636616909937,-3.2638889503951845,0.7683760628230039,-6.92182877763512,6.44542533265449,-6.458051778277114
28736,,-6.37017818620405,4.58252074301355,-6.517146804897288,-4.221312077355001,-1.3862241825179031,-4.478657972494242,-7.600327706836469,-3.307357232981278,-6.351938742172503,-1.116312537669696,-3.9505773675513822,-8.499841274845204,7.922256961649408,-9.112783490564867
28986,,-5.430639748158894,0.545856716777025,-7.59199565501301,-5.139775889357523,-4.889859026808774,-5.969186907980521,-0.2150074653363209,-9.530070090855869,-6.437227358693814,2.7939659758167847,0.7301413810649184,-9.315173864051635,5.091203518063548,-6.438446905805368
29236,,-6.080812331152092,0.668176034991905,-11.0512996200713,-1.5062695956208327,-3.645208169345549,-5.080355308667119,1.8953606531300848,-7.96341235776946,-5.339967268152403,0.7547531777737927,1.5742667679962077,-9.643917956924708,4.446554908734627,-5.142248814509918
29485,,-8.746287027975017,2.1649157083722863,-8.38446760220937,-1.6770778157752957,-2.8316660428936924,-5.651673351294193,-4.971518111995618,-5.768962400905639,-3.8921749697102657,-2.782462778694654,-0.5682013726335795,-9.775727115090744,7.0434048635272966,-6.303363215703165
29735,,-5.884560201538401,-1.728070561558849,-7.998320869572964,-2.2196922183961414,-4.046884554400895,-6.232157183752603,-8.022642742268587,-8.049247300980968,-7.866511784452714,-2.2806912490513764,-0.8514794998393149,-7.508135129157795,8.06035735166842,-4.924780924648035
29985,,-5.453526630082531,0.9350053428757148,-8.549761203324064,-2.2808351324231646,-2.1322087136650723,-3.182486509175335,-4.786432994470909,-7.111124059636376,-6.962378526075954,-0.4347525624744636,1.380484109563282,-6.728247831842001,7.313822368392261,-7.3004950712055825
30235,,-9.342960115256542,2.3020664331015968,-9.235586616366811,-2.1377523332107438,-5.167977788625454,-3.5459803343837333,-3.8693164527142665,-2.797755948594894,-3.354085494539554,-1.400429669860455,-1.1644350867421047,-6.138191997090492,7.224550381102776,-9.562907459903125
30485,,-7.750426960344829,-0.4373206111319789,-9.43786996474458,-3.979084060919214,-4.316368428327452,-6.233754851806719,-8.221027867021709,-4.627988178629087,-5.202891268886337,0.2297192507667596,1.4028097607178227,-6.046845553640962,5.247737450967669,-10.13579145007725
30735,,-7.379806359777432,0.0727618012593683,-7.105821278449258,-4.390613175018709,-3.5143303873926746,-7.068563096033856,-7.5369511062945636,-5.556865003297244,-6.86136774112092,-0.6890485017779285,1.5970724737026554,-11.532314513755663,5.002073970993718,-9.414155355052038
30985,,-7.557498716989874,0.3614439244809345,-5.9743716036767385,-5.567786500125872,-4.520634224186817,-4.598644729174589,-4.915219119592682,-2.95534346273205,-6.778072913167673,0.6425257248438772,0.7686817691243055,-8.31814786714816,5.577121972059478,-6.718483107935105
31235,,-5.692509698350468,0.9914962238942387,-7.18967208873093,-4.899191578033667,-2.9011416161749453,-2.623375806745988,-2.4066973898454758,-3.6910626782233935,-5.691095091540311,2.622918410354579,0.1030031587593838,-5.258388733633681,9.118506634881742,-6.623043718438122
31484,,-6.672885057349937,1.419714698779687,-8.1047472213946,-3.0400003321675824,-3.193905514857579,-4.757391575134145,-3.1479760833222543,-0.0550226593681947,0.7467947831037955,4.54473263758238,-0.9466220017629396,-5.1188791881212525,8.509650265837443,-5.674314573900878
31734,,-8.061456458857426,1.373852900819591,-12.75736857072227,-1.6761075297049972,-4.053104848712553,-3.050037299871402,-4.258499094279735,-0.2084244723715538,0.8804108358879231,3.163416543809631,0.2571268223414565,-6.035627220786713,8.23801773754128,-7.167684048058932
31984,,-8.48925498498285,1.740422733927983,-10.493327044104728,-2.3432378514814007,-2.185604989490868,-5.069216369489777,-6.234829287849482,-6.688924362041364,-2.848632622040628,-0.2565676272000328,2.20611872735466,-8.264280721450023,7.418438156470733,-6.741285806362929
32234,,-7.0020908619640085,-1.3426374248769757,-7.901346663024562,-1.4994111911074,-1.8742503736486151,-4.709574489823661,-4.992597518194834,-6.019767032918228,-3.956052570944257,0.939799574639606,3.427318036510594,-8.81863126754532,6.931605327052049,-8.176111728704814
32484,,-7.044827330180588,0.90803446401331,-7.771824564575147,1.0415960947750391,-0.4896185897611988,-2.7162165389934185,-4.028667579261808,-2.814962944941199,-2.9663963783890166,0.6769395247617882,4.542522051065687,-9.114438876235669,6.717522203822018,-7.315713666724273
32734,,-7.712540609269194,1.8552406924800424,-8.774528120462525,-2.769317936932772,-1.3337497275654338,-0.9625364126764512,-4.998847307602128,-4.916158362394472,-4.228080928313134,0.7273999693579013,1.2456613400733414,-8.558607541194235,6.325188757585853,-7.240440066727075
32984,,-7.612037466554278,4.099293194878228,-7.507932452666416,-6.951474210768317,-2.201818570694074,0.7945374741959941,-3.168948060575263,-6.299830290575223,-3.9975821192925833,-1.9939645382281437,-0.6994989458199258,-4.482649618574803,5.35555651682825,-7.50636706603633
33234,,-3.0565525049851767,3.988276319685288,-8.999564698033844,-2.9575381511193086,-1.5821125702405587,-0.3404703408877024,-3.303137139276957,-5.854262600660509,-6.076219014164041,-3.243235080659183,0.5368912602422267,-6.409999790905351,7.499444418970425,-9.660297270017926
33483,,-2.3850795718828053,3.2388600590539003,-7.302793357644001,-1.1833359214516084,-2.3287056326928104,-0.5634399894828097,-2.256775163684355,-5.771672245028448,-8.622278590049374,-3.735961430779253,3.784192412963748,-8.215849838155009,9.340074995248056,-8.814222528334811
33733,,-6.03036321548509,2.057615785786523,-7.795271249264123,-1.3837256988721809,-4.142758931723391,-2.1597255839232514,-3.9752600268425535,-5.283899065397966,-10.443663930836882,-2.994119669199286,1.924113354809021,-8.284810748743945,4.626243223963355,-7.129018019676243
33983,,-5.333372048425402,1.9354159287390156,-9.520331964187545,-3.88758884574814,-4.863220834270351,-4.513968580847613,-6.214716117813353,-4.265019507852385,-7.832272804754359,-0.959182073140194,0.0271326969420192,-6.30162953197666,2.9171570870194485,-8.01354058621557
34233,,-5.609914496277471,0.2098502795374943,-10.467313916684706,-7.188222969511014,-4.791411441589377,-5.072981064837785,-6.453930029745235,-3.992127560706789,-7.625852353754468,-1.3369825550489276,1.7764758084869898,-5.3398229917840165,4.753419798187581,-6.630075756385634
34483,,-9.307656246144331,-0.4917779389592259,-8.951334968137258,-6.139838120449975,-3.819048999624726,-4.3621394111530325,-5.939359630331048,-6.644735113836443,-5.412388405081741,-3.511114519350877,1.744216235740368,-8.719615011623912,3.513687546706312,-4.828475645180793
34733,,-8.53096861862222,-0.8053006477566717,-11.086728588239245,-5.504335919919608,-4.684431258309778,-4.285970569474601,-7.3180231143924,-9.999029645007852,-7.078410003148391,-1.6751726007811745,1.3495667976224344,-6.015667931090729,2.4125645924519743,-7.729507718640772
34983,,-6.108452367405404,-1.38543257612078,-12.608970198601778,-6.635003257496717,-5.855246591620609,-4.138725363858732,-7.953590448045751,-7.595137104192304,-7.118585289237656,1.6461818644097868,-0.2486933039019295,-7.024795666680807,4.0257477524209415,-6.764836025723366
35233,,-6.604538804089649,3.986303832168824,-11.881183740887074,-5.766633039607877,-9.09176558475971,-3.632857228829223,-7.365249323923088,-5.7540422706435645,-5.892126914746449,1.4009474598867144,-1.0052702646227187,-7.023710531632068,4.981585885247846,-8.547788642584957
35482,,-8.262170127140433,5.54764027561927,-10.718981248557672,0.4840310313755491,-11.520511992767686,-4.929159470655661,-6.220234525267745,-6.282468773161522,-6.905665718066882,-1.8691588656599825,2.337751722606204,-4.409700276419927,6.860249668034588,-8.55520798008791
35732,,-6.211151626061522,2.1930614361224943,-10.47938833159721,-0.5403327626956466,-7.4622292643879105,-3.6130761028547886,-4.183344252658573,-6.6073271787972745,-8.120910842099132,-0.7368066989860512,1.0124872845418944,-7.418939063370347,8.260083606014456,-10.129147319214717
35982,,-7.632006447545738,1.6512538951647229,-10.172069942258686,-2.318166526088167,-6.5631469788203,-2.643928296655618,-5.915367313595906,-6.480111138803979,-5.422245043795289,-1.404165957058123,1.6643441456399846,-8.561709972966444,7.040223056086776,-9.53060140509169
36232,,-6.314419898090788,3.994167252768429,-9.057625145617848,-2.439142482210141,-6.821500970942449,-1.4371731028622172,-4.832806209701276,-6.595922952410725,-7.612120668414027,1.384671647308489,2.3029007847287533,-7.16940769753966,7.313842478147925,-7.275290265007328
36482,,-6.270364392575346,7.300269260046184,-6.131353853555107,-2.5392300854150736,-2.5259188671860846,-3.60874768290856,-4.619949922059905,-5.002160744654991,-9.750732731898164,1.883467138004792,1.7180931594375783,-4.200459935177788,9.770524531035678,-3.3319403190862653
36732,,-6.959250310403661,5.915310087115157,-8.624541965696363,-1.9239515442572972,-5.007360252521438,-4.360880640712517,-1.874460920030851,-6.456253138738825,-6.265731060618951,0.4826189153968375,-1.2628116004063092,-8.080095644607495,8.236116423820894,-4.955421376082012
36982,,-7.1298183516465885,6.114135634793684,-11.579915553646655,-2.663663707045285,-5.808567916737884,-5.223939191641193,-2.7712630072546256,-7.074550838724605,-4.334801641521612,-0.1244652992402365,-0.4412531231211919,-8.433197438650893,6.961626009010141,-8.628506947559085
37232,,-6.386878604290327,5.364543386101593,-9.45168460055866,-4.806395318259655,-5.6212750493241455,-5.498956937643007,-7.031038514559482,-5.267623973999611,-5.439472078380278,-0.2557588628581361,1.7610789311096622,-5.04270140878622,9.700289357645971,-10.706076287286685
37481,,-2.3057765885410464,4.710360203105187,-11.579603866990166,-2.4726232247401,-6.70143424320991,-4.68805725611709,-5.647879152006594,-5.097603818518202,-6.114433483807592,-0.557769146969599,0.4882449825458406,-5.480962077279398,9.84240952995216,-11.24953111191444
37731,,-2.8651191390048485,4.277739892266346,-9.732523271200073,-0.1051187701083159,-5.152579109374128,-4.2952610513940055,-5.60758665258785,-6.8440779802521,-7.161571716890636,1.7730524591589196,1.6109440863546776,-7.533217713945753,7.9115596199192995,-7.318403645124915
37981,,-3.928734398103975,7.082761428948782,-7.710309129943576,0.51450407566865,-1.3283960951410343,-4.891678594079714,-7.629198860845687,-7.080529819292257,-7.999862477158101,-0.3638544299907881,5.728174367289581,-6.543811778582561,5.957916403459645,-4.481059588175577
38231,,-3.255833786892936,6.474329514907421,-7.669130736568947,1.2428920893500175,-2.3916937139548806,-4.147942826292701,-8.678034369165164,-3.8454020510793714,-6.841697204351675,-0.221539350586041,5.236965954574647,-4.893751979734585,7.693659862050802,-8.9339583249346
38481,,-2.499882161506301,4.582442859853376,-9.6242215764928,-1.3159853344782435,-5.517135944064765,-3.540641726052875,-4.257512748282054,-4.491144498259284,-8.508229733132216,-0.8699128443766404,3.4116406515117155,-6.209553927199015,8.451081997934994,-9.255417747377033
38731,,-6.949367252924774,1.7910964183103752,-10.303989008952678,-7.332489728899096,-7.616835086040016,-3.634478549217161,-2.9220489036477777,-7.402967151145441,-9.427457423062908,-0.8001562350249243,2.4628448404331285,-7.165384997771427,6.057370717525032,-9.754675921473805
38981,,-6.014508674645912,2.018971229072272,-8.073519085171231,-6.148463297026414,-8.659019263456493,-3.4948618902363955,-5.710948253957719,-8.758179573694045,-6.862122376384986,1.442586294356924,2.085453984764238,-9.542425513323764,4.975373661094704,-6.589219865397519
39231,,-4.146138650730022,3.445467869745012,-7.740459620878282,0.067572807313713,-2.668603418417006,-6.535215927725061,-4.451794923893309,-8.570728145515984,-5.918115119056669,-0.202240195217087,0.1616781547155191,-6.766118447502359,4.597086259299904,-4.321448505145948
39480,,-3.489017713362887,6.33864032087634,-3.8171147475512974,3.1282652577068526,-2.4105488746198542,-5.365753837782493,-4.053359563568256,-5.9287535566737946,-3.1417525578315857,-1.0573330173677766,4.020786758612535,-6.652960837312897,9.364276826459736,-1.571903859193093
39730,,-3.97147267419503,7.798649880275748,-4.612875463510751,2.1506805580632,-2.762531108589686,-3.766219023215072,-5.295061092126925,-3.88309679521867,-0.3866802617920451,0.8332266504309713,5.017331505995012,-3.1881138351055065,8.989406592747661,-4.971503236669734
39980,,-5.84505254148519,5.906680953870094,-5.702800879804291,-1.9868698945947147,-3.3261179927590803,-3.946815147765867,-6.595853173564135,-4.995484832402951,-3.3147033561602277,-1.618978325014525,-1.7744152902562995,-3.0368710187054573,6.636531507811172,-4.188155975958912
40230,,-7.932640099446826,5.624063302342696,-9.5051930976542,-0.5471004415275591,-6.207655786498584,-5.136515710655278,-12.48660927698648,-3.5145402304054967,-5.233447797579464,0.472460993025828,-1.1193028360116757,-6.430538598082402,5.475416355602578,-6.077198411311454
40480,,-7.998121007720177,10.583995548545891,-7.3899089807453535,1.5134167683427933,-2.6170182760597926,-1.1208304919888383,-8.65248298106425,-3.3872100129109035,-6.078470757584318,2.1937016488986054,5.166181851050281,-4.996815462262756,7.667915688109643,-8.626802142114467
40730,,-6.526081815528903,9.544772579778488,-6.413077823398128,1.3337437782497852,-1.3762303145165111,-0.9467800892489088,-4.136974210793606,-3.8003844086746583,-4.272162762580543,1.9988935246243908,4.714016942813652,-3.2957767501433297,12.59946400404495,-7.481178076325864
40980,,-3.5243364780145905,8.314219766196878,-4.249679982127367,-2.8506634370149038,-2.8776798714201206,-2.235548601651755,-1.88245814002289,-7.922192033085343,-7.173425021577989,1.0934775934194758,2.5452356446885283,-6.326714296810313,11.54868106514992,-6.644431618715334
41230,,-5.572257923561588,8.148954888794739,-5.634760304447526,-3.699985268138017,-2.265279595328157,-1.9912898098327636,-4.094443679314031,-6.490413524675336,-6.928435987389847,-0.1276203800957804,2.7755192173286063,-9.178751382425531,10.768126877390422,-1.263070436605822
41479,,-7.997978879003864,7.145016189205328,-8.761805465844768,-3.919517805680587,-3.202581024046357,-3.0783891962429566,-7.889225907052828,-6.695918295662967,-8.667893649507235,0.1440952958956092,1.3310233797913251,-10.219913525739866,9.28866575082843,-1.501248773950813
41729,,-0.8661229001287046,7.8997716007008,-7.265353064811876,-3.2365499890559795,-1.4417918053996277,-3.1634779438203435,-6.612507236445867,-4.46365209674351,-9.835167071635349,-2.115670011503017,1.4475134617597338,-7.822159316311225,9.483350069163208,-5.321342512617118
41979,,-0.1919204638366792,4.685950947568654,-10.404200715945247,-1.4364823020448758,-3.011391357168544,-2.517067042722192,-5.617367200955924,-3.8046527677347024,-6.879949535255168,-1.0506655774715303,-1.6650611705095977,-8.487151405002757,8.505257129562683,-4.562652037780481
42229,,-1.7647541498681103,3.555907145110493,-10.2182074588538,-1.3250139417981175,-2.0370056673637347,-1.9044563322585777,-3.948447796914599,-5.056600961330073,-6.271018786995152,1.574584356769163,-1.531868484226839,-9.926029926023874,6.965719193604807,-5.733532449826738
42479,,-4.145524086465258,3.380032982953514,-10.555453014376935,-3.248286420646082,-1.151563340910354,-0.7871468037989306,-3.128355333618794,-6.279239623125372,-4.854242949684139,1.3625630139130225,-0.9019901001216416,-8.235549281426165,9.41023903987103,-11.42326929908583
42729,,-6.40265829700616,1.7266059383734138,-11.078654281168212,-6.975735218880734,-4.636123681465742,-1.0138257523837677,-3.868881990471487,-5.944135044351489,-7.701573725221139,0.3538981959268767,-1.4371738503692664,-7.425977015018621,10.835318569930752,-9.73085540995956
42979,,-6.918879696954747,3.620217024193158,-12.145901919196213,-4.553632845717729,-2.988656567228254,-1.8249131626746984,-5.630593151514374,-9.135765826619318,-8.455961709386846,-1.808219745207817,-0.4525658328574793,-7.851895164755058,9.999699347031967,-7.882002469346007
43229,,-4.159289631032237,11.72704550211707,-5.90923718973242,-2.1554144847928614,-4.872707803205251,-1.6555607624791628,-2.129226415165571,-6.5869183211284845,-7.901017504325882,1.309153854707657,2.7820643117234587,-5.738675301169271,9.636115992616496,-2.9466922531914275
43478,,-3.546563758478411,9.983910805931286,-7.869890325069871,-2.141906966002635,-3.7789038256489698,-1.9638543154357773,-1.1926309095807717,-4.089840845808162,-6.166300276366497,-0.9199636976527716,6.268671338901174,-5.198436768920417,10.180024849876688,-4.134299046277968
43728,,-3.201702760098965,1.1904377302651787,-8.59838186713305,1.4348612747060936,-1.937613330606036,-2.687857732972957,-2.7422317401353795,-2.8801398833579306,-1.922969055710314,-1.6244562972962149,2.514773659875935,-5.319333869503816,8.794923869330628,-9.66701237820821
43978,,-2.6641972585183304,-2.8018394724496662,-8.5467288973641,0.4326182818237423,-5.544215853933788,-4.3993854193695885,-6.360232864671941,-4.469947901794315,-2.493235605019288,-4.8386391016013794,0.3376804078225044,-5.486134905972888,8.08746764033813,-10.989741996503902
44228,,-5.9849515339614285,-0.734332984674491,-9.659918041362944,-3.3393896618150647,-6.949805753193365,-2.3144680377176514,-5.870069552956229,-5.674269723188454,-2.2089375551024126,-3.753278842864978,5.118393368552816,-7.463006512582582,5.470628575837836,-7.914835101819833
44478,,-8.740577306557288,1.5475254431285503,-8.910748279488473,-5.621286388349414,-4.825428742689363,-3.9986595855388862,-7.61461328648405,-5.865641441935456,-1.4887942845458009,-3.133541161013137,6.6050236487098255,-7.901073688784032,4.823897100651344,-6.246499674391864
44728,,-9.035597615604283,2.21222272996286,-12.652836277859604,-4.761898247907592,-4.044356598512273,-3.3843944383100726,-7.136869153826757,-6.120899486457566,-8.671123468095649,-2.7178204891950264,4.273475702957072,-6.894147476698217,3.511072574900985,-5.507925418293214
44978,,-10.16521610237033,6.092119360066568,-9.03901241768992,-1.6888936328452988,-2.3846107069234925,0.9099384919121274,-3.453012436847402,-6.716500650398602,-8.599515585883502,-0.0979606837667493,2.291761906610108,-4.8991564736887705,4.302055293239508,-5.383532602468442
45228,,-8.361527254310884,8.597800570634819,-6.072828279608924,-0.762692373713078,-0.7615901486526526,1.7515382355223117,-2.3918804726450933,-4.009902893673361,-4.853210234180035,-1.2465947466993028,3.156821263839675,-3.886398609199817,9.720982475068176,-6.222656778296292
45477,,-3.872447961776944,6.351923851482052,-7.149097044003094,-2.0965895800586267,-2.291909070307914,-3.088890032153788,-5.059285797635118,-2.717851393609428,-4.324689425885408,-1.0739490058876755,0.856089967213392,-5.192964704701879,11.576641431948572,-5.422036768688975
45727,,-4.963939661091216,4.460651630087878,-6.877662773134478,-4.117429688553643,-2.6970221404408727,-3.519795632867666,-7.776147877131977,-6.3884947304243855,-7.1889666176238425,0.2604418963487214,-0.3740033574104408,-5.457277256973302,7.528980094889123,-2.7318663165151102
45977,,-7.829577281511389,2.948960868868473,-7.390549650467886,-5.458142858312767,-4.227410553421211,-1.587779293294058,-4.769470060117219,-6.363809691047777,-8.160950819185626,1.2319897488466711,1.4632747215089927,-5.041657464767687,4.466540992026024,-5.879511899725335
46227,,-7.241983809749834,2.8576887897888708,-6.807452038018656,-4.209729745360464,-4.4365946817226165,-0.9616627729359216,-4.592128854582508,-8.01446221579478,-9.509241546851694,1.9862976284144749,1.958753995943476,-7.150249438984125,5.867152332425051,-5.905067707121564
46477,,-8.202719281545622,3.741627338351851,-7.598501298799544,-1.459231623109421,-5.530417137901262,-4.904856333353526,-9.875574379542243,-11.91124495346616,-10.167934430654327,0.9890188296438008,1.3952795175935435,-6.371662832278245,6.07857324685617,-7.375308924067925
46727,,-6.650721186268871,5.132606558905514,-4.256305536794457,1.5266161212317466,-2.778242282203694,-0.2559331232819754,-3.894913201259331,-9.537898788792774,-8.690128123061504,-0.8655702118128906,2.17255336111168,-4.763732973054951,6.86517562623372,-8.173371040573006
46977,,-5.2856298738841705,7.301325863329088,-3.312379231508652,3.3027323425144277,-2.8281437460367718,-0.6779712052389174,-2.8263607643177373,-5.829819092976777,-9.49844075068674,-1.8214685343377632,5.7755986902221865,-4.044338518883106,8.74708481811887,-5.76195206258083
47227,,-3.482349048731532,8.223734680835825,-4.732922158242631,0.652791926598852,-2.820941024045818,-0.6119112605482921,-2.5305680655431964,-3.381995092801228,-4.940265075249319,-1.109652490162153,5.2074129010986825,-5.59966113457865,7.564638773635997,-7.307029833180646
47476,,-6.255675397363175,7.124046936803808,-6.533883766254229,0.5630860499328109,-4.081337694212154,-0.2208963059103428,-3.246223276581981,-6.383071923214398,-6.920581305871762,0.465148434095004,3.682309650778565,-4.485758657101777,9.096414247489925,-6.959162631577204
47726,,-4.691319446490793,4.405742455108465,-7.981483746562503,-3.350890961574508,-4.042019585682929,0.1773079480021019,-2.828838579883149,-9.724518300594363,-7.322608947793409,0.5460441757858865,0.1562597105831471,-5.83564655718114,9.788034381677202,-5.793617483601371
47976,,-4.792427336006449,4.408765896447568,-6.919491555453669,-7.435633246817757,-1.715109680162382,-0.8215555321053787,-3.6721717724710894,-6.488883365758559,-5.809789941824412,-4.368865989486544,-1.5122243809839988,-8.988493253731876,8.674545443796774,-6.463996469914639
48226,,-6.275218038555827,4.414165220698607,-10.592887352176357,-4.190049954571923,-0.8821257525221478,-2.2297197962252646,-4.477287385304938,-5.348330508081456,-5.612110701202324,-0.7003599880453938,0.4038136350416806,-7.964656866646945,7.674663193250906,-4.354020011859259
48476,,-3.3975897866523264,7.859632338385781,-11.10168874619779,1.9538593025513,-1.4366820652927794,-1.2149542657917392,-3.104808304806949,-5.660456847847984,-8.324658964242232,-0.9024742303850758,5.539288826938227,-8.27243861582157,10.259786593227584,-4.301785274576279
48726,,-1.1483129801453082,7.898078310302491,-6.683083896185211,2.197686952379833,-0.6292440369248777,-0.5213683671709023,-1.2136633070024756,-2.887493627538814,-7.395846150441889,-0.4585738390618539,9.798842790438025,-4.442047883306709,12.516802189932186,-5.6038123879506285
48976,,-4.736299015092872,8.489759119446097,-6.098232644900782,-0.6609968653064515,-1.6669960532387176,-3.9219119906037303,-4.644319089142614,-4.776497598367648,-6.93646147702085,0.6310143137579902,6.718216746444706,-2.775062578324839,12.068776751618165,-7.05604747998578
49226,,-6.73588398428312,3.779421591857639,-7.6549619732327585,-1.4592991113893174,-4.885431177338228,-2.344862485337312,-6.6056536768273535,-6.559546961396656,-8.476228986876606,-1.9286404539903712,2.080924860318526,-5.116759446416205,10.813578585632664,-4.878896420393948
49475,,-7.693073500079065,4.379212196135152,-9.287759632984864,-1.5413976330026578,-4.265443116467248,-4.930307457564234,-6.954919799025996,-7.139064183147913,-7.032176778529423,-3.0520766156966244,4.176385873362673,-7.069462647690322,8.900479018407657,-5.485389755094131
49725,,-6.765959374766629,4.191777683237908,-9.7982139749134,-2.3433730065431124,-3.4033499797280027,-6.436867671957939,-5.216687995352047,-5.785723516834045,-8.046481382962996,-0.0856137712544957,2.484597938558132,-9.29033897088769,7.862890636986691,-7.928246445869606
49975,,-6.856644721211717,3.736750115484613,-8.065146852822739,-3.2241331178329147,-3.358782886213601,-3.889430573928056,-4.017975183303322,-4.590672795437593,-7.207896419044265,-1.153135355502523,0.914987567344886,-6.212687363089959,8.492574205162233,-7.609920708214474
50225,,-7.59125937479129,2.055675467192989,-7.715489615327722,0.4174207876649622,-0.5698226631673432,-4.061432224162776,-4.98382106871451,-5.453676995276916,-5.294016130251212,-3.2902451798602583,2.715999667381908,-4.831283029017589,7.925991434894646,-7.536845581522896
50475,,-7.0335846878052,4.616866790545098,-5.543770259273806,0.6688522049373591,0.49042849140112,-2.96399355474027,-4.777744864438272,-5.404232216793314,-4.448234821516848,-2.001512285066917,1.0146209533210302,-4.701159193688151,8.932714214407637,-7.410886843786301
50725,,-5.821599007461339,11.33687374194087,-6.405467327934321,3.453227729352985,-1.7163043440738286,-0.7439538554899822,-1.7040278684665582,-2.766602828607171,-5.302658501165276,-1.4224603290562567,1.7478346815748258,-5.186231719531326,9.97275883657985,-6.749252379702155
50975,,-0.7029756456258272,13.98784831344264,-4.265791999879318,6.168623612268805,-1.4588539085329626,1.5051475691741132,1.313635838725964,-2.2442701903606777,-6.778847164634399,-0.7875940725564896,2.2336665067375527,-2.9163555652044577,11.50393372851643,-5.024336291089861
51225,,0.483277839600584,12.018728361381728,-3.938603411217385,3.4984051454947265,-5.163284358961231,-1.613004750261127,-2.0726759282195912,-5.731665169301979,-8.105846163156265,-2.426926870593572,2.0723985720297877,-4.667814807194546,12.985857172620545,-5.653128600179933
51474,,-4.676863287744225,10.054329433528332,-5.522576141516836,-0.2291052460728767,-5.662578068676664,-5.539237651579796,-4.570376377664037,-7.919568556467137,-6.369550957071956,1.006765817825997,2.5443409135671358,-5.689354604330522,11.022643603578954,-4.906567316873428
51724,,-3.237411382358096,6.478050073041932,-6.371505542288549,-3.162971636006096,-1.3031700707460925,-6.8064527090916265,-4.930188231718969,-5.525339257795102,-4.009242664288645,2.757142374198126,0.9833368616653692,-5.125833715736552,6.697247134266895,-7.116672622744167
51974,,-3.703555460782807,4.828856396780916,-6.078463398584751,-2.6726640191853623,-1.7655894018681124,-7.577091076383484,-7.543381487125287,-4.006421542192308,-4.301849770214546,1.81622275997964,2.031936481930969,-5.0117867613397085,8.079577096149187,-8.82272764841083
52224,,-3.365670069989624,6.028571744233088,-4.85417079446612,-2.083149661994778,-0.8671397769132663,-5.994541386138614,-4.758630028386312,-5.377669570805295,-4.538854393190897,-1.477839257783287,3.067044213015919,-6.345809939396325,9.100924352005125,-8.392633245976453
52474,,-5.692764481287843,3.126549694991026,-5.827990680782234,0.2742916360262906,-3.75519388828869,-6.003228873429151,-5.866382821067687,-9.265644793791576,-5.951482207291808,-1.827214349311379,3.340091115509029,-6.997043893165511,9.19478342582385,-6.620323032882675
52724,,-8.584396483390531,5.756792907973281,-6.3052233088227085,1.8626150371187484,-1.1925282581626298,-2.3205333225020524,-4.855527380058222,-7.272033620549192,-6.251706139152593,1.696854102556702,2.9781535892735334,-5.287999026140612,9.78302706036345,-3.575467602587625
52974,,-6.6604203704857134,9.91264054639464,-3.504303636521915,2.931652158818263,2.5702710616681825,-0.7481903235357554,-2.8863703074705134,-2.850163899368278,-5.073984638935744,-0.2290659802876688,5.183946208514845,-1.1538714205439928,12.85085162712547,-1.7198340666520997
53224,,-5.446313181428256,7.386415572845069,-4.915315812902308,-0.686005916627524,0.7720985582601338,-1.9525642928667124,-3.970273243302349,-1.7923580882739991,-2.7351420247935474,-2.0244796697230623,0.195060578566283,-3.4871850527586834,10.95013519942071,-4.94983704507299
53473,,-7.845804943225973,2.39106933272444,-7.631422603276496,0.4877311926023239,-3.840619837692121,-4.3728291375684085,-4.199289804909077,-5.785364202319427,-3.1576434424591038,-1.3213718592533628,-1.187035213654966,-7.130925923699175,7.659561253135518,3.4095924481960385
53723,,-7.457945616505535,1.607407371421954,-9.903956996009818,-0.3005814333885844,-2.230483497105193,-3.2228632563990662,-4.208085981371394,-4.269103621783178,-3.4234061528488176,-0.6519608573225908,-1.418558060890719,-7.238348623246374,6.020921881071729,4.3579753182840655
53973,,-4.349969040830363,2.3319319731998496,-8.601524719500079,-2.986584563276816,-2.79501748030498,-2.2526706577868896,-5.446467557173058,-5.811426434542664,-5.400398938880818,1.0581631506530569,2.057706943878127,-6.009808059436001,5.735334401011421,-1.800331000191281
54223,,-6.8688158176811855,-0.4032814155992604,-9.92517853407938,-3.002536140125916,-3.397916679719172,-4.114892966413154,-8.329338856995658,-7.145501601637804,-7.945411229350636,1.1686201808903798,1.762791262521724,-4.937941099560026,6.443709435754097,-4.180459168038706
54473,,-7.303435905680125,-1.4636578270778242,-9.056297894933818,-0.5946336589318216,-3.977755447117839,-6.728545969513986,-7.432645922744556,-7.182555000801544,-7.958617649044534,-0.0801038922773904,2.0893652470804422,-6.168378591328541,3.5875248010347955,-7.829306806204478
54723,,-2.6943141133568926,0.8194748439805982,-7.504396493992992,1.5460525616097012,-4.538281491293054,-4.675090276426004,-7.518572772314526,-6.73592142694342,-4.262665343155682,-0.6648555983366549,4.800605414464707,-7.344416862996711,7.813015148254838,-3.500269873343933
54973,,-4.402438680369229,3.11713453337666,-8.669819355078182,1.436977376790889,-3.327343429706187,-3.195755183787832,-8.043751641082999,-3.870173172345491,-5.728247772963191,2.2390158050353777,3.244320682566076,-5.91569196343618,8.196493095432624,-4.972090154607657
55223,,-4.448668193167605,4.649834469705502,-7.160133596369951,-0.6791983176696839,-4.28873226821655,-1.0046441841767586,-3.3696913038292484,-3.5819593052286303,-7.8921826410842675,-1.7423424530442224,1.9951345991513916,-5.93086926758966,6.442768995672054,-9.665887782414496
55473,,-3.562403697172756,4.963811847615249,-6.214358626137955,1.264699046552422,-6.173066131808326,-2.923068427930099,-3.037489959123418,-4.0815601535470485,-6.381494969908228,-2.036579786672502,2.159671665578177,-4.511628509393331,9.035472057937614,-7.151731983754575
55722,,-5.644802881406572,4.910673374116862,-6.485296738808294,-0.2054265882848895,-6.946273588458704,-4.3818145327038325,-5.6758385044238,-7.173626625152592,-6.101955845698837,0.6530237669575769,4.331182434710263,-4.482084064685462,9.81874001697141,-5.710996615781284
55972,,-4.83408389436843,6.29888054709204,-7.250450543157971,-2.289235377922289,-8.574681187230235,-2.3377919231875333,-4.854146746120571,-7.497465129443473,-5.404382760039104,-3.571414783768679,5.589326455523027,-4.242295117418957,7.457049389836639,-9.122062396889811
56222,R,-1.5857388469336389,9.779220729936192,-3.4386451190616585,1.3212800493068386,-2.3525364457927145,-0.6870328122108924,-1.7855796753657978,-2.815864265532309,-4.766488504518428,-3.895220975585129,2.364047029392809,-1.2595893514047236,9.316601814390008,-7.994710322100231
56472,,-1.4931855381270396,10.72002768499512,-4.430070065978457,2.3698357802565138,-0.9766546304427028,-1.7267308387519933,-1.8612419296001572,-0.8781998618970842,-3.0681378407030846,0.2189176219317314,3.10729473464397,-3.275830303068303,11.541147590813551,-4.652434992985577
56722,,-4.189986672616696,10.747093939992132,-6.863274985719375,4.326691031743045,-2.819162414040179,-2.52157837162959,-4.145003711324947,-4.918091982872712,-4.464134740034162,1.4501336372432183,4.67243594898336,-5.607866078807056,10.149674951895808,-3.340080868134612
56972,,-8.30912261395746,3.5337192788702483,-8.243193146808963,-0.8293998329554962,-3.1650364592459383,-2.9189977686091124,-8.33860121505596,-8.097069986474606,-8.79355833606563,3.143067024694827,3.9744395696954338,-9.550371281484818,8.436950362190364,-6.598970377654354
57222,,-8.445403075674399,1.68409133605331,-8.917880524734246,-3.9708858654799135,-3.541253795028747,-3.915253976758653,-7.006580247774863,-8.537598744045635,-6.907064640144467,1.14777532982753,4.477177287926553,-8.485106960313635,9.236860825025456,-9.550254021547245
57472,,-7.369680466608763,4.197634332685419,-8.423637341200521,-1.8587828333153436,-7.275720185378195,-4.046296510024701,-6.265748530081424,-7.479954908406103,-4.771220110917246,-2.365848570871788,2.6838085523200554,-5.353352117208614,6.900970581682433,-8.576636404065423
57721,,-9.52998433022504,0.8702797626874536,-8.090803006874483,-2.1266147607925827,-8.872230613959545,-3.605154452693165,-1.583574865745649,-4.371266199190391,-3.341616326565762,-0.7011563252313292,1.0450698327804733,-7.792085598836317,5.061936471140528,-9.199266578681009
57971,,-10.704921827316944,2.8617547949433515,-5.201545615519962,-3.184110245529803,-8.160386502354461,-3.420361723067218,1.3724791682337858,-4.745119771519475,-3.184588397723612,0.9618033911455538,0.4925413849626758,-8.049445332619214,3.1100437246696204,-9.60367476602212
58221,,-9.486645153169295,5.8753747183569,-6.651914898721153,-0.9963326048195192,-5.1224887036548425,-3.495621930624773,-3.1989948867087654,-5.971378187083793,-5.163706440803186,-1.075068432908605,3.375521538561004,-6.7902130171327935,5.657741305895808,-9.941173729608424
58471,,-7.321610639156086,2.3319991104583297,-8.477968745266669,-3.273765542463326,-4.394253713356177,-2.310818569320501,-4.390521067623755,-4.83350435458496,-4.212412488808547,-1.536225734535778,4.241013816424552,-4.340806069203596,7.281818360691307,-7.899112340715325
58721,,-3.107787720866483,-0.0234799429262809,-6.90204553661208,-3.5198052182551685,-6.03656255122273,-4.146817705804192,-4.7994231577611375,-4.139134604786376,-4.1647776391198486,-1.1476412300251806,1.6859254072414,-4.804570999501975,8.615973419176695,-4.934787208207865
58971,,-2.7587753113842624,4.5024123921222206,-7.72717328251982,-3.36565294622644,-2.588005555341908,-7.34689061835303,-3.89662452933665,-7.25813900668369,-7.418305310135965,-2.756525770506157,2.3769661013865147,-7.405802221151035,6.331460852954796,-5.6957833825190685
59221,,-2.363285915531227,4.121125727641167,-4.618623035457073,-0.7984654877298792,-1.877010086696102,-4.891840825860783,-3.128143897193549,-5.286091048860365,-7.155925208963713,-4.636660797169505,4.038162423128172,-3.2687261099309524,9.93132742235656,-6.721571408650336
59471,,-3.888928124097008,6.063092102667848,-5.484769706949162,-0.2088624764022094,-4.826389417289748,-2.204211763345288,-2.897137643021784,-3.0625914465606656,-5.332156015019784,-3.096198431936455,3.6884714343328966,-2.712097357401075,10.43476622935065,-6.509775946444904
59720,,-5.885871409394262,7.324074739638577,-9.127658637303128,-0.0491155782646968,-9.71821703261787,-2.991598242638951,-3.89316571504267,-3.6170847991064417,-5.449097274618021,-3.0703518177487426,1.7394748580532706,-7.9482725006069,8.956019134453785,-7.241332213500245
59970,,-4.521351218683084,0.733537877833013,-10.24186916069408,-4.964798869945389,-8.765820856082827,-5.832491148521687,-6.122269819890583,-6.1390373918922805,-7.521570160407986,-3.476704548520531,-1.1282137250741116,-6.9013118619027205,8.984404816883647,-11.434557390229278
60220,,-5.9290487903526685,-1.2788876201862818,-8.384623625929263,-2.263214860081115,-6.383657523317334,-5.689829069323277,-4.390550356513812,-10.141267802667764,-7.5794876747345405,1.9535583845078293,1.128568430155369,-6.3914419567905965,7.277760373409992,-13.151275321257843
60470,,-6.18268411356625,0.2858228691353826,-9.395504483348196,-2.3800609579585807,-3.8130838013096016,-3.999019345192049,-3.9598091471479617,-7.331165563143999,-8.312360025772593,0.2487752902148743,5.668958180799613,-7.624448668331194,4.150869386380865,-9.111237385657592
60720,,-7.908966945322046,0.9897246804873934,-12.686474243238514,-5.302999413598057,-4.142757724760426,-1.4692163591877228,-6.265382190054018,-5.539704723070703,-6.974462987478454,-0.8264501975585887,5.647852319588015,-8.669934769234946,5.915103268441872,-8.86816501776252
60970,,-12.065607663298694,1.37723236470629,-13.380665113482488,-4.486649390435459,-5.846598847215152,-3.8678088375811015,-6.323334105720995,-6.527622435561718,-6.608125297632041,-0.1734566937729274,-0.3330131200263081,-8.36010770189912,6.031371641500129,-6.655897052913865
61220,,-14.826753329343806,0.6163748266698774,-13.780349330718238,-5.454892171452316,-7.136939243120994,-5.585239227396307,-5.138765477226266,-10.218786847547744,-5.468109309300845,4.723908295077779,1.853185817705385,-9.145727478393477,5.788606369387218,-4.882874888285823
61470,,-11.8454226844112,-2.8417418967512216,-12.71663906773025,-5.5205262798509445,-10.240380014910327,-6.751290543212418,-6.105515045758022,-11.532209385538197,-8.077033617196019,3.509121733191649,0.656532318636729,-10.781427794827191,3.9816072871227504,-7.135167094851119
61719,,-11.30868630192106,-1.4862962071600987,-8.60906147997801,-6.346517715895304,-9.99687293235953,-9.31985364441412,-6.076322904802383,-11.270990271669454,-6.18146114467671,0.2645490443836188,2.366223199357464,-9.187424195347887,6.068848929443219,-8.19463182420034
61969,,-9.028062055212253,-2.8801326934690645,-4.495346548298,-4.948476438928538,-9.002311301142518,-7.572714853586673,-4.903364056254002,-8.820193098552648,-4.4131703914586895,-0.457341295137,0.8380729473437959,-6.500742298323308,8.852665209289412,-9.872154668233414
62219,,-6.698243084321906,-5.060892836096067,-6.4111589244153,-6.482668635620101,-8.214508746199101,-3.583179209999598,-4.728121611626527,-5.564833777801349,-6.703620673306469,-0.675866316309034,-1.991665089990714,-7.227947664610975,7.686773493083225,-10.081794122144252
62469,,-7.62578470044841,-2.885083470084617,-8.375109839909879,-3.789786287694504,-6.611341245721835,-4.321042974609053,-8.237242942920933,-6.725502439500952,-9.383941957382248,-0.5047794391823253,-1.022002894717155,-9.39689760263432,6.381474962740128,-8.632756165061563
62719,,-3.313786164554542,-0.091151443308938,-7.978610201806861,-2.3767278231323825,-7.681531485671931,-5.482453630051733,-7.371203027291737,-6.269264127023284,-8.695593611383321,1.5899812553975536,1.9811262039879276,-12.520981304866494,7.607272237971252,-6.836654687279298
62969,,-4.023049469752142,2.188858786518441,-9.408511430692732,-1.9100648011175188,-8.085838016948033,-5.698845157694887,-6.603492332591956,-5.101287349736543,-6.9275036546829085,0.5951815007767101,2.351244127843485,-9.037547498299022,9.06144075750202,-8.540812245432821
63219,,-11.302755498886327,2.284445990257036,-11.84866169979027,-4.015353025040495,-6.5131349659497575,-7.307613652318729,-9.179763332957352,-5.340445148712289,-3.143923790202253,-1.6451940075127052,3.2607420494481234,-8.256389003913473,4.661945453645975,-10.389540707161624
63469,,-11.923052497856254,1.1017494082623105,-12.071834584349864,-3.939024981039141,-6.435802044884986,-6.26211963152199,-10.036605465370812,-5.475481534353671,-5.131738433022534,-1.1909589963452991,2.300459556700391,-7.5125571096700945,5.317932038418213,-10.618076716938338
63718,,-8.169801377343232,1.6920749115058111,-11.095103369695607,-4.7577918774031165,-6.966390217932419,-6.765492754442336,-8.569049370519874,-5.506938481799223,-5.632364644849373,-0.6057642817234627,2.812466940592333,-7.653499028116627,8.405048171142525,-11.143351272241848
63968,,-8.02388391282787,0.2152270450866001,-12.004695576700597,-4.772562886052859,-4.455318291122986,-4.518225221395022,-7.378584836476502,-7.663978769388954,-4.858096923551486,-0.0227287295615662,3.373510385938137,-7.649417064521202,8.404391086905894,-9.16560421588776
64218,,-7.066171696464596,0.9252123800243868,-8.304399945788747,-2.3736186892769195,-4.876680410859192,-4.229785843195967,-6.4975777803528025,-8.528816542598658,-4.955325344573581,-1.1229373012879704,2.051302395247678,-6.81322194707911,6.654340196474688,-9.825574857897298
64468,,-6.6992856667617104,1.5010767475770557,-5.483623778381861,-5.207014846174783,-7.764588527154805,-4.263291287058028,-4.243179118329364,-4.89504935624813,-7.120877104935448,-2.082845381290313,3.055921088985521,-5.01755994748976,5.16510453653249,-10.548266644333305
64718,,-8.554712749171895,-0.5764286081487493,-7.487829804965218,-5.393510511952655,-7.564889022944108,-5.289561490865793,-6.842018945602161,-6.183625634356068,-10.69787570509841,-1.028304549006239,3.898861982339192,-6.248037350798996,4.995934277245986,-10.095509525793076
64968,,-6.381377435285016,1.0728791741296315,-9.76388037393992,-6.893635870025678,-9.34768938834352,-4.833262395033393,-8.857403606671216,-6.467437517426633,-5.357410293159673,0.668241966284044,4.702793727881066,-6.698775778590389,7.372017764986722,-7.341727392469943
65218,,-5.827950425849152,-0.1222459050163438,-6.680084792580204,-4.092609567899325,-10.117331254832582,-7.371387948717095,-8.393891853355196,-7.414971604136506,-2.778700879164904,0.9565302149438892,2.6531582573187498,-6.536720466174522,10.09620616765356,-8.306914635687102
65468,,-9.091972695185095,-1.6606837269163497,-6.959136037368559,-7.743053453107381,-9.012486034942508,-6.5332237604540495,-6.542534106618342,-9.19536151598476,-5.779667589044045,1.1118139470523083,1.2390218706098302,-8.520663558524678,8.768013509728888,-7.62263984448396
65717,,-10.28734372793484,-2.3726605974216475,-11.615030783714108,-8.260087386443931,-8.139714800629882,-4.577931677551835,2.800736550368301,-8.935749262373013,-6.851353387851963,1.6029536273764988,0.1860384498852469,-10.716340245778976,5.209844490278178,-10.02899340644847
65967,,-8.54253812526575,-0.1061236279573847,-12.836154378576316,-5.952687695894445,-5.817346893817691,-3.522642951150929,5.200953188314076,-10.177320739684104,-7.956234372159491,-0.2250097197369283,1.9197143277679447,-11.453369856027749,6.664570243356306,-9.39773039291409
66217,,-4.023366969366084,3.795229394545889,-7.459113265724804,-4.486638489660688,-8.411762539981867,-3.7305417269807184,-2.9889778666966045,-8.206537834196002,-5.196912523671994,-1.7078649893127058,1.7538687960536747,-9.102307476500766,5.45697083577844,-5.902753023439361
66467,,-2.604710679338237,7.659843967683926,-7.378367305242622,-0.8296225144726725,-6.273872969948492,-4.495049999639673,-4.674198613829439,-5.137484283687872,-4.654432520957065,-4.208393046848715,3.538316391838344,-6.713025868493505,4.667028855550386,-6.313630801876174
66717,,-3.871987567283095,8.536388955441614,-5.649755111180656,-1.324997860868651,-4.710440096071616,-4.663222737382993,-4.47849140323095,-4.743788356947637,-5.968182832027274,-3.093236111078368,3.5795373104218617,-3.7716421440156673,8.288391749218636,-7.679602392393575
66967,,-4.423256007910167,6.6500908393632745,-6.859252056590525,-3.8378631181580767,-4.173231752666611,-3.9145009897020486,-3.760330685858904,-7.659332440136735,-4.927740628213347,-4.158401386412307,4.791347680930345,-5.996399836322927,8.278281326807823,-8.906678355443722
67217,,-4.017171284697464,3.997057892958492,-9.789700368099536,-3.06250298750315,-2.619822841322681,-4.035864670984227,-4.165133794545815,-8.642752133459265,-6.28520951471606,-3.34402997236761,4.250509943828861,-5.662177910580134,5.012275751918047,-10.24830171790893
67467,,-5.990499326601641,5.982300875911808,-9.933721004996078,-4.436814318521056,0.0085957762924417,-4.456103506740136,-6.889315840403276,-6.840902081840328,-6.56238126986792,-1.1329662637163345,1.1631664455001054,-5.268533520281526,7.3009714188859025,-8.463929465913333
67716,,-5.290527459695584,5.723379826774481,-10.240561009020436,0.5410560796530453,-2.4278769490793337,-2.258093989522974,-6.7818578073572775,-5.063932533437187,-5.520878796683338,-0.760320463281376,1.4760410199131906,-9.289240820903276,8.446539938055036,-9.0717091024865
67966,,-5.96652579775741,2.6530584370131427,-7.97136507892928,1.2261316029927114,-6.467417270567265,-2.013577741949396,-6.244434652372409,-4.353131950425651,-7.198153889625548,-1.864914265329512,1.9071725016478909,-7.112935624832354,9.421051591515887,-8.754748278702479
68216,,-7.687947441172276,-0.1091880219084304,-9.084094264281031,-1.961540444263175,-8.42478274606468,-4.043473734501048,-6.25791431223173,-7.05780917952108,-6.652399362063241,-6.126661804722686,2.449783469029572,-6.284467580171985,7.072614751485733,-10.518039638743504
68466,,-4.98872564244653,1.412204738687315,-10.314971930602496,-6.821143008738567,-5.099899785407929,-3.109824283238286,-5.140065224008787,-4.674206247482184,-5.038333358085909,-3.624579028353895,3.4215520352173163,-6.814299083922192,5.80458751456406,-8.803080587662519
68716,,-4.119874866409537,1.9252870950909744,-7.189876895680669,-6.735345890421199,-4.280938948028126,-2.6118815806356146,-3.778336824552473,-4.851261375749411,-8.697729644347898,-2.2078692424989383,3.4915278387490254,-7.233177884137037,7.133165897449669,-9.609122220581668
68966,,-5.748459775884715,3.887422313311588,-7.659457236794143,-6.366621068339649,-6.755991873429357,-2.6759840447847805,-5.980040872897614,-5.611979118123597,-9.735180718900452,1.7208269981855588,3.4955471424660143,-7.8917520232425185,3.124505119148236,-10.091899815062666
69216,,-4.192589930684713,2.602045061797136,-8.781769538814379,-4.696916162781878,-3.3910173069263587,-1.2896693729133784,-2.9332342022269406,-8.784899934084931,-8.753789574431147,2.549459125693419,3.26065303426651,-5.914149612177619,2.2476064322194422,-8.226988763310812
69466,,-6.628931792191873,4.469519454166235,-8.853874104969229,-4.144014450232454,-2.860963349189213,-3.1983801284107685,-3.412565892128252,-6.086081145190895,-7.329920229946848,-2.360790517241792,1.3815108366184112,-7.972676122801507,4.708020383562486,-7.845558956923194
69715,,-5.407997768827205,3.790090423379661,-9.322330657237991,-4.8491923080369,-3.1550774856396253,-6.4890753820490925,-8.25772750511226,-4.923322207549078,-7.0013011545125625,-2.126010203843638,2.2082766952353245,-6.434672310841445,6.472799596226929,-6.389493483073933
69965,,-2.497797005829576,1.2812690611177626,-10.019238012978844,-2.199068969996877,-6.79995277227934,-8.020023487690988,-9.0068374511867,-5.969996785129959,-6.902412332309968,1.136322511437918,1.5026004334697185,-5.73310466989378,6.351165761065751,-6.4571465303193065
70215,,-2.3199819760691347,2.099416673050272,-6.704308677757735,1.408192524438939,-10.07124336148992,-4.51517442778993,-4.687287259842802,-7.298612822295047,-7.102521568131408,-0.4895820877569745,5.623218365634655,-8.750290446798937,6.611450726448976,-6.739302776074036
70465,,-4.97512407858651,0.9238642975521878,-6.307047447920215,-1.4995116115192588,-9.468398373453738,-3.896204564296154,-3.328918294073313,-6.31013334979135,-8.89355324381155,-2.464532769349364,5.857767370019287,-6.7950077735003855,6.289883267554388,-5.492441709708799
70715,,-9.237627161682394,-0.9237936267818976,-6.571037827791923,-2.561860887449368,-7.019027913698315,-3.4056375989085925,-5.988833356679297,-8.274990308112296,-7.082823898001045,-1.5010375363298547,2.5445065614429447,-5.325741269336368,7.124674912511808,-7.56778822542786
70965,,-10.375483791667452,1.1377182983019336,-7.037150797813965,-2.156784117440511,-7.222043892352077,-4.5142946533198725,-6.631919757404459,-6.349866156103099,-4.24122499450516,-1.437488789226717,2.754352459082657,-4.157728639626714,6.064893798750093,-7.49290153909474
71215,,-5.65174481999097,-0.2601228469184854,-9.000350468845172,-3.953879717970532,-5.039731649225469,-4.407754572685266,-7.6641600478073695,-6.246060957209964,-5.255253008178361,-1.7670066535405249,1.17417649701441,-7.007007513706244,5.36466482437657,-9.82120949805356
71465,,-6.107431585533351,-0.1783138413250361,-8.148139114327805,-3.699830708136011,-6.360552853469679,-1.4057888112297825,-9.86351638471718,-7.974562427459143,-6.869270518273397,-0.7329682178549962,3.147879695197612,-6.591256146405136,7.162022567118791,-11.28869751767801
71714,,-6.088751126413979,0.0874369472663191,-7.862872975802859,-2.32411688726274,-5.904167860048522,-3.190399355913858,-7.31874757261181,-8.385265601871259,-5.752831414176733,2.1438430404496205,4.775126846940171,-7.954671158869901,7.754813935532747,-8.98370643629414
71964,,-5.417631018148015,0.1667295778446943,-11.717313983597094,-4.513288368252002,-4.68922411588872,-3.97055642711843,-6.691867559016851,-10.13137472651118,-6.008231131831252,-0.9518969889181752,5.059891609771507,-6.92369011062565,5.901312364542033,-11.325342185348566
72214,,-5.455506532505453,-1.6440556695251776,-13.586756652876552,-3.2498578540877894,-6.741582990542919,-3.7213987481903454,-5.26868957521362,-13.859099110680358,-8.490656024414388,-2.067569139124028,5.13821898062646,-6.96808896257242,2.860615814860256,-11.675930636423688
72464,,-5.091265256147955,-0.6543363923849699,-10.956385229116856,-2.4388762608670365,-6.097552570104213,-4.102570547767899,-6.061158656286708,-14.035849583142886,-10.25982625796708,-0.4623840693977928,0.8205306883934894,-7.017232209093683,4.899081513312122,-9.628685505588052
72714,,-4.947428327425096,0.7502063016697063,-10.853091312089015,-3.336840825512994,-5.53993296252535,-3.8965618995786526,-7.921528546599545,-10.834410008715029,-6.287571628752296,-1.4763615272843391,1.77538570004711,-8.424311851362047,3.9467073578115546,-8.55247637167155
72964,,-7.415386255738792,-0.251971736025654,-12.00875084015923,-2.166873156102106,-5.524660920596006,-4.845196959319707,-7.7714286879781715,-9.120308757181556,-4.898416835069882,-0.1554672333453308,2.3700912628475805,-6.70480163556506,5.219532974361487,-6.455108188138608
73214,,-6.316198264895233,4.01289649056288,-10.096352506217594,-0.863444145249642,-6.165937089305492,-2.4471167688008784,-3.343535722043041,-8.707448622220962,-7.225063644017723,2.4080321345872058,-1.2652068369776928,-7.579689517752044,8.61951363326299,-7.482744481646537
73464,,-7.552057930848446,4.687884135255808,-10.272499643576596,-5.051867068758311,-7.667877475566191,-3.7161880293286265,-4.367000086681865,-6.478015162474577,-8.76057384654791,1.7841393763652178,-0.5739865644248398,-7.285208907304545,9.056994521654133,-5.78327416780175
73713,,-4.876002325942709,1.058439020886655,-8.964437374225056,-5.593401051875833,-7.134055353977164,-5.145077545143769,-7.262707051435886,-6.644400856546257,-10.614106757743198,-0.6079554093341861,2.739512734046499,-8.797382563305273,6.505855755385611,-6.049089275164671
73963,,-2.1483844979200253,0.4624392401255826,-8.741124752916818,-6.743794334537671,-4.3960201549886,-2.9660018717746643,-5.594408580578891,-9.363745221688593,-11.415897767142695,-1.3087664363777374,5.3534495890301335,-6.773205240212915,8.540392809187358,-8.988615864408757
74213,,-5.0830056006380575,2.2631610040293886,-8.397415256702956,-2.5238507075714534,-4.200685910661747,-2.9173766063200763,-6.808834851758098,-7.0845314926955165,-8.73952213640994,1.31418984796825,4.697123383593792,-6.509496288913765,8.73315783706193,-8.90975694972825
74463,,-8.517462942352024,2.9968045162495964,-7.615096330374314,0.6815345290978075,-8.022633665782365,-4.945417769240812,-8.126596469281061,-5.517826338773089,-4.365596127601485,2.145563256408159,2.162199541174536,-7.706503695332712,8.55671655600263,-5.0345663928729225
74713,,-6.947008119294786,4.891151984314331,-7.846481383089631,-0.7009678835734489,-4.486422303587786,-4.56634338416958,-6.299443826297157,-3.966973431778559,-4.538532950743588,0.6861155391580603,0.3733213295362275,-5.215049426111541,8.48684994889764,-6.927814909054919
74963,,-7.734570950081581,3.857245353099299,-8.16211227338684,-5.120159709263962,-3.2430208095432467,-6.458930341903056,-7.826997002339286,-5.807770049613717,-5.839702821029452,-0.7334992817056897,-2.1862656526161177,-7.488823843830299,5.52609191649692,-10.347877346867092
75213,,-7.339118443745026,0.5467579983677563,-8.103281633021663,-4.179651068669878,-5.4129254939455045,-3.884293121357439,-4.97246536260497,-5.0736684373246,-9.469783792126083,0.4888804351285741,-2.6654187984879174,-7.954698101482421,9.4912403791748,-11.10502435337138
75463,,-5.162437515360242,1.4877866830892292,-8.97033796450388,-2.991936910208045,-6.199260340212308,-2.103997531384087,-2.617873780294244,-5.450016276486237,-9.353605396553755,-1.998268833383262,2.2418127594842554,-7.419839335335582,10.816498016745316,-7.664629527842396
75712,,-4.1583916247495125,2.489477868248911,-8.170200364266632,-3.246532447717437,-4.94213177971926,-3.3070310575633703,-4.220690553112156,-6.448857751012346,-7.57088399690238,-1.088603910621604,4.266258928692616,-9.189394162493956,7.065143659489532,-5.419943266264411
75962,,-5.271747726880605,2.664049593386898,-7.039983608131282,-3.759382673764798,-7.748143593442119,-5.243280817065696,-3.914173586395928,-5.059204189358011,-8.404119173260574,-0.2358201949496015,2.798284037754396,-6.093932706782322,6.632286005174284,-6.467002648571532
76212,,-7.433578821724522,3.579882003043235,-9.260821792122018,-5.946151306391294,-10.015474333379654,-4.012832099492389,-4.382225881518613,-6.942859879030392,-8.340134110604835,-3.718353269101812,3.843725779940143,-4.813245162285921,5.473207196656443,-7.1069077932655365
76462,,-8.408823239046164,3.981307549984252,-14.71270667904259,-2.212325705103234,-10.41576149989382,-1.2934360848533664,-3.0122529292231173,-6.315992454651603,-6.165235046942681,0.7591527665239216,6.163551443789723,-7.095698203814244,2.1417590079856925,-7.115745718985068
76712,,-5.744115612921666,1.4807956639809252,-12.923498988135622,1.0412863614606052,-11.278413337835808,-0.988384320945659,-4.555680001662029,-7.118868180786617,-6.375826957186664,2.614791057051789,2.366940593307957,-8.73114147635806,4.034995350531935,-7.456381823543476
76962,,-5.802285837021943,6.384580292261245,-11.962809804142822,-0.5976496815845913,-9.0622411744731,-1.000035179665184,-5.051077246886169,-6.010617804004907,-6.8881604908895255,-0.1589465055715429,2.642265672862421,-6.708113602585582,5.075631834786412,-8.110900679023679
77212,,-7.669785831514791,4.47081985680565,-11.746050355557063,-0.0439464659877059,-6.3753767754684,-2.228683697289693,-4.5620466846034615,-5.929291680989638,-8.67434920587203,-2.050114539763879,1.8228065828558944,-6.772597937877059,5.5889881521184845,-9.3056873134751
77462,,-8.197018058929155,6.976470881706399,-8.294821830104096,-0.5506779488483844,-5.1425830128006815,-3.627630230682864,-5.982968745827149,-6.290373575387624,-8.985292902079435,-1.846822643981264,-0.0835813469919062,-5.476579332361794,7.98720339800948,-10.270875788575989
77711,,-4.933085307761813,8.288984840452096,-7.8978696641980495,1.6621276166564525,-3.0780130704686046,-1.0312801542445518,-6.773229051917946,-6.949449883925169,-10.11747594010346,-1.1925223188405474,1.3339693527449537,-8.356758388809423,4.022468550472858,-7.437052562388214
77961,,-5.6809007418486415,6.324193590937655,-6.684378814440452,-0.5912569917594063,-5.578823586528068,0.4858926460923157,-4.744881643616457,-8.217076291195195,-8.791035364655144,-2.4195950574339258,2.96762632366085,-8.400598163590926,1.8689843366294452,-6.866519740059759
78211,,-6.516080655847629,8.485158551183993,-6.303737489730118,-3.790033065402393,-6.55070647281185,-1.334074549447786,-5.20714811115324,-8.584770183048146,-6.62208009774862,-0.7545299164986881,3.253051728322955,-7.445251390141773,5.370377126682614,-6.4782917302755125
78461,,-5.156051602704918,9.246887423300116,-11.78894281326733,-2.961088440963868,-6.804358996214418,-3.156689750737004,-6.690133220941559,-9.769321547492137,-6.609818955060981,-2.9632864121760987,2.9439775414809444,-3.881863023280662,7.039885759170808,-7.486337360273917
78711,,-5.338228749092068,4.507741994959583,-10.855425342466,0.1326015541443053,-5.059225486840122,-1.658341934836625,-5.521886489501574,-10.480113100856364,-6.5013033816792944,-2.5564586257889284,3.696790334833688,-4.412363741792719,9.72794361664271,-9.218836070104905
78961,,-4.969081336763191,3.815137426982714,-10.46273186261748,0.7173072532498415,-6.165607677697089,-3.3330110163413207,-6.384676212742835,-7.642309092194973,-5.43789383099195,-0.7641299015431878,4.620411415094115,-7.062189606517785,10.944864865414726,-9.401104566697
79211,,-3.6417344866236334,5.455553949640935,-11.59243258631679,-1.6375309242404756,-4.407221774158022,-2.870565799351941,-4.737890865090194,-5.855209682352901,-5.163302529819417,-1.2565604942877755,2.4688074297801283,-8.469772979923558,13.680007063065316,-7.036428702427334
79461,,-4.1308902683759,5.639456147578045,-8.68255047555518,1.0293821605432292,-3.647798133910376,-3.82677718046341,-3.0621166228160304,-4.287053483986794,-4.960770841848302,1.115040079298459,-0.6221266354041217,-8.4424243948851,13.135769998468252,-9.871507509876244
79710,,-6.802462409610524,5.128381303138397,-7.681368528140673,-1.0332434233920893,-5.297693968423898,-5.415806305140084,-2.268349568361071,-5.725188976032558,-7.881374753471655,0.5526793603386106,-0.4800688983499623,-6.377077576123734,10.06610399581954,-10.387651152726058
79960,,-7.338349220650638,5.029491984033881,-8.667485969760975,-0.6431206413444115,-4.176048617676639,-3.102602765211005,-2.6390006250785927,-7.304444265913046,-7.31658548482921,0.5168305437019953,-1.964927069613978,-8.91431432495494,11.651953293563174,-11.981761084469786
80210,,-8.30978167078194,5.375364290505372,-9.252701207873224,-4.216474858973649,-4.351239158129649,-2.0792584296761256,-4.4571691005322425,-6.4219731964657,-6.867600263877552,0.4288735418641726,-3.2781053670776505,-10.37352630909038,11.2307231813344,-12.46674271879792
80460,,-9.85812549385668,5.681601740423243,-10.610009764747543,-2.420976529769145,-3.199082008026468,-5.727535024291914,-6.861101373383223,-8.295141385754901,-9.528618114951763,-3.631939451012951,1.375419317569374,-9.402163547702877,7.945258256673932,-9.688318222885504
80710,,-6.040201108200619,3.214225059260319,-10.837219368711944,-0.9766488800449996,-4.218768039748788,-5.419447452806132,-5.359179695896224,-12.52999976749331,-10.772435213457484,-3.07379609240191,3.991882907869186,-11.850016313346671,6.834829794483236,-7.74447558463744
80960,,-5.584623626278134,2.7813663571812084,-9.848748884900388,-2.6898250170230487,-7.103465592417618,-3.725803092212843,-5.923442546785379,-9.403742191022411,-9.975002273959008,-0.6992261992080262,2.6190903744956966,-9.693350383048736,8.30354469250625,-7.6747922067211585
81210,,-6.740499040136473,2.2529737543436057,-7.13050061289536,-2.261994409368998,-7.021268482329118,-5.731523412215766,-5.081259691347817,-7.000976153074907,-7.849551111258684,-0.976221791172606,0.911959943337512,-8.323076501077566,10.531059053851369,-6.208349992474089
81460,,-9.288277625399214,1.5524654767015025,-6.281008236360631,-2.4010610933838743,-5.950572072593067,-4.223602197405376,-4.561950099866743,-5.105658007501582,-8.255705892003238,-2.163152814954995,1.5693500652305543,-4.864137542705369,9.705370326079128,-9.077136179694278
81710,,-7.999897459885314,4.422543389891173,-10.820107134040754,-2.0013443903353165,-4.697900012686924,-2.9798230529597323,-4.717206993293575,-4.745501628736985,-4.521960441312929,-1.2363846121769413,3.379530874121393,-5.944254474519333,8.521059948405336,-9.054161203954482
81959,,-8.158763729328651,4.9181971868952505,-9.750157940235765,-3.608301337518028,-6.397272384626778,-3.830915173852032,-6.764292472837173,-6.770690075058078,-4.130911904422994,1.639797657416976,0.1220326210212484,-4.0442214861069,9.929120407546897,-6.62203176590619
82209,,-9.057166063255872,2.583496556606656,-9.4568378595216,-2.031937260056072,-7.143533377798547,-0.4750685669677192,-3.8343380604751873,-6.414784016639279,-4.9756132582392105,-0.0132050928151408,0.8667948595926421,-5.480959675480737,7.732228293213319,-8.835291998686547
82459,,-11.571120473678912,1.7803156904556956,-8.592456153095583,-1.780466656372956,-5.904961305004283,-2.5443229375743464,-3.2155206756557058,-9.233103720408872,-5.5696416173750505,-0.6945905043012635,2.1622626128817104,-9.248187954627392,6.751947660645838,-11.197030034648725
82709,,-9.826222407511167,2.066551421030482,-5.642628698532902,-2.8660016195459903,-2.4112802170210355,-2.6237126419554024,-2.4737966748289484,-8.78047775251813,-6.647888341765968,0.416410482794137,3.131598821965382,-6.616926621349839,6.59847185949602,-8.911776174452635
82959,,-8.991916029823463,5.463847629909887,-3.461449346120824,-3.854699948359644,-2.5580424182498227,-1.945143189600088,-3.402484593557469,-7.917960604146451,-5.302502993202658,-2.8627820709408454,3.946598802039917,-7.533710785874865,7.804190733173314,-7.693295413160833
83209,,-6.126508928270659,7.382951839583582,-5.877172075828339,-3.981235701002647,-4.456640419074364,-0.9930711875695362,-0.9532372827997596,-9.448056951926109,-8.527826752510412,-3.838640530982512,0.8998062796826102,-9.865824498161857,9.822958688269988,-6.496429615775263
83459,,-6.928980433146882,6.727707724861974,-7.082540751064017,-4.181582470826752,-4.13544582675643,-0.0731956595324916,-1.0111034314578466,-5.012971328951363,-9.550105632232269,-4.638160194501888,-0.2308480091102425,-11.316330895225944,10.028707078846155,-7.472046920722707
83709,,-5.621147490990316,7.988249596048817,-7.289759884625397,-2.5945374191367416,-5.955342178791101,-2.082295426996383,-4.990576763343942,-4.195253375494775,-8.375700543891178,-5.32134253931984,1.9532071596128384,-9.677523829262835,8.991599983557691,-6.596357843848562
83958,,-6.194975135488975,6.739872505768076,-10.49641811229396,-2.465828635548057,-5.404142305046192,-2.370901013903022,-2.59851899167449,-5.05517039330363,-8.798927517175601,-3.905445201354672,2.073878021118901,-8.104285269287908,7.340121171983069,-7.566059749201198
84208,,-5.976652361700744,6.196059176071539,-12.532566724483926,-3.4704274305874345,-7.4479151510409825,-0.7692528553809082,-0.9585696153509132,-6.7133465397478895,-7.55358547933619,-3.014915082059226,1.343404650367865,-8.383784373742367,4.996562387201776,-4.934170474916312
84458,,-3.2695845480280044,6.05516384225152,-10.596475003010896,-1.3435029943708647,-8.12436981618598,0.0071537857780885,-4.018462249537034,-6.204702213493033,-8.901802950209449,-0.8935327633481946,3.174093453081008,-9.560108063502913,6.420099517875891,-7.301488778861208
84708,,-5.016427914633397,4.5427942336276015,-7.111364813096831,-1.4937142689039018,-3.8259491623922335,1.1501586749200114,-3.15691670728618,-5.4286958806646135,-8.798053926083345,0.0975586956387454,4.961831694556139,-7.60961921380823,4.881909011940434,-8.956105704719356
84958,,-5.686709807458142,10.230736030338903,-6.904754620098828,0.2554798624375743,-3.118552308313627,-1.2652832349502463,-3.103383696316052,-7.342776546062306,-6.796764343468765,-0.5948244096669463,2.713823914719636,-7.658304378510563,5.810619463289122,-7.627010142154871
85208,,-8.060532764177372,10.087726153743588,-12.405415204669424,-0.5448999531944486,-2.168562835027747,-2.307623333973608,-6.859490369897302,-7.33556334761075,-8.806399944073132,-1.1532864700396126,-1.5876445057699462,-11.285339517775878,7.152068339524776,-6.57917870817646
85458,,-6.596678093861268,5.820547639785123,-12.423457249625212,-3.7904625510897274,-3.0568812056569983,-3.214191332062485,-8.521892472441237,-5.938770636543883,-9.88180322719234,-2.213987816086721,-0.6261961402668568,-4.841812453239895,7.652658328361487,-6.412170863400133
85708,,-6.246742101529987,6.309337400538537,-10.480892180720694,-2.6602362373878705,-0.9460122477394954,-4.665581917568637,-4.809249099433859,-8.403404575154083,-8.583218241721095,-1.929160772989154,0.9957607093480976,-5.696525368421157,8.844193424277671,-6.317801288091362
85957,,-5.608197298894128,8.049667323772757,-10.68553639031687,1.6712955601599309,-0.4100591247656994,-4.913058486859854,-4.754775779555685,-8.894211770047024,-8.535196347222534,0.0591152702200864,2.392506289532243,-6.838969369183823,9.501878229145266,-8.111103656831522
86207,,-4.778991258689997,4.852224663519401,-10.683179789319556,1.0833029040250344,-3.502748540427825,-4.002044906472213,-4.606664954404392,-7.759815760710301,-9.63822780306642,-0.467334672487537,2.6199804298207434,-5.180691801899107,8.215808764448463,-7.613439693147905
86457,,-7.232260886234485,1.6740378517148524,-13.869669287185536,-0.9924841447095942,-7.613765055986948,-2.3848200787325764,-4.301973389738019,-10.256386016798755,-12.42080028152845,-3.6873066301795383,1.5581256948800513,-8.23165092513939,7.343598279755436,-6.367851971482419
86707,,-7.449554722506095,0.2775184268091412,-10.12108665692482,-3.3675351176532144,-5.683041379045738,-4.306708737088007,-5.936406624852778,-9.19448409542782,-8.237674831804982,-5.4870686610326205,4.9707291765863175,-11.070532643461464,3.4047087464893746,-6.958512703604916
86957,,-7.706735296162865,2.3770632878211155,-7.063622484956069,-4.386169702167675,-5.989576245097984,-2.663564536828101,-6.160377404346637,-6.350634962738646,-5.081554999318482,-3.407526643603963,4.225993206141462,-7.490340802760356,4.813018182226692,-10.170909461461076
87207,,-7.738898373199988,4.309786142752977,-9.503684657091734,-2.67823108843624,-3.087082003568007,-2.782169514828952,-6.8820438483006185,-7.937077306788517,-6.314847266809577,0.6881017787636552,2.644162008106369,-5.835874493468978,6.153177875847671,-10.448631511377206
87457,,-4.466831104733301,4.4823647952232255,-10.060667774617576,-0.8472648634866253,-1.3445360420510162,-3.597784020413473,-2.7902000464478323,-3.992215831055343,-3.8054639439868554,0.3794706423429302,1.9201204704260169,-8.92013303353483,7.564440871509829,-9.353136721325582
87707,,-5.61033446805819,3.001221051814211,-7.742002388435382,-0.4745053042776654,-4.070593833920343,-3.1665455764815444,-2.861920584856299,-4.536839305401529,-4.865226684947968,-1.255377551373813,2.75849089688337,-8.281064469449657,4.764829305773945,-10.995667227475248
87956,,-8.452402021590661,5.63534893978955,-9.22635423952772,-2.988489711174008,-3.071899528369419,-3.4066206848894303,-2.854646853638396,-6.32725360599202,-7.801708466197502,0.288374421238339,1.6629801314329984,-6.241328675218583,5.19607163179164,-12.110532513410336
88206,,-8.400019378524474,4.579631170217121,-10.306303044566288,-4.294668217414401,-5.777110279269038,-5.1866743746955,-6.372428233409835,-5.569702807385767,-13.774256964818305,-1.4781302448327756,0.3044967357565109,-6.254069580573977,8.432294372112816,-7.791109310269241
88456,,-6.946071248209892,2.462854360039888,-12.356284255139228,-2.768736561677429,-6.817083501146576,-6.012661895541067,-5.112881927504925,-5.68014048743107,-11.542449074394398,-4.371223871686705,0.8338700154215839,-8.003531963521551,8.268717104639055,-5.481266432560116
88706,,-4.839754689498136,4.114829818345329,-8.189167171224009,-0.7325490929964116,-2.8932751605752927,-7.378134807402552,-4.261500052336301,-7.408721525859184,-5.013031146660304,-3.315689855656776,2.481325004115049,-8.457412284679565,9.776873832077746,-8.731914647101767
88956,,-7.063414847885678,5.3732556984942725,-7.266145037566821,-3.414451397499285,-0.9621620379521822,-4.890486676139325,-3.993498547790022,-8.788583628015717,-3.66495520968188,-2.098636651994344,2.6615917960941675,-5.483500714277651,9.88987159866763,-11.17323905285222
89206,,-7.810764139673386,1.366417110313514,-9.024515235361704,-3.3579229275658085,-4.197830972624839,-4.894825260136532,-5.166894926085681,-10.70349888318027,-6.26637523274522,-2.390765674415035,1.43629671249618,-5.273690541019435,8.30496962753366,-11.224912728961556
89456,,-5.755702232658893,0.5795209427525636,-9.10103294506085,-1.9339974344248487,-4.534722131417451,-5.704641616952582,-7.740560912620225,-4.465446416951007,-4.756045260335236,-1.8251548711497203,2.4450980862335814,-6.666270752259446,5.959126549156231,-7.4029230231183965
89706,,-6.05302591353704,5.51631283054657,-11.160643385832822,-2.3241041396032385,-3.6526258109569607,-5.5924724025207,-7.209505068309678,1.151347216332797,-4.634582466271809,-0.4854736478028303,4.885482350598575,-4.247063543320209,4.519530038118816,-4.202631217850799
89955,,-7.83665986018486,3.53178996656541,-10.350722171406389,-0.7589330419677336,-5.875099486039654,-4.086211893873989,-8.366719617241575,-0.7670347920595963,-4.294796755592002,1.6214583617546483,4.645203534884965,-4.770964681888223,7.994878139094141,-4.3904475491998864
90205,,-6.574341257144594,3.576597311937748,-8.832204412396706,-1.8978995649778323,-3.6479023840604223,-4.610930877887852,-7.74983631388195,-4.664422304180547,-3.5424556905944256,2.0118564476923595,2.564784329231826,-7.87602181186434,9.80181411753122,-5.443214066498848
90455,,-3.5210386383952668,5.434384052832567,-6.638825605041219,-3.2009672014553336,-2.195571729347753,2.16916473428502,-6.972715629997071,-1.6902596547246809,-2.8047015827270183,-1.2604677685649937,1.4466278942196886,-6.036240526113859,8.986734182236166,-4.642883181965711
90705,,-4.06478261819005,3.984815286474797,-6.942167214782506,-3.480750515975746,-6.392413378685726,2.3279688451538414,-4.835289829960568,-1.4195348303073516,-3.113970379563133,-1.557509565292329,2.7810284374713383,-5.857940744451634,9.503709407958098,-5.90348541526529
90955,,-6.893341683941064,3.258242551285784,-10.855736984728557,-0.8872934119167429,-4.199943873016013,-2.1634938410433664,-3.905641716764507,-5.075174122050703,-7.32380092167925,-0.9357383084583456,1.9227248056983397,-8.54490463611784,8.562980889580507,-9.631075520894177
91205,,-4.340828275487149,3.75521536657305,-9.36758383186376,-2.578767951768911,-5.121172279516053,-4.382624419404751,-4.2828639183526205,-5.121544437883837,-5.026660494273111,1.644744793778374,3.365803147217533,-9.913977104808035,8.585028647968402,-10.141225579480473
91455,,-4.215071951872588,6.778810103077876,-7.789959932982519,-3.299258141516481,-1.5623309938219063,-1.9113808477728016,-4.737133113460309,-4.607695928396568,-1.7799349015575334,2.331802442762606,5.352577484739318,-8.071631012514779,9.555885050341534,-5.962409217604922
91705,,-3.1459974991114086,7.6584870452083535,-5.880104819276743,1.4885020160212976,-0.7065745492030823,0.6740972473772598,-1.0982619496473154,-4.874063286052737,-1.915277461503749,5.288042961247564,4.728206963172712,-5.9480030798985375,7.668092254644263,-3.368633194386791
91954,,-2.1857005628614004,3.848425021838049,-4.846692707208597,0.9765671751843464,-2.3769929504352563,-1.126582660509739,-2.0392407718489998,-5.507642214572408,-4.350572745337401,7.819522268205523,2.706376344973732,-7.313427195238885,9.50719982979992,-4.062114676575552
92204,,-3.5749584542766915,2.543102638606689,-8.176397830042628,-3.5115283622208766,-3.3282628653321886,-3.667555747208535,-5.451948705991855,-9.163354943820668,-5.572386424304488,4.093003487775781,2.5574943454755017,-7.484547981710468,7.924710980046417,-7.929216893101066
92454,,-4.422379122727352,4.991895877053763,-8.003571846714811,-4.615251818269014,-3.786584290444944,-2.2543227526300624,-4.276280987763027,-10.474292388927184,-6.949957243432521,0.1482507590117158,3.4681549417992628,-7.0144854401499686,8.056707468550686,-6.128896163509117
92704,,-5.36878567073518,2.7084186742254435,-6.61600934077435,-4.661257775160687,-4.9464321130133175,-4.04958756924357,-6.6877599221975,-6.4495501597638505,-8.689984021125127,-2.386019750891806,2.711185222068526,-6.012381461019855,7.577928244072071,-8.080150372078416
92954,,-4.134390017694401,4.903762339355146,-7.19789928281985,-1.7043937669222058,-0.8697554013429915,-4.312148427567228,-6.6272433529924495,-4.137450390755625,-6.002762004398072,-2.5056586186178302,2.1492860717214595,-5.512448069056068,8.365345749877442,-8.825422392302112
93204,,-3.684785111507586,7.664845080475786,-7.839226145841205,-3.436038610834621,0.8124164974850168,-2.5904582192807277,-6.300884287033507,-4.315980003477825,-3.407927192767705,3.703291754330662,3.288294859901401,-8.078751179283671,9.24341430478811,-9.446386702871164
93454,,-3.998151742069853,5.756773648096793,-9.384519695635776,-1.6410562239844286,-1.600040285737384,-0.652454029924268,-4.068124358492934,0.1014469965173692,-3.4512696823631703,5.013915614807648,3.684102062827722,-8.691647306988203,7.182393053260185,-5.06525176162985
93704,,-4.832480109046547,5.067557622404257,-9.850791379579157,-1.3407167573801273,-6.859825089055506,-4.059725391960219,-6.744711338612106,1.5814226619084948,-5.529094839763147,2.43977292693406,3.5672427112644725,-3.9441410353092783,8.248552002926498,-5.576950667396231
93953,,-10.083951564752688,2.681038211140574,-7.841193208106577,-4.145246360719154,-4.719794743753752,-4.0619719522642805,-8.293546564632337,-3.4358626410058437,-8.09611907848841,-0.4508750258988495,3.942657651370529,-5.00112973047779,9.093523951211704,-5.889210634593548
94203,,-9.418758120747343,2.6112722087981446,-7.624256711850958,-3.090957181998393,-7.106213074139715,-2.197257789349522,-4.05853552244365,-6.407206682040472,-7.992217192761072,-1.7056351728519183,0.2563774348988492,-8.81172819053047,6.926384393805181,-5.855290795683217
94453,,-8.886607809878095,2.3071876622136145,-10.484175682071108,-2.950504100815908,-7.650653343671162,-3.717223045325776,-4.733779034481377,-6.10686995166673,-7.351436784672955,-2.5213994985464816,4.0027966053348605,-6.44927720044611,7.25207505644193,-8.675406916930102
94703,,-9.586374568424947,3.88732686251606,-9.09771111454824,-2.5265924592965616,-6.346949662485796,-4.703246824509154,-7.50058934173436,-7.72344430571502,-6.06357530414082,-2.8458651192861906,5.91581525252042,-7.4758421345533055,5.586448026618425,-6.349537642599606
94953,,-8.386990073785695,5.766072790854842,-7.554862918385332,-0.7361764841278282,-4.377237840320074,-4.19934807485102,-7.005116839844723,-4.36694283962287,-9.59001061102865,-3.2248356571439323,3.517504108788282,-8.583926077986204,4.682405371937749,-7.954701152372909
95203,,-9.208165307771376,5.566753361595966,-7.867961994279124,-1.1333356706074484,-3.463201672498228,-4.642892296798403,-7.676414711961337,-3.429226614987182,-7.989683070531259,-0.068509801996393,0.72635714594142,-6.6454120299643815,5.333449575803054,-11.102243330560192
95453,,-12.050240040285365,4.711797123789147,-7.615409810180932,-0.2658115049606208,-4.876801313023151,-4.569745058318722,-7.717916055156535,-6.828054037834974,-6.096761667781651,1.3020469617314612,-2.086427726607423,-6.82652853973671,6.966949475341612,-8.877936298989832
95703,,-9.424290802863643,5.610810741310885,-7.503802341559192,-1.2703693703941683,-4.313580547036219,-5.441773250376062,-5.328406106086855,-7.70988033487233,-5.383091837772102,2.1661843481392014,-1.055011829226731,-7.256877722094597,11.829267307080393,-9.171500009097226
95952,,-5.937441005624819,5.335342242900852,-7.847944699779873,-3.740084415524394,-4.9031404383295865,-3.2807308904228902,-5.240413947526806,-6.351684736846113,-5.76338523567988,0.8167954685951677,2.539436614080781,-6.752728903961042,10.332719784393236,-12.739271445342377
96202,,-4.717851791779729,3.803585572433569,-6.101706977115402,-0.9800820439231328,-4.404904858056681,-0.2251695328376831,-5.796789785328511,-6.9439704997990255,-6.436685275493997,1.3289773013053958,5.884194249010659,-6.6416545426187685,7.21894679190124,-12.526974029400042
96452,,-2.5026119860919365,1.8876673274557636,-7.997782273307083,-2.794057166560984,-7.233228171585262,-1.1161337118096313,-5.745217324978398,-8.105144305732157,-6.0773032259176665,1.9859984191794584,3.77541739467546,-7.988321189940313,9.633722388288234,-7.590761609249625
96702,,-3.959467920854767,1.5850407191647968,-8.711398958652438,-3.4564672011447994,-6.3743745319791145,0.3213237685207639,-3.0374334966834224,-5.900908930263195,-3.603555018224349,3.153376701255523,2.455273133555677,-9.378509929526915,5.772998109102991,-5.82641215706324
96952,,-7.829937160197552,2.7193798769207738,-8.897416129523865,-2.338233409094648,-2.7416899470777487,-1.3688550035267606,-3.453767498929241,-7.35057140370327,-4.238211085254175,0.9158595436877648,2.700434421085298,-7.479162235316043,3.086158686955369,-8.735991342253447
97202,,-7.88550423233346,0.972058647351911,-8.453452182970944,-4.359347772337633,-4.28536516312304,-7.454152870542565,-8.015118379832087,-8.713203829969473,-5.561285339851418,-2.0168680001274337,1.688658174831863,-7.705375466186238,2.3209775877257184,-12.43256992238986
97452,,-9.143344835671744,0.9804323395609942,-6.1276236067819,-1.4374174170834455,-6.348751871906522,-9.566652928776293,-7.906801217918521,-6.276836290443814,-7.2043682907751965,-0.885118990704959,3.1450802222233856,-7.77519730803567,4.056696532752538,-11.791739466486067
97702,,-7.415962367703228,0.7241460616877572,-7.585328821144444,-0.8304753107248568,-6.662638212528401,-6.69456957598221,-7.758182773611591,-4.824812253131151,-8.934991181360829,0.5823724238048906,4.396119855552595,-9.970033561271087,5.239942484699088,-9.08044493248438
97951,,-7.615511490771146,1.92090970463978,-11.886358937250987,-1.3615379557748075,-8.322654256218092,-6.03197428996122,-7.092572711121336,-8.759143846869295,-11.322118002623217,-0.2812372781364597,4.013418136369885,-11.898861895251818,3.933704286748418,-10.38863350806714
98201,,-5.518496339983985,2.5450513223565063,-10.86140082211693,-2.3123925327692154,-8.983008385308647,-5.354011766357423,-4.462520857578933,-8.70942049483041,-8.84022749984726,-1.9688469445321044,1.4806376474013927,-5.616753083344364,5.398095083990299,-8.529979047076003
98451,,-4.9158160121504535,2.2934395811555577,-7.555228855065663,-2.9626735463084444,-7.792143787871098,-1.6124413975193987,-3.71028770395463,-7.894431775500746,-6.285661726546007,1.803920932557899,1.899037947736241,-6.545724046870768,5.435459546349901,-4.58183338094409
98701,,-1.3846226785285995,3.606286361461914,-7.7822279420501665,-0.800583506438093,-4.886560415251583,-1.4543458508635947,-5.313683709573436,-7.383691224932179,-4.961803592805187,1.787490706885714,2.7024477191560186,-7.642643622210322,6.947394185117459,-5.44392959072594
98951,,-3.303501557117287,1.0213808070976254,-12.12451893965878,-0.98470598901503,-5.003960618262755,-0.5250965932306193,-3.472026351656177,-8.477124064399572,-7.033460578975461,1.8324132207000616,2.303505811139184,-6.933153196077635,7.415424242817603,-5.957582617155993
99201,,-4.075299835561962,4.253224007189241,-6.736170753361536,0.8184487458065168,-9.524407776958007,0.8265528542153677,-0.163208663415301,-8.845348245672552,-5.314754138793689,4.064422306141852,-0.0946989556298124,-7.24331055889045,5.306534933490175,-1.8227821030217304
99451,,-3.7789129099833754,2.7581943037078127,-5.404280209369897,-1.7805576173637527,-12.127762816751751,-2.758874028613501,-3.930000594386297,-5.310638418122817,-3.870083652342644,0.4279510352308342,-2.3198271995619937,-6.152934193522484,5.02999072451868,-3.9196941173417024
99701,,-10.480239002792072,-0.602706449732074,-6.886061830041257,-2.989614460799872,-9.0044551688598,-1.6184264168848328,-4.925264652394457,-5.199474540333142,-5.969325713375669,-3.085930154495567,-1.9577610934613872,-7.219773475174097,6.701308478555406,-8.211945965552914
99950,,-8.241445543704952,3.801781895964133,-6.525748697391899,-2.487818357430372,-3.714519714369569,0.5334185046765281,-4.608376909713553,-8.413586046680772,-7.025627488617507,-0.5608675999588216,2.183361177831548,-7.152315663895626,4.238710806198738,-9.247339432144614
100200,,-5.702948854388886,4.672217911733361,-8.168143158830677,-3.3114654762721143,-3.710474013031667,-0.8058671102480729,-5.145283553454733,-8.158191814496988,-8.5889921847483,-2.514803434673831,2.494166134670942,-6.593435960107588,6.173004519220616,-9.628181362722136
100450,,-5.330275621494938,2.752477147838989,-9.941600727717532,-3.2301301346711746,-6.711466616921813,-2.8307538777433883,-6.617856077509923,-8.00163204554072,-7.734003933084557,-5.569872755157292,0.5754881009160935,-5.828404922439884,9.74215929302771,-9.581125708586276
100700,,-5.717305897992604,4.643537274377938,-11.940896148165692,-2.4183635747817074,-6.030484351255105,-3.651573943500475,-4.223666638563834,-8.769924446821037,-5.218360728252631,-1.0535769108018658,0.4293563403170639,-9.654176629472444,7.903181171266969,-6.049203405218472
100950,,-10.058129634215266,6.41104714623348,-11.624213988595873,-0.5535882358623649,-4.70047795620426,-4.7840878619833225,-5.803629139513653,-8.894124685661536,-5.918523161630499,-0.6975103943757213,0.97996380650606,-7.457913687532941,6.495533190059969,-5.083137450751237
101200,,-7.07659785377218,2.54860783965397,-9.924757819874795,-1.927620024816271,-4.237681010747067,-5.226784901171882,-6.523637686404282,-7.351828665456041,-4.870513656260249,0.5301082991821779,-0.5595807879332159,-5.211629103402729,6.018466982183426,-9.267875866972531
101450,,-6.878176608524038,-2.045834949126603,-10.53825070434888,-3.273963547695457,-5.507917687877949,-3.8902838116044425,-6.023572574663066,-4.482496995537303,-6.974226190350463,-1.559086960693745,-0.4610001284732157,-4.377850430813788,8.396975891052584,-8.51078241045412
101700,,-7.377487329414427,4.200088534014778,-12.310942653029915,-1.4131194825577698,-5.354767215980044,-3.951253086211453,-6.762166299102516,-5.403091884728339,-10.41522217069458,-0.3428181507970456,3.855843019544461,-5.984989539522422,11.26501825894168,-4.234391802325037
101949,,-4.649209068214351,7.007273277927273,-7.495658964195275,-0.6129110425942793,-4.659437115526572,-6.818833922639634,-7.594919304470837,-3.127788281778217,-5.239451127232626,6.6880539889147,3.3105006006871185,-4.927842989161027,11.883113499572172,0.0858180244087721
102199,,-2.9258966865137195,5.947875287299301,-5.821640118408964,-1.713713861589807,-5.042345550444276,-5.806557007311478,-8.874466594262595,-2.0630754930848467,2.457857524676476,10.227017786212429,2.158736664036279,-6.230781503706258,9.81715554711976,-3.768135411548343
102449,,-2.65714215756778,2.908443199246885,-8.217564613643065,-3.060819725411237,-3.709158090075781,-2.0178052222309133,-6.819748858184389,-1.6789035600459823,2.4642962751874133,7.983356695519866,0.8606642251774187,-7.156533341852828,9.038394849840914,-9.102419647625371
102699,,-1.0816040179242954,4.033308439576796,-12.479086679739131,-3.5294773845777567,-1.4792189465931769,0.0382183471736243,-4.054671439639579,-5.208683779823476,-2.9640874089179805,1.496155924556941,0.8276510996371407,-8.165941275792033,11.07594093265062,-8.25503806462742
102949,,-0.9652616956002434,5.649123132717914,-11.985071742737505,-2.3512421551293667,-2.290564808311267,-1.0964576415564116,-5.818192376193943,-7.131513337950661,-4.667520267429131,-1.6616775053126394,4.772880295657957,-8.839288530545751,11.418985312878236,-8.05609478261751
103199,,-2.429536801058515,7.791512170741876,-6.624952242148576,-1.7215175841173205,-2.3418418567086463,-1.881266402157204,-7.12960099045056,-7.266142989922737,-4.967587991364129,0.8303599880714563,4.743891959300479,-7.025205688707773,12.079856511032984,-4.279185379762517
103449,,-5.883648733359118,7.719363149844524,-5.475422609445445,-4.0107813954042815,-0.0729720408916655,-1.530087541808088,-4.93606953293479,-7.7296099316782705,-5.879450593508153,-0.5912591761643093,2.869396023309609,-6.956508370403571,10.711109564466968,-2.947680200909761
103699,,-5.719310616337962,5.094721089031261,-8.108304844039067,-0.6934148777285726,-2.1154130913375138,-3.5837053944428443,-5.452090138908221,-8.22076678291218,-6.451167071031557,-2.808282523259491,3.810611682689569,-7.225049266294294,7.785203125204845,-7.768133890641281
103948,,-4.5157026953400266,6.21739431331655,-4.165980043041705,0.6864590175763217,-3.6870273432413816,-3.212308222882708,-4.535841309849918,-6.693193224255945,-2.986267358884951,2.3537498589734698,-0.6819822464059999,-2.858406443470316,10.80697333703937,-8.987849630433377
104198,,-3.3342931427434,7.4789632665422525,-5.326702098581315,0.0975659769517595,-3.659917083045177,-2.0896908622210946,-3.6579757439652423,-4.525517792362322,-4.4560432567086,0.8185262991767174,-2.637234228072578,-4.765181606572593,9.238763006396107,-8.605643830147304
104448,,-5.102365508411016,5.152704759308195,-8.6998109159209,-2.36714183550293,-5.353339288303935,-5.099539806439721,-6.565395195005584,-5.777123934145068,-6.2776109216232285,0.253823467935131,-2.508245599481985,-6.224152710510001,6.932459369930917,-9.272479446955163
104698,,-6.085630295995429,3.101684032742561,-7.648605435973685,-2.182073769172165,-3.725322858793745,-8.011898493310639,-5.333082581098081,-3.9530632161551935,-5.032209832834884,0.3050390536617628,1.7493900349178912,-5.099831230258741,11.387614830093538,-11.223887814393136
104948,,-4.836535994171263,4.116256073057753,-6.140904491490174,-3.1763457064460283,-3.142800417211376,-5.680686229547531,-4.317160372137836,-4.317065540296673,-3.988079314128872,-1.1356837846027807,2.7472311200115547,-8.267380021654864,10.790487227986992,-6.689622645548957
105198,,-4.081601272677839,8.865072830393524,-9.135676235000172,0.5419745746838468,-6.935251026320664,-2.000546352421832,-3.1761594314902624,-3.524151218786967,-3.768069227067028,2.6852906684350937,3.2481620229644266,-10.191318603521722,5.626499901026898,-4.574721558721491
105448,,-4.363065618353944,7.903422216514211,-14.157042304523593,0.5588931817210336,-7.645147427738022,-1.7851781851663555,-7.568872263235216,-4.24576363275856,-3.8248931134295616,3.513966727121928,5.848663718562664,-7.379985463013599,8.319314648597725,-6.013413103585068
105698,,-4.037651397623306,6.022965594415569,-9.781069509377051,1.0046174409130135,0.2467256702588842,-3.728778897239055,-7.80030396051441,-4.834983808942962,-6.6954412976919055,1.980086104303287,4.858318645834359,-8.393723413523007,10.916626478436092,-4.193566330432237
105947,,-3.282552673394281,7.845832067361352,-6.442656128976941,1.9142032148390864,0.486115285812161,-4.570406212160182,-5.645917401838475,-3.530417749015655,-8.216298735816904,2.172393590443104,2.446194016935828,-7.153336239685291,11.134170537650904,-2.8854013874069864
106197,,-3.106856720894275,6.170618220520892,-7.202219424306583,1.6445825902006583,-2.225619001341476,-1.055986225352583,-3.1682823426941464,-3.3519508176865203,-5.136844644188355,5.209814906106951,2.652796126471752,-4.800762428244186,11.820113086759008,-4.795445551976918
106447,,-3.6715503858805256,4.64434938483202,-8.944762881585342,-1.9274863198022063,-0.8760074975070177,-1.9555123582788032,-4.384748956087169,-5.091857681286229,-1.866713415997423,7.535338036580495,2.189680765888756,-6.01260142973328,9.183976491596884,-4.462743876904673
106697,,-3.962148890408664,5.236383756408807,-7.8912795465750465,-2.383613365959261,-0.9853708098166052,-1.461218679002836,-6.921841501111134,-6.1494367608344325,-2.0835009138367924,4.174132989047567,1.2587576717875244,-8.12467508172815,8.798957502214362,-5.252694121041317
106947,,-3.9552877180209167,5.581538046230281,-9.309252363044529,-0.4857195281418772,-0.5535075510753239,-0.8523139696372196,-4.0536583484321,-5.692451031956864,-5.0866351875416616,3.692449318240716,4.291967663387877,-9.913630198602917,9.102180720395047,-3.68336570865826
107197,,-5.425970416641256,2.4795519674738378,-10.316378519868802,-0.2838043735695573,-4.214937633672093,-1.7954793575399526,-3.564544876116837,-3.2278130872344164,-6.958094625868558,4.141441947952706,5.7785767615118,-7.789574147509089,9.0183832864927,-6.338722464625563
107447,,-6.895690640826071,5.571633320383196,-10.230528898600827,-1.526331670527086,-3.845598058682615,-3.672703546286842,-6.537024227571414,-5.1838832969659565,-7.911593379963959,-0.4201029784747617,3.4190671107139154,-5.94231054629944,8.84682629380843,-8.184422438444312
107697,,-3.930208521332588,2.0574306476091446,-11.50763887166296,-2.113698020261625,-1.8130493715860805,-5.059976860433317,-6.149858474896323,-7.781838112953265,-9.784258429635628,-1.2520965056748534,4.79504193736047,-8.190987827265236,7.695419890911758,-8.036961224345449
107947,,-5.560321931459717,0.796113110135223,-13.896539889039593,-2.539716539373571,-5.099410500348593,-8.056583149711154,-6.292103599080503,-9.59765607914555,-9.036897626382336,-2.090206926473473,6.255919546708832,-9.929111178071452,8.644411905597218,-9.82494956921332
108196,,-7.032106306496142,5.494699607078051,-8.706389845518592,-3.411973875943887,-9.498879890908894,-6.3989047645082895,-5.690436002046603,-8.021715943952604,-10.075897251401052,-1.6173424982754798,1.909383585447939,-9.57659592436604,10.218428807808252,-7.394127341875269
108446,,-6.086605094466446,4.2114126816566335,-8.611938682075031,-0.2384242909423273,-7.6112730761530045,-2.6732264787951774,-5.965918429956077,-8.485356960999965,-9.384046130509958,0.4435846729365366,4.659569465702935,-5.788639383248127,13.045425308154975,-4.3975296828745964
108696,,-5.742573272003161,3.0980136236729763,-7.1968507455019495,-1.1960604555529204,-5.761740395195013,-2.987969202934172,-6.115570946089538,-10.374083754361676,-7.721480985096523,0.1049561157026502,4.600167680905085,-5.592713698690965,10.326408386266143,-5.648989932332159
108946,,-5.100886664429307,2.0743574003754963,-7.712176753064069,-0.7965926857007781,-4.384367334531618,-0.5342333055209129,-5.19867825028812,-8.219604564569664,-7.372727222119558,-0.2820638085856308,1.8599424434995584,-5.652922266425248,9.435099664563296,-7.045075956525505
109196,,-3.910051367960332,4.290076859314381,-8.156770566481214,-0.1287411095843381,-4.6270736288908525,-1.5757181213333045,-6.160744505632784,-8.603757235970944,-6.195366139126204,-2.3231874694872845,3.4250765710790536,-5.676014894676351,11.572011226978624,-7.53492520754348
109446,,-3.32725520286767,4.366363278788389,-9.292570670592028,-1.6361176502617127,-6.303475135155879,-4.094945643050426,-7.83155386258648,-6.739230732588091,-5.286128003194907,0.9567009727321693,4.002422333269797,-7.973544725407934,10.112920734425972,-4.069879141697216
109696,,-4.0384057220562655,5.058407957194655,-8.678417260163156,-4.278070794883161,-7.717029210124604,-4.951798449114328,-8.447850996839689,-7.255337055721828,-7.64409311968506,0.6313910220694388,3.31772278496422,-6.789728989519289,9.839759970324684,-4.574846103351304
