timecode,event,eeg.af3,eeg.f7,eeg.f3,eeg.fc5,eeg.t7,eeg.p7,eeg.o1,eeg.o2,eeg.p8,eeg.t8,eeg.fc6,eeg.f4,eeg.f8,eeg.af4
0,,-4.742515099972403,2.8779432963335645,-4.695344012336832,-2.11683540956472,-1.9082856537388848,-3.177269877152617,-1.5692555826372556,-1.9356833129861832,0.1822032898152871,-5.5812693896005285,-1.5184232011647738,-5.492468974117387,4.013333960933389,-4.972627812905224
250,,-5.200405470213077,4.408911288997903,-6.546041127868444,-2.569745540284241,-1.9551948545099465,-3.171342108291177,-6.378071346266999,-3.813221459711963,-0.5272890019623413,-4.735241756518595,0.9353739235829566,-7.63711581494001,3.334057101774598,-7.69239285679637
500,,-6.958508528547873,1.6579212273874968,-6.8078098871968695,-0.3521619763989525,-3.7737045425576734,-3.128253882114832,-6.882251833745108,-4.339074966509506,0.119111185375251,-0.8488644194166703,0.9121169248592952,-5.806057583269965,5.653953321643511,-1.886615385778664
750,,-4.543924495974548,3.2794191233366936,-8.070065742927687,0.1621696483524346,-3.1040621585532007,-0.3854974644996111,-0.8085012630737393,-0.9124625350642028,-0.2734675217381629,0.6856931894514582,2.097098614553406,-4.470474349888525,5.731381286173579,0.7955890604759943
999,,-3.646641261625241,2.188236522781911,-11.957238969070902,-4.344371877968231,-3.323982176085877,-0.8283647406668992,0.7377329936830965,-1.0729012149377444,-3.8945601219675625,-0.964993897679942,0.2063715885982449,-7.121892763742372,4.9020624351692055,-0.1485342622142084
1249,,-5.663269452354109,0.3059909682634559,-12.413345524310207,-5.718085965111001,-5.835716668134522,-3.461098498498869,0.3606338359298877,-4.1241121875646645,-6.827812308395753,-6.176601244082755,-3.396373059956681,-8.342223056151475,1.147694781147632,-1.6309534628244096
1499,,-6.762350092070607,-5.718123013213937,-8.825848389445472,-7.022656546841237,-3.840752245324881,-1.6035264525915307,-2.806477958601871,-3.513855590766565,-7.814790874644779,-8.95166797713286,-6.33222876055933,-8.9203315377844,-2.2819812927291623,-2.0853117412385727
1749,,-7.893951653802396,-2.0093032926425987,-10.738648789745245,-4.475049651694874,-2.144873038943753,-1.4421612116313784,-1.2192261873096304,-0.5130147315806497,-3.922098626961378,-7.475231769917513,-7.628086575648917,-2.5450677085371423,-1.0871846284621347,-1.5299555920192422
1999,,-5.879099796713389,0.5082722216448866,-10.036168174791388,-2.6756884659224798,-1.2936663041613232,-0.8451360277355607,1.433769431787292,-1.820030037939102,-2.611218323792237,-6.480662964139359,-7.235003468488052,-5.716106797635544,-2.4509850081255453,-3.172865633080122
2249,,-6.536101740399344,-2.498506274930344,-8.53411392760394,-3.512048523087712,-2.9058179078683573,-4.087652587231251,-2.1207520800215622,-4.0212964430457845,-2.077578339085202,-6.841975779008839,-6.668583227960153,-11.10619815481476,-3.615547246757397,-2.7321789294848573
2499,,-4.978662601677705,-3.048003999895774,-6.623713711751225,-5.860218059554313,-6.817727545313814,-5.232074750695011,-6.176046229516935,-6.249085014048124,-1.5154046904577598,-5.968207692524548,-3.748241897240336,-11.360011184792263,-2.9708257098140614,-5.823498125420869
2749,,-5.866510010984993,-5.647368106991891,-9.7949477824051,-11.768116621284118,-4.818475184242296,-6.789420947232178,-8.351989041496177,-3.999699143181948,-2.311452336336743,-5.916675031946246,-5.620410979393789,-9.944141520612131,-4.942235956598454,-6.394716399390607
2998,,-4.792381333076741,-2.6123720240867594,-9.960880609692534,-4.885703180582225,-3.7820863920514887,-5.014851622189176,-4.74550458773153,2.68484438653972,-0.5724534722589973,-4.545214310455618,-1.8363482280259744,-5.649369440453999,-3.847179115988077,-3.8227532384799288
3248,,-8.278298599668076,-1.3343835058429951,-9.484714760213988,-3.281018549691785,-3.354830228244973,-4.3648961950820855,-3.513320677142473,0.8200940644094391,-3.370451403614997,-4.988224392648148,-0.953105838715721,-4.703775657774178,-4.535435979770534,-3.022294156270045
3498,,-11.271451040215066,-2.583255220739598,-11.943490382864155,-5.742912223864841,-6.259663384428444,-5.990752457073314,-4.0057360889897495,-4.364159507671316,-5.038330832942779,-7.108411198682783,-3.701451409539661,-7.632479551382968,-3.140694111272857,-6.747270590216683
3748,,-10.229652615952803,-2.86591287479925,-9.536677528205509,-6.009960795315752,-3.5695589867498265,-3.0707590756806704,-1.6250273666429658,-1.3919432001742753,-3.617965156597289,-3.719837796813112,-6.589915136938133,-7.904690309238447,0.5908548466513567,-3.6324742189817862
3998,,-3.489357689346757,-2.626871225714545,-5.504763179487123,-7.034402395193546,-1.9113040041173213,0.1960680492329477,2.676003469282485,1.9254951290709663,-0.0996279097052951,-2.7812458322613987,-4.948559947600572,-4.867513189411375,3.028476383538408,1.2171348151575263
4248,,-3.116097178254833,-0.147559490158348,-4.4306148035188055,-5.284268126389283,-3.5103406949257163,-0.5590043462812984,1.2359655004206924,1.5241402915739872,0.4324421293287525,-5.328090163320316,-4.081992508878464,-5.349950072521576,-0.0046032763323684,-0.3857744039636226
4498,,-4.4935476616031895,3.4955150866787763,-4.660928969953159,-0.9484310265190936,-2.0775268517430963,-1.0475076510115175,2.367511029589405,4.167223221801267,1.2387001189487057,-3.805019949840847,-1.215330793832199,-5.326244696879896,0.2221736652395247,-2.950057472940735
4748,,-5.684018918956778,0.5078563291802775,-3.4009980588010063,-0.3319200548434839,-0.092628653901834,2.349117779945133,0.609369440639514,2.740457666539864,0.886471801109632,-1.6505222015867382,-3.262895050404539,-2.366578894929165,2.0305278754086014,-1.903068284129808
4997,,-6.007119271258555,-2.687663238540007,-4.815025432313163,-1.1947216174454478,-2.1122966004594783,0.4576940972942817,-3.314838382007017,-0.4467949818216759,0.0242406457171299,-0.699639609660472,-3.1085517210928906,-4.710512586231451,2.7805334531088457,-3.810290830055866
5247,,-6.670449202293001,-1.068281057327786,-7.944631769651113,-2.977349410151326,-4.045376763947547,-3.634243053365626,-2.542204205021015,-2.745562739325133,-3.735739303535268,-6.514913485865526,-6.720365453125812,-7.564708459218103,-2.045326248989779,-3.044488752876747
5497,,-3.4146890426970025,1.0720866294258655,-5.272065695322304,-1.7309608841546789,-3.2042135837273333,-2.798521873070296,1.932830092380371,0.0868036902647318,-1.2164009555495914,-3.248440410399065,-6.718178353481057,-4.893351292631208,2.7994108610775124,-0.8120865174675711
5747,,-5.171586478768302,3.7110057012634687,-7.218458588817707,-3.282234148003801,-7.750785507464357,-3.90186981416355,0.8668716122113989,-1.113791210932714,-2.404076179720108,-3.462996374739193,-6.005799477714105,-3.746201727256071,2.6987568763841043,-2.555644835633744
5997,,-6.986287196332448,2.423086665528316,-9.36202614524898,-2.458599260830837,-6.228865844908866,-5.419404901544715,-1.9396579926297584,-0.8791263739370204,-4.01619491348976,-3.2858967688237115,-7.413704213674032,-5.160542265681664,0.7358366623674646,-4.868109071040257
6247,,-11.332845724436613,0.5070479022368917,-8.398298725886894,-2.592753056044408,-6.7877090670862525,-9.036550460357956,-4.25085423914724,0.3024591825719285,0.0637789810544981,-5.237761029888946,-9.700569371084317,-7.96195137145185,0.0616842401711179,-6.000147488393923
6497,,-12.31920917607093,1.8896250014916507,-9.93350708408868,-3.547483008519572,-3.212818194940782,-4.231883606826714,-2.6276964486076477,-0.6166408620148532,-1.3954870087411309,-5.760961685266064,-6.824278317151745,-6.454531030219139,1.7039793207699003,-4.29334021627459
6747,,-11.45892403416793,-1.313783766693408,-10.889594819394093,-2.3802309440698064,-2.398285805481982,-4.9164260618424205,-2.2397283935025154,-3.3394076294709625,-2.142226469594476,-5.094887096409932,-6.579934988819495,-5.84021356031537,0.202835021041634,-4.551843105611497
6996,,-7.468024452478583,-0.5466434095215378,-10.573944160485302,-2.8830355633105715,-1.7197465671861605,-7.824493068735951,-3.3937575551674555,-3.3597419729756712,-0.1902948607869775,-3.415781152660991,-4.349186252861175,-5.627663661095058,-2.130747316830639,-1.2625317984639917
7246,,-6.353605037241965,0.9362041500145134,-8.655477091623512,-4.623165596127698,-3.739475857772141,-4.096703643831487,-4.183771585379982,-6.370597821263005,-1.0088296374360275,-1.8790921553433564,2.326752289041518,-8.363505017325348,0.5957364219412296,1.4101458519188088
7496,,-4.258493302593955,3.1980390772577434,-7.8079231921291745,-3.9151293438427,-3.669654199672474,-3.3567808059302817,-2.9775187338979987,-6.711011853317734,-6.180206742429762,-4.948125804741255,2.948970327650991,-8.473625489332585,-3.8136672448797055,-3.198084088150026
7746,,-5.691148636378369,2.518799956343711,-10.20809537521335,-3.2497876785668307,-2.347815257675581,-4.27928090544914,-1.07115968312513,-3.966444469861945,-6.639967838375409,-5.262915450460036,-1.2159947644105078,-9.248794404996003,-0.9034577248518372,-3.791045887601107
7996,,-4.804002974548136,3.684999653924229,-10.93250576011284,-2.545098685969548,-3.4067139890783347,-3.55051240823516,-0.968950274027004,-1.822128295627547,-3.862561391789524,-6.403121329745299,-2.255035034358799,-9.185373736984534,3.17265297107024,-0.8014505102033888
8246,,-5.164955000354809,3.90509991593824,-10.222322600618863,-2.0562847022077277,-4.175916110879299,-4.195845309613135,-6.068907768361324,0.8630055265738237,-0.4049178954104703,-8.469380991450219,-3.0351527381232444,-8.455129609934705,1.3156165985230155,-2.1154756185954007
8496,,-6.815301334139403,-0.7586044732262391,-11.869986988229634,-2.7177818544818604,-4.677765450756636,-4.078137787466537,-7.406661444766325,-2.611074218599177,-3.0547326954989567,-8.175918790897594,-3.72222311271433,-11.407314884702329,-0.340188850811458,-4.344236419462581
8746,,-8.268888124840641,-4.911957544483143,-9.169393744652922,-2.409571014824852,-3.10259446505544,-3.301682838846196,-6.808323768229104,-1.53681721309319,-4.4901920383114895,-2.82888616505614,-5.370963535319432,-7.62976250378827,-2.090077781653693,-3.286208218977442
8995,,-8.4061416238041,-5.271779543513104,-7.023588639310802,-3.141748669450484,-3.645359249028011,-2.5899913975154334,-7.83753142494597,0.6675239216755252,-4.013873340171795,-3.880068155907626,-5.995003271605157,-5.2764581565204445,-0.1211816031411198,-1.3035976673723555
9245,,-6.160616767330921,-0.8142491358221775,-7.518616251775314,-1.3385433724072393,-5.81319522568948,-4.098486287288358,-0.8901822664242625,-3.3317121603694044,-5.823466899680847,-4.049430287297077,-5.611910677120172,-9.35596391020417,0.6725755354349178,-0.0458993723294686
9495,,-6.639861101451597,2.341069154464623,-6.450205234296843,-0.3143319291240646,-6.3626998446462535,-4.171599297484549,-0.4874060076344766,-3.763722032850757,-2.764518319183969,-1.3512645545831083,-5.444414910461005,-7.319757136678263,-0.4312585347215583,-0.7434179838380817
9745,,-4.941513963613845,6.644412780089922,-7.44874252621247,-0.357334452838316,-4.944315660246148,-3.5452626538788383,-4.127540559962412,-4.291748020871941,-2.8412559866759315,-0.4514059135883824,1.357059264828648,-3.689800724042378,4.912872652647876,-1.2482039909631637
9995,,-4.533993184905427,4.268914095224574,-5.47991686033985,-3.119103846612818,-5.209406182624958,-4.511283797013579,-3.6202574574807618,-4.195764942085985,-3.46940227862295,-2.455084569597794,-1.4355642860858906,-3.6370322360335168,3.4444666444821714,-2.4884389218825937
10245,,-7.158717452059031,-0.3990459221677031,-5.220209696227198,-5.956937383012198,-4.092459754644455,-2.845931489827887,-2.1412658966844327,-4.83851965587261,-3.351412139687376,-3.071701105085321,-8.714950674183365,-5.9223897690349405,0.2982188873160601,-0.948606201993074
10495,,-6.002452246585688,9.617109697550145,-7.086281847552308,-3.312380177616487,-3.992429018888677,-3.503004835759085,-3.0365216207199515,-2.657856632645625,-1.5979357501670752,-1.6758686634713618,-0.2146510551281383,-4.8507618800473145,2.6532060683883025,-0.4458716647445252
10745,,-1.0468293313034036,13.234055120145769,-4.098962934752324,1.2908150098487945,-5.54438609737287,-0.5618380531414557,0.1357954849650163,-1.6724263643830162,-4.297209143034088,-1.0367237745739804,6.072285493253715,-1.800041933945124,7.713527211644613,3.837274844198232
10994,,-2.0941488285054994,9.081580928075116,-4.997051554438803,0.2277041140476212,-4.749440863518418,-1.4098490982542098,-0.1847938352760773,-1.603360234238187,-2.9788833019760337,-2.5488502641948125,3.6758457127026745,-3.5943903323471487,5.241086225653737,3.9179661716623686
11244,,-3.363605194921458,5.81705900524515,-2.5454787207658285,-2.2216431979647706,-0.4380049613042697,-0.108615568738174,-1.4606577567282797,-1.957006286851167,1.2780710676254885,-2.598222530809615,-0.5280726151742208,-2.355782829513614,2.901384072878052,0.2082189578327003
11494,,-2.6323389999240088,3.1805328599020126,-3.05316584774975,-5.892424304135435,-2.3229295732175945,0.996999182478586,0.7648754933484075,-3.591348709036673,-1.0805550471684962,-2.5182337488283286,-0.2826007136832182,-2.1778451659507687,0.4865283890931113,-1.3693271908741649
11744,,-3.645234898980373,1.9130228062288328,-3.834142131471156,-5.503549064640643,-2.624606450430132,-0.0241375747797893,-0.5613946781259775,-3.112277918568282,-2.5007102634815066,-2.3580413948173184,-2.955150285444999,-2.7560561429694697,2.3960149393747674,-1.6150246804117696
11994,,-4.701958188513629,6.35342119160722,-6.75715681953207,-3.646248197498548,-0.6662466441034192,0.3211973687246303,1.1322577343403455,-3.994602495076501,-4.631702351880465,-3.5702828649872504,-1.4752503757851767,-6.257483613620542,3.477427316477439,3.0616653383533228
12244,,-7.924157746128474,8.606583706888141,-9.425649061076443,-5.049501128225198,0.602658231757351,1.6177770344970834,-0.7269159775429822,-6.138581191192721,-8.89226909280013,-7.389751165530047,-0.9292191997866048,-8.760664172954193,0.7134623508436232,0.4325414567426827
12494,,-7.061969779770038,5.972435426163923,-9.13743300446982,-3.057479886457488,-1.4454208874350047,-0.3171719536018076,-3.4027243204515925,-2.226867840446447,-6.347695356616397,-5.641369147913295,-5.821980601649321,-4.823635796566343,-0.4377709019572592,-2.3229050911999978
12744,,-4.637499277771136,4.534909433621827,-8.450573841575684,-2.8130674988626065,-1.8657188871398245,-1.6202051387834389,0.1901021957257912,-2.2810030590394046,-4.666703467129397,-7.437040430403225,-4.608666048854888,-3.903895205488441,2.543077910668611,-0.6194120200832489
12993,,-2.96240071989335,7.410108137223661,-2.9895632651352155,-1.0897776969550157,-0.0901111300746614,3.304020741280374,4.384908026121034,-5.381030153171792,-2.8361479111291943,-0.3998797390380491,4.318491856246334,-0.0339767529055014,4.043372537971387,-2.1465577524818986
13243,,-1.5228202295829298,10.14325951087472,-1.0103761086381011,0.1434751468291014,-0.6737904910530829,1.4442101456510212,3.4968089009630843,-4.154631330038786,-3.1510750688692752,0.0862789906494768,5.163817712949421,2.1445141912159498,5.029777456233279,0.8741013779112033
13493,,-2.2765256384488994,5.768782864425848,-1.9158351187211435,1.7798010451865076,-0.4688739798760117,-1.3597515915885403,0.246781143838394,-4.705642447315573,-0.2225273423275096,0.3172158212866284,-0.1898514909781221,-0.4000666896825767,4.3824160073190015,0.7577684734250677
13743,,-3.680142816643146,2.6564478106681206,-1.5759749797245592,4.846032077499558,1.0768895960501068,-0.1235393454761328,-2.0842445382716406,-0.0190927739827409,1.7394815697479358,1.1040744892762075,-1.6321791781174908,-4.46715226981799,4.972133584048962,2.398987146652458
13993,,-3.67863981213452,2.3433966549410314,-3.809757358213552,2.1035561085948924,0.3799277104835329,0.9679479143947698,0.419581957981863,-2.5197526047364205,-1.022191374148936,-2.711092820864637,0.8589447024736239,-2.377802133195109,1.847452255208504,1.738986049766812
14243,,-6.937155868932362,8.40296156593624,-6.689231104668395,-0.964534075200164,-1.8521860304316884,0.9972072353304542,-0.4324836776479753,-7.19987874880995,-5.464101125497775,-5.233090704148127,5.472493119824705,-3.405938549968281,3.467779680429232,-1.882369157085344
14493,,-5.901987865783949,10.303865498044232,-7.934538451336036,1.556556838042569,-2.546790923712527,1.6557727602633443,-1.2046609117955729,-4.051545071260778,-5.251941069151265,-2.472971323572399,7.114529927338488,-4.013817403620342,6.078143654725912,2.014612938924892
14743,,-0.373029280487881,9.359707484232173,-3.3000794725653315,4.38492540392417,-1.6861558352087522,1.0333254334395676,0.9815250413599986,-0.7969652024868729,-0.4138943072660667,1.68791517629674,6.228095974534382,-1.1059360691564737,7.986956031329106,2.599300552409299
14992,,1.4796366107059031,11.648574419355857,-0.9812311187322732,8.934360293998898,1.5820687480507556,-1.4873351568084403,-0.186669972974853,-0.3652860130498216,3.192672458502768,6.9397284144496885,7.566585643879513,1.768625348700872,13.385238001607949,0.9775370525437757
15242,,1.438506082472849,8.707473167622414,-4.415618649881252,5.234598494407214,0.9691815588878664,-1.5893404860810758,-3.1197865655163506,-3.3903885343045523,0.8391340813182695,3.920428852378652,5.165913995391513,-3.400616409476225,10.585117924907086,5.603105124607564
15492,,-0.1333859317347324,7.933553428900856,-6.269574418807348,-2.154357260228193,-2.4472665464670857,-0.954328304558889,-0.9487012459144872,-4.706616424067088,-2.645657671826652,-5.343802888766963,-4.889960459597232,-4.3097160063770446,1.1912324529008524,3.8471416257825415
15742,,-3.081572867267108,8.600317132721003,-4.839160784451719,-2.2750294577829324,-0.4939077257854932,-0.2715049408049441,-2.16565209118993,-4.162710020694523,-2.494116363639253,-6.187190665043961,-6.586294936342391,-0.5338174146820828,-1.472926992940511,2.19572618378936
15992,,-3.646911654390903,6.7507934622927,-3.912918455912311,-2.7597220000184604,-2.804833705317109,-1.265903360174606,-2.3312163023931247,-6.537839066894398,-0.8479941786540057,-1.116856093814558,-2.6414888988686904,-1.358374506483512,-0.2770212305001706,-0.4010431424949612
16242,,-0.7500380896283843,9.021463951837337,-3.5934450661038437,2.0899176590717543,-1.4226993621521145,-0.5136772679014618,0.4168857064189845,-3.568150848285822,1.03717405597073,-0.2608295132463616,-0.4284082174820761,-0.9446859116102632,4.931784052007356,2.2888038240246056
16492,,0.0110716768254021,7.5414335208929,-2.5376700683950326,0.504865261143578,0.200972134376159,-1.00179412026833,0.2650065062701922,-4.268456991360149,-0.967289703524538,0.307309565593593,0.8449742457373288,-1.6950311709398622,6.017473628552069,0.9172612783429506
16742,,-4.570824953461969,6.170695073315664,-4.51578556954855,-4.829664981794092,-0.0226241205382329,-0.5903605859128939,0.4418841304403527,-5.039757401748618,-3.614238659043764,-0.9156525801595528,0.1133728292560883,-2.198996104878908,5.887495885401687,0.7082618023137606
16991,,-3.4723087116816664,6.382032700134598,-3.714759304521278,-0.3782517935372103,-4.399346749910281,-2.2317043046719345,0.8653716920712065,-5.70974107772229,-3.796527874016949,-1.6003674912105097,-3.169632668692746,-2.958107271760432,6.065058988836261,-3.1108842401681507
17241,,-0.3298557251010733,8.44904350215599,-2.896637253094764,3.211904364151684,-1.4521147317984548,-1.479141768423727,-2.550935023319807,-5.703091280396327,-4.170079915312657,-2.550696858667914,-2.3820837946029623,-5.429455773514937,1.7508736419186024,-5.221698393812842
17491,,-2.016384396516893,6.773559018916764,-4.229467521475993,1.5161219564651154,-3.468997151804776,-2.937129933764232,-4.708187897508052,-7.275365878107733,-3.567704657145685,-1.848829901121952,-0.2245101464820554,-6.602479474725538,4.70843544295251,-3.676207750190177
17741,,-5.155187853303886,3.3853372709069616,-5.44205949441926,-2.167788707178086,-5.238654220038169,-3.1557051642126552,-3.4889867343769083,-5.810065207742509,-2.1832576062792075,-1.5532873297066243,-0.7539157829056609,-4.7865282975747805,5.0137117798904365,0.8096492304217039
17991,,-3.1670812293180206,6.893098002130548,-5.886927574454229,1.4128610702220437,-6.847059608641228,-4.812112875955952,-3.1692707452337814,-2.949609069140039,-1.171893766594979,-8.113470609562057,-0.6858107584784603,-3.2917989325317176,2.9166689075439423,3.140331000253353
18241,,-3.858048418761263,10.026414028828016,-4.4801037895735005,1.8127063254650944,-4.372165972462337,-7.4160529865561,-5.263874575705173,-2.63400133037387,-2.3214011738418403,-5.192263410450931,-0.4404616201117523,-8.365942813803564,0.3084371721284071,0.2442040937697763
18491,,-6.768928468780563,9.261048997843082,-6.91617942467605,3.4047822226344366,-0.3089973903500313,-6.291511034171076,-4.6742469781806175,-6.070390595314215,-4.6222495056905535,-2.35042981586935,1.9746775582717195,-9.381530277057006,1.093280086867269,-4.881418062405554
18741,,-5.980093537345404,7.019928198495009,-6.454086656566195,1.8127949618154275,-1.6634231134613795,-5.658296933389755,-2.959144003159868,-5.804192060737164,-4.366177260637587,-1.974207228532292,1.8753605892667704,-4.017924586612412,3.7872636672180193,-1.7853666653494278
18990,,-3.770626693476066,6.083938020050575,-5.203680164873981,1.5105262186361503,-5.426340640497251,-5.288167918173935,-0.8749706725303174,-3.7572467327585097,-3.899240496212104,-2.927545884942131,-0.8330458750884623,-3.625288087131844,2.6286193572360714,1.6186163842712675
19240,,-3.7391012032716464,7.069958902921566,-8.257294786659594,3.071278206774556,-2.8070549098387545,-2.452858775294515,-2.557758462801201,-1.7974839921807997,-3.367764856420001,-3.610155351856,3.19293064990595,-5.806833013939565,2.040029936573448,0.3361427176718288
19490,,0.1118740952129572,7.054669100031528,-5.047085351569209,4.378563254422914,-1.5779944498730505,-2.4189242135900813,-4.496023510884569,-3.394574145377124,-3.5209174758444384,-1.3921025341305604,0.9323768460439518,-5.025835897123785,4.156413368970149,7.246192257251153
19740,,-0.4641307965378036,8.223848151153211,-3.790873229779344,2.6410536768251216,-2.526654802726271,-4.216455345328955,-3.255078457931286,-2.881994373365955,-4.927720249477575,-0.8370174709190302,2.811445174803388,-3.550579450995139,5.635539201619128,8.143506383884489
19990,,-3.3128143206335423,7.4952064748797875,-5.693977071882143,-0.4038712265605543,-3.763123108463134,-1.5696999994861085,-5.270906984384169,-2.535530902643888,-5.595580147127185,-3.48972747940932,3.4752013084589057,-5.324837729580797,4.179980353599269,1.736634882899596
20240,,-1.401619635979233,8.506504038804142,-4.7141992925288045,0.8847179241856291,-6.363928591703409,-3.101080867012528,-4.396799759745714,-3.297526061037548,-1.836262566555016,-3.1679268907652385,1.3355919955145588,-7.329534744749764,3.921359489364243,0.2164437270197159
20490,,-1.5719988060082444,8.631865511339035,-7.17313570564607,-0.1275659616910138,-0.4447690696831115,-3.359115921939313,-2.824654301959257,-1.204057888504016,-0.806309837240201,-1.3739612562619423,-0.1364662753776743,-7.388194919280009,0.8372866330917725,2.924031090890705
20740,,-1.7850258453985806,7.840240532789525,-11.401912071487972,-1.226477591632957,2.0785357057322646,-1.9753616975134924,-1.6151762309664153,0.4083548307058947,2.3136055865213945,-1.0494174420053308,2.0155228441015973,-6.706834275471217,-4.612315824169263,3.594810758959822
20989,,-4.173778187030685,6.720402125286695,-8.367527211801212,-2.4545698798178206,-3.075862134125223,-3.0013483628190656,-3.9169301548962783,-4.924828669192027,7.667337842906853,-2.59727778199975,-1.5406228021711272,-6.407633590743077,-0.1572149304123049,-0.3148344383568163
21239,,-4.409128493822793,6.07890932852969,-5.322018468239055,-2.2504512467127693,-2.687204292831245,-4.077615688348445,-2.435058815021281,-2.889725767477524,4.09390380093846,-0.964271240471872,-4.894486916809932,-7.905560158511934,0.9672925397687824,-1.254864734294772
21489,,-5.619983330534284,6.762654479214483,-6.428672923121591,-4.291023916535883,-1.925149974076448,-3.544130597727784,-2.990916854631704,-4.030380473120639,-4.846272283821776,-5.414923747254971,-1.0610011669961072,-10.208302441354856,-2.688520382466536,-0.372892992128952
21739,,-3.4323110672364847,6.48688235998441,-10.80795291233242,-3.532096371048046,-3.082482067339505,-3.3248081036856147,-4.219872542151536,-3.623044554214725,-2.965640801132849,-7.114124374591588,-3.028436432377978,-8.018846834836854,-2.3093532842503506,2.340821556920752
21989,,-3.732087027023767,6.433645654748204,-9.95843577989281,-2.584839692821407,-3.576722207637291,-6.126191621910026,-3.597526720963335,-1.1810740025871742,-0.9036418948886796,-5.36531022855891,-5.413783431648515,-6.491246179025505,-1.0479771024818558,-0.1807345339894725
22239,,-4.708020868764493,4.804336570110485,-8.874363151386493,-4.863991324856917,-4.557578148991153,-6.990544497714682,-1.8514105170320605,-2.7919897356846883,-3.0530173759860952,-2.845751226825439,-2.8627552049019163,-7.036683677561545,-1.112502656896039,-2.5344388966843123
22489,,-4.7875957130030775,4.342287480317283,-8.64831657375459,-2.932679180434948,-7.095147047335463,-5.171999146935587,-1.483540828908767,-8.434198566456505,-8.053602463116766,-4.317821963074307,-2.361439795616679,-8.304659953250264,-1.255833245311351,-1.4771468346205698
22739,,-7.356873354858161,1.811860684672581,-11.172500697430763,-1.5897547931139906,-3.07175222950662,-4.876680002943726,0.1129205961014719,-9.858655633277314,-7.696656613540959,-8.310631715653368,-3.6772114196039904,-6.008730158643139,-0.3995776257318745,0.6685741430161125
22988,,-8.273909307703333,1.4426054896687668,-9.605165486848072,0.0984221889473318,-0.7883587334178083,-1.752822482708719,-0.093765508674479,-6.940099427632624,-6.333249459636195,-4.554335041552752,-3.0764860777259813,-6.934104076598134,0.2680572573224868,0.0515797305971741
23238,,-5.4117484369556585,-0.0977434952769014,-9.03779229278326,-1.798145826363189,-4.200122449677905,-3.735777951114976,-0.2660129307347536,-4.0125624608400585,-2.5126441134672235,-4.4166479779780765,-0.4658563212653445,-8.467762261485962,1.6174054948790633,0.1328097410718697
23488,,-3.108842331079058,1.1396267159585662,-7.513142815491034,-3.884006460177789,-3.0243228691233166,-2.3421777584724146,-0.3469324383391619,-3.9133660177874607,-3.299988430103123,-4.352460851067907,-0.3184899664846555,-4.747712525416218,1.072672050479087,-1.8210814510114768
23738,,-2.55665626601101,4.183163448084734,-4.555325624093063,-1.3284239782562564,-2.373570109781727,-1.143875350712818,-2.848656330905351,-1.8357372329867483,-3.099830423625848,-4.18433689733328,-2.46668692826007,-4.154536694002952,1.1979577908244772,-1.1091166424399326
23988,,-2.772473948868486,7.037639248569505,-5.669207333822834,-0.1527425276699727,-3.734426726404342,-2.8250590492955228,-5.571097777489435,-2.40025380665954,-3.805408616276368,-3.2842830843844872,-3.637347696943096,-4.438223557474679,3.548259539228535,1.637058459972258
24238,,-2.207348554052277,8.454691699210517,-6.6338548143513805,-0.2526063273821036,-3.9398211465192974,-2.3750837003300416,-4.230851382892165,-2.5049806115468645,-5.007529249198481,-4.730873764841098,-6.785042341424802,-5.528557728640329,1.1809850555247106,2.898799869893428
24488,,-3.401197767717567,6.843865411771198,-7.622967297740129,-0.4684594038751732,-1.6637778035274118,-1.599595979141764,-3.4753500963434,-2.223048233808454,-4.406751058729198,-4.173375180599309,-2.498751656381539,-7.022371057427712,-4.650956824235701,0.2714216600452299
24738,,-4.609414397395454,6.272118158061285,-9.467118438228674,0.0111812272503,-1.3252487598501004,-3.4371967347729795,-5.642588940614681,-3.082943601069493,-0.7157367130404503,-2.0824101260726984,-3.2145951452271024,-7.071240756084092,-2.5933002382309223,-1.0244138733795247
24987,,-4.314655204790123,8.253995738494552,-8.33756055983914,-1.5001039842273878,-4.809402200329764,-3.29322028246429,-3.135166943717317,-5.084905629490827,-0.666417704097731,-3.863945650640881,-4.812212666762697,-6.219964282293876,-1.630887673644955,2.4110865430820354
25237,,-4.596609842399065,8.255152464696607,-6.42345385264146,-0.2601081941055904,-4.808084987398932,-3.946603026026938,-1.8086000354011404,-5.232700810809828,-1.461081813687186,-3.043289745896715,-2.8573859920021887,-6.824069824506374,0.552055724756839,2.9999406674349647
25487,,-3.787644255424674,4.73998094417379,-6.877920989537242,-3.097085166226908,-1.4050610894633069,-3.777077336658028,0.2364224238354089,-4.712056521871243,-3.4932785629628684,-2.7248983572025742,-3.772583297349773,-4.353669236106192,5.6077415667821215,2.118022567850052
25737,,-1.554482300967484,6.852473547431822,-7.572018489124829,-4.263244340145805,-0.3940219750073784,-1.4745350896007463,-1.0773730842431335,-5.151819897212792,-3.6259568255148182,-4.816696730875098,-2.0224471859790647,-2.6863902277045373,4.256524061235589,3.8198008457387433
25987,,-2.692926011931997,8.400505846148626,-8.08026845647351,-2.366596884285752,-1.8599769533987247,-2.0230854490234123,-0.9595014747529492,-5.03943799756858,-6.302487855718409,-6.425698056101378,-3.603665917479142,-2.161376640390791,1.1536390778722037,2.0835481232562456
26237,,-0.9858162182478096,4.708124501272567,-4.027472562163649,-3.325340028877032,-2.635885192220364,-1.0414447132624192,1.3169664251750677,-5.396171874259057,-6.441738098052135,-3.4136052796751493,-4.686031563576305,-2.614203203740777,1.592738221988104,1.514671912231104
26487,,-1.4797135323464463,2.401597325766818,-2.920707116538035,-4.597121325347756,-1.4184460957189846,-0.3742931362460615,-0.6798645671887498,-7.4535974280080115,-3.843294901466587,-1.3600808878172346,-3.0549749030806743,-3.2505851671987323,-1.4368598007719608,4.03013197963186
26737,,-5.8222907588580295,0.1017648672319331,-9.751097899363664,-1.829075543384679,-4.788031633255184,-5.095284153708004,-5.587239534070591,-10.15401466418514,-1.7635943834924213,0.1737661146916062,-3.17985082360583,-7.991774506314013,-4.2017022493262814,0.3371639335008631
26986,,-6.270656939186644,2.9561356724238657,-8.57854820298232,-0.4430329048731051,-3.914474948926255,-7.396671227735113,-2.829273225171609,-5.984581235802144,-1.4053600294770288,-2.4557126965896923,-4.011357734898895,-6.069745737247376,-1.1910213315338798,-0.3780900690630657
27236,,-7.362681751768063,3.927192289014056,-4.425588708017164,-0.7315138879381915,-2.9769411521079703,-6.916347285169651,-3.285217717617301,-1.5655057376496575,0.0775851254824356,-0.4954141192879371,-3.031456050028525,-6.322138543686885,-2.1017326688907128,-0.6090671372251745
27486,,-6.779026989264012,1.912200037347322,-6.345471715896594,-2.1887604062830714,-4.7473990205089445,-2.2877938188658464,-1.0056149607860534,-3.236527176952156,-2.083567439115739,-1.0069311959950098,-3.1987247623311887,-6.139416441042625,0.1881659083761329,0.0260379976166296
27736,,-5.715193456478332,3.1178414579457083,-9.50693007963554,-5.535254869854088,-5.937782865542502,-4.0954222033172485,-0.9064036723029514,-7.450013160775281,-3.5277656249144886,-3.0219802832440528,-3.5885643492047463,-6.070372444532215,0.2512404901317689,-4.495331148422423
27986,,-4.091238711846384,0.8625791638522872,-6.279683303053832,-0.133180618457585,-6.612302758914668,-5.74514164054169,-2.6631811340199496,-2.46484305527688,-0.3214886362692926,-1.4831374482743118,-7.549348099260231,-7.382940395631499,-4.165003690904705,-3.6323927555077344
28236,,-0.2153390568416457,1.3636178736493951,-5.524038395836547,0.0163669977550728,-7.305097384285606,-5.21618647612611,-3.700407410243741,1.104624181952588,1.6072754911375144,-1.3461762352243185,-9.050997143993577,-5.1469259143027095,-4.659872538378373,1.2028243710695676
28486,,-1.9633659865074604,2.280872080913721,-6.052101284653684,-3.31377510106924,-4.168375460587651,-4.725282335124986,-2.0030104636441552,0.477233408597808,0.3272138853597537,-2.657287173454099,-3.539310865474161,-5.085481681447525,-0.8572928972579414,2.3188931024383805
28736,,-4.330281437594328,0.6556509025266601,-7.774268137268492,-5.558269330326199,-2.6047061727581413,-3.9341076911995065,-1.485624440486487,-4.50173090555308,-3.081204130421161,-3.5214301299846387,-1.3911053473155988,-8.837638707481064,0.1918650976136204,1.9431639074874232
28985,,-4.943437355613031,1.2953988245821015,-7.510455903715525,-8.766797448670006,1.9851985895563895,-0.4520017222207881,-2.063431812436573,-5.6771751153169605,-3.91846696368093,-3.941388608131878,-4.214171344923587,-4.54639392619482,-0.326839751168132,0.7968124717462435
29235,,-3.1906548511909127,1.501349310656285,-3.51144065440474,-4.356514362285826,2.627073531782531,1.2306431047607664,1.0568153905839732,-3.2551715444558003,-2.1508168116236077,-1.702725097172698,-4.142706730052572,-1.272279502749776,-2.616818148310335,1.4223482001021286
29485,,-5.558630326011552,-1.0584681876483248,-4.228290935651287,-2.6558439213525986,-0.36667295258917,-2.9523124606808078,-0.430176112761263,-2.6776679226154347,-0.4085631496526917,-1.5934846693721334,-3.4307804718923096,-4.205455211696796,-1.5151067581406574,0.344611707926888
29735,,-5.824663384322768,-0.258378358011939,-6.322101323674472,-3.3018468009789625,-3.5881073475509484,-6.081506374844883,-2.8610565316477725,-3.4829247138654678,6.655494776237141,-2.002856048582062,-6.2388206092279805,-5.012361617212129,-1.6316737363709153,1.0610927451096637
29985,,-6.629032170822997,2.974905320487601,-6.295461876550947,-3.065564393395565,-3.9239859722406303,-4.049078827521974,-3.1050681310898787,-2.2025549280047025,7.323266233339271,-2.4591617746103904,-6.496126058460785,-6.631651875055869,-5.547529322835361,1.955251578376802
30235,,-5.396951823247526,1.8881768538724888,-5.860116815655455,-5.376822849480082,-0.1162748088527197,-4.1458163883402825,-2.375480088292692,-1.2171143551799646,1.943397689039161,-2.301450018540895,-7.517529357596874,-8.450447906846208,-3.561971512023975,0.5994719755065889
30485,,-4.170022812026301,0.646531770949305,-7.824049793295878,-8.210085904228439,-2.5715943299103183,-5.971188461674042,-3.5709556981162542,-1.3707214080237242,-2.476745546717809,-5.890178066075926,-8.011950446348834,-7.467871184009722,-1.299649776100869,0.6980122703798385
30735,,-2.3811751445803853,6.508269835697234,-3.992847467413613,-1.8994362298555985,-3.063533541033244,-8.286495463546563,-4.14991960664982,3.4986281217714934,0.8072028272273579,-1.6812446851987528,-5.359728522987579,-5.059081127313893,-1.2163439414565271,-0.3812352720147259
30984,,-2.3929248956924587,6.995064005390686,-5.8925522040668765,-0.9966463704728667,-3.009888758236921,-3.58572414345415,0.0224348964571068,0.0872827613395535,-1.134711374176625,-3.3779863483728216,-2.8201979398231503,-7.872813627425627,-2.7656644766863794,-1.582207577599398
31234,,-6.202636951440485,3.857655393531234,-13.898398251785322,-5.510697642130976,-5.447589841928444,-3.377118113678666,-0.2645938179549893,-5.729254857911172,-7.585550790904644,-10.460679137109764,-1.6500678655359071,-8.229479108537207,-3.780102752532255,-2.6984505081622574
31484,,-6.695367870571611,3.4204520708465127,-9.17021874996141,-7.391149366432245,-6.971721614149563,-6.852206449559011,-3.433694806950921,-2.9757813836160447,-3.979108975996533,-5.441258850760736,-2.606140090540636,-5.474293772173839,-1.4959550655457663,-2.5793313677378524
31734,,-5.45698750592514,0.3820662194057805,-4.114887582774633,-8.041568147072947,-2.8893088972580787,-2.720078092813959,0.1293356307510646,-0.7514749092152212,-1.4931084444029243,-1.25593226817927,-0.6892288264603514,-4.956310749744281,0.3889646025583231,-2.154849156576814
31984,,-5.272691014819396,-4.067274508888589,-3.773907989193894,-6.930102114242615,-0.4388364320269088,0.8014326821033958,1.4812534105211972,-0.9486292719537814,-3.132429330683752,-4.757195408158586,-2.926359311882392,-3.70889285688454,-1.2044651492114005,-5.426504983820198
32234,,-7.181815184066989,-1.501476249914976,-5.470926925615707,-4.713688056787195,-2.261063636220384,-0.7841556273961091,-1.3931185568213291,-2.4962526315619358,-3.8489547260260752,-5.218217168631773,-6.4670775041889295,-3.941353239502407,-2.607331711861564,-4.107551042376256
32484,,-6.070092260080104,-0.7226024755618877,-7.637412869165946,0.3293988752213209,-3.149112112611672,-2.857128807467165,0.3868553440525347,-1.1492505197262397,-2.842201481988487,-4.641818845981263,-3.307152602891723,-5.645749318003583,-2.815043562375629,0.3982058968616949
32734,,-5.098054306269368,-3.8812193254701177,-6.375106277809972,0.2420237596611357,-3.969013617480747,-5.390342150962114,-1.3116498807954655,-3.205422355588526,-2.525514027965223,-3.540366793093181,-3.980060256738104,-4.59776256022682,-1.2498956634208915,-1.742692942461219
32983,,-2.953535185543061,-0.8812572725040926,-3.4800119184180742,-1.5049212884549203,-0.3849452861659346,-3.924366050197445,-2.07987410601704,-1.7084274616784652,0.3448170446658221,0.4580651018423618,-3.565968202426702,-2.091945950058615,-1.253602923382272,-2.4795480783004478
33233,,-6.1804006453802565,-1.0752168954983767,-4.503253005688102,-2.6542814206401943,-0.0696242755166295,-1.3838056751425374,1.08704218357994,-1.4392032808196422,-1.934387020454148,-2.553991671412175,-5.625275006342427,-3.717691008061333,-3.8485797843609646,-5.662817661870829
33483,,-4.395860468626212,-0.1527211286150613,-6.2659058539639165,-5.061346941581027,-0.8878994061710588,0.208286863406675,2.793443464963972,2.475250169849452,-1.1145704548609467,-5.083144194154667,-6.9665174244159385,-4.9587715107572885,-5.153583106119271,-4.473277012609789
33733,,-2.6096318277454738,1.147050981758912,-6.432896587032852,-5.036855923829185,-2.800821917720308,-1.4629952578096703,1.5914383002257926,3.561379759350106,0.9626600602574368,-3.032172050374947,-6.904085099603599,-4.127712264324567,-2.36591496194132,-1.2920184687124503
33983,,-5.765365287170335,-2.3778778337699347,-5.846775825705154,-3.832635804901436,-1.6536427274945853,-2.6764931399545717,0.1942696348921735,1.4481249924499775,-0.4464791467983384,-3.66256513626516,-11.401197504913112,-4.698826742704608,-2.7187442260923547,1.9217408038284616
34233,,-5.354800097019616,0.5617741105987574,-4.936257774775309,-3.960024716872408,-4.64784997829932,-5.866033074918013,-3.776894773325097,-0.9750086294345774,0.8930296424049047,-2.655891060750819,-2.01421923244091,-4.92411965243612,1.4243572614558313,0.5669245225144162
34483,,-4.386950202360098,3.967044819904348,-4.383026263177939,-3.74029940327771,-5.362759816963331,-2.8859064135754235,-3.953978366201469,-1.3126203172044495,-0.7370001447047004,-3.5205640526795423,3.979529414173921,-2.2453805820572192,5.638486375709859,1.2578899815724816
34733,,-4.375695776412073,3.933130298075138,-6.704773544360362,-4.593588256298315,-5.2729395402297286,-3.07092488911377,-3.635400022253266,-2.523241588939753,-2.961940853008986,-5.902476829156647,-0.539217217503121,-4.658740114901764,1.7017394802947643,0.2303415509128757
34982,,-3.7466455098939946,3.249826746431748,-6.254464660062322,-3.886028719835213,-5.03058230190531,-4.166857833663997,-3.538668829236685,-2.0869040374899845,-2.6535981598115184,-7.838074025501797,-4.028605232349089,-6.265820560021542,-0.6944010733321628,-0.4815637799976196
35232,,-2.617192569284928,3.525699405521508,-5.117910783884337,-3.288366571617772,-3.487197047621909,-5.9362446345156,-4.330569111740986,0.0386874733638333,-0.7545270061189009,-2.894166554981616,-1.9409092908410548,-7.501616561467204,0.7515267292163857,2.6882198046800814
35482,,-2.4550988016938167,1.9378929611441067,-7.423786678160427,1.4243757033698532,-3.2343985096015304,-4.211070565784493,-4.842251563194209,-0.3343860862297905,5.907900969602401,-3.3322744118785703,1.950360506473816,-7.187790752700471,0.1807134754050481,3.720910761136632
35732,,-3.120967612480773,5.35334478728168,-9.003080236562711,3.5790363313500846,-2.82722925922745,3.8396013925927166,-1.5863418588938227,-1.3375482268133798,4.725898733934396,-4.283376378989071,4.695550668382484,-6.952759960583112,2.299564671654022,2.124354146473199
35982,,-3.526400664700357,8.718944123455788,-7.5984982967793,0.4022821422197947,-2.782610365039378,4.06444654185583,-0.0398562664461023,-0.6192642441135503,-0.6753943349712598,-4.641638995654235,1.7866891772543214,-5.408902821262993,0.1822952834250852,3.3563291818722845
36232,,-3.6056709412355614,9.032990563604097,-4.992074544411012,-0.6341659154705775,-3.744872323804816,-2.825388452194499,-1.501471890542799,-1.5764490069751451,-2.3124446868820936,-8.060944812086372,-0.919105134997037,-7.984143319578153,-0.4272988338204139,3.2979695016209734
36482,,-5.903529326293972,7.634643166093702,-7.259135005973558,1.4376259524620252,-1.627465834709665,-9.3032155507985,-4.3729374911580665,-1.52100219641233,-4.468133257566027,-4.571116740621523,0.7920354449366025,-9.225642159817191,2.40728810247354,1.6526916985179003
36732,,-4.597193489644472,3.0256427709815887,-11.580792528220355,1.641580797016013,-0.548068303360668,-5.141033302069374,-2.466042658403223,-4.1272079546208085,-0.7244948683220297,-0.2803826286532357,-1.861976635488081,-9.366372469565189,-0.0727413200821348,1.812358559576928
36981,,-3.515190440748726,4.1671482241559366,-11.251199463737736,1.7878288538935472,0.0501717543988279,-0.5023397142919983,0.9866215320911542,-1.1930582498294346,1.1446638776711129,0.3662230218173729,-3.674682522878867,-10.497724710265302,1.0891506702915978,-0.3603795978740682
37231,IR,-3.097021108038445,6.890192461808305,-10.819542139822309,-0.8985929427892745,0.2733547820160119,-0.950611007841888,0.6417253055602654,1.1535705111998245,-0.5656851179633597,-1.641694078609708,-2.5084387898003406,-11.449803745049255,4.2120503871773245,4.231228299562737
37481,,0.2334800782370884,8.614569201411108,-7.425861142066906,2.243630738337836,-0.8562569988062543,-3.2940168624279,-1.214748988003543,-0.369469281971288,-1.5481560231706537,-2.056651780177999,-0.839024036496367,-9.230183556783173,4.524377091912396,4.720487452731852
37731,,-0.2022312324031951,6.155241992489657,-5.849494467354452,3.2027868192441096,0.5620008081073541,0.3002761996713177,-1.4406472512783055,-1.806505663432512,-1.4522580984912057,-1.4514909179247228,1.0490591074651598,-4.991261102274932,0.06173167794705,3.722610100745602
37981,,-0.0012389269325029,7.384075060564143,-4.121986995956368,3.794230181731165,0.6053921937710073,1.5989236694086084,1.6894223926942802,1.167021876533508,0.3618464604723149,-2.3456752592417915,4.129018718223036,-3.7133317911818313,3.2705745498851444,0.0138553708830155
38231,,0.4328506255875074,7.375733283446991,-4.852088894664843,2.4592084030904138,-1.1868684459126793,-2.28450684180502,-1.582930157806233,0.7062628915299345,-0.4208881864918489,-0.2478204272313558,1.3132758166440786,-3.1016343937831885,5.504621686264953,3.778427722810558
38481,,0.0962711052576607,5.668197318733606,-7.866483820176196,0.0998686113516998,0.200211875222339,0.2077492061915051,-1.3993063844456255,-4.930148699842693,-4.891256358501092,-0.6318309603635814,-0.0287137233732081,-4.913493442484104,1.5002707002284397,5.414627263151159
38731,,-2.4289975025386594,6.9680702881755066,-11.132118832716175,-1.4724651398376118,-3.412155113950948,-2.2523927279520515,-2.0311863421459933,-4.617000709687425,-4.614088870163441,-2.299855850823948,-5.620892923425234,-6.100243160316312,-4.357468610862717,2.544803256008495
38980,,-5.600239330868596,3.824274122635265,-8.610773590539111,-4.2024906047557415,-8.326409686855081,-6.987046600319365,-4.288266840246884,-3.1253355393985043,-2.6861212705342377,-2.805255827819972,-6.469095839460967,-5.243494491678313,-2.4761384480583617,-0.3366324138678877
39230,,-6.614385988622425,3.8325512714272576,-8.055546120885769,-6.558921693978178,-7.726433652597131,-8.426466072880952,-7.149707781780541,-3.2262936082125204,-1.928670049699417,-4.902186190489863,-5.0201836570365295,-6.315561333971359,-3.256389669473068,-6.914169913966201
39480,,-6.627303828115361,0.934127652723433,-10.448972663397768,-3.796312706071285,-4.405633277591567,-7.859852255188075,-4.899399728982021,-3.176848332839866,-2.5179263630224087,-5.028444617425281,-3.5948282865656003,-6.2589434739518,-0.8617731869878291,-0.5398298771736064
39730,,-2.086229127198892,8.024184897516864,-4.803324552794235,-4.182696325207006,-1.0740182237216491,-0.3835705481996295,-0.1881012331340723,-4.291498101735433,-1.427381721469366,-2.095810472308088,5.70746255033745,-4.14510743741212,4.9310237898263285,2.969648954301057
39980,,-2.675387958115176,10.469778805908753,-5.054811177868385,-0.8099653234576819,1.2997172624727205,-0.0338177052582276,-3.833511322336972,-5.391568429005556,-4.945507316273321,-1.7151937689588257,6.904515378489106,-3.9194585800127326,6.294949579350957,0.8599766816342342
40230,,-3.8128854661907456,7.416506422488527,-7.160671075406406,-2.2369134459268407,-3.7286492875415576,-2.186875840415881,-4.16810645462173,-5.256454646595703,-4.815895138743918,-4.7252032902603816,0.6494361305176792,-4.915946005009191,3.270225546645953,0.1537055426202812
40480,,-1.45559502550054,8.674246085140918,-4.956880973846846,2.982615827900621,-5.622887466228913,-1.927033980342756,1.1611022208761428,-4.451144439197224,-3.1314525091558574,-4.483931028530288,-0.2545423845643353,-6.704695804311101,1.933253877112382,4.269996965673165
40730,,-1.467354690175589,8.511165670417181,-4.169043547798003,2.9048279170668128,-5.244625950192373,-3.1153596578782494,-2.2754143844339088,-5.622278910481072,-2.6348711632896773,-4.7156779190380576,-3.076051400495553,-1.5452439144090415,0.5817557455881458,6.5734367813897565
40979,,-3.5509646615832806,6.353168813401545,-6.417399174444727,-2.272294543826659,-3.50748937118057,-1.962833702234972,-5.061025411638345,-3.4575502230204624,-4.598632518636505,-5.993885767212904,-1.5629779526895415,-3.2794039190535478,2.666496345082515,4.539833804888844
41229,,-7.456771743238489,4.247182034844242,-10.279455350131292,-3.820345782911257,-3.460457120714816,-4.266278356418346,-5.425933671721186,-3.518505977350135,-2.2655093203297056,-7.330877622959698,-5.620986050017769,-9.248687987528166,-1.082505354791863,0.783721878123711
41479,,-4.970544082200577,-2.8005841844687622,-6.204965714835755,-0.2731172112524055,-1.5828596271591078,-3.2793269582844697,-5.000135156077833,-1.7279738277663648,1.5186099522168004,-1.824200770192187,-8.646088634503577,-6.947855623722998,-8.45209546977515,0.0933017857921287
41729,,-4.306541261509786,-1.937463168807282,-6.459544768675239,-1.0375758289803214,0.8184793676007183,-4.113701416360555,-5.276580877863878,-2.5926285184858417,0.6033407695599704,-1.7993706115980572,-6.749334259732431,-4.784268478198625,-9.595527188225065,0.6291972164943878
41979,,-3.025900277132316,1.1284083881556974,-7.508264679981388,-3.640247737452488,-3.8131606885301066,-4.635981212631212,-2.594969611433866,-2.961527962175289,-2.0776439651022147,-5.725809508283333,-7.39737193098383,-4.268749602846692,-4.998836099009934,0.9734830856558402
42229,,-6.421974470313653,-1.444860192089699,-7.512195283332891,-4.079785873790032,-3.7267500383215153,-2.0231608537975228,-1.1228506202908504,-2.6821458094348705,-0.4067086699394983,-4.265938652950708,-5.1365223708785575,-3.9644097891224472,1.295511411346738,-3.057668221307863
42479,,-8.258818650772788,-1.882045084143176,-7.37942764512381,-3.2926486349684665,-3.1044606323068407,-3.5566414251384737,-2.125759837331792,-6.124245650880064,-2.5323395863430367,-2.050704272617858,-4.300489618381931,-6.181934190022151,0.0334993994600585,-2.7323689717808257
42729,,-6.793696970618085,1.2314212075812772,-5.631392456647789,-1.8901878707684765,-1.9901165457840475,-3.255647535118784,-3.210742023381194,-0.3024131323404249,1.3043599595475546,-0.1314652272477963,-4.055846913326436,-6.086321195240068,-0.8329453859852854,-0.0417818654975901
42978,,-4.506726693503086,0.8254437353870268,-4.952160043543231,-2.28000467446001,-3.32009645237563,-2.726144832408321,-1.0971312033235472,1.3953822660843689,1.7928270540888231,0.2251819554698644,-3.0332772414586198,-5.920812849846262,2.1590520877568755,3.329019140491339
43228,,-4.6758003776852926,1.17020386559217,-7.89994077413578,-1.3849031358110684,-0.5483444314498427,0.2568184891833548,2.5311935285677185,0.629749204387408,2.1479790472627878,1.935746275638237,-1.4526511484974307,-3.1611785543364284,4.744202693873353,2.5799567700717567
43478,,-5.387353092168064,2.861472187442496,-6.727497014014307,0.0801930315577866,2.1719342593852824,1.558026209170333,2.3981464668333,0.7592884194364726,1.2272009170351093,-3.5866945108036963,-3.472881620830282,-2.0885708566236088,6.137317128678338,0.2214715475797799
43728,,-4.838313746607233,1.8605603279392475,-4.73964089711018,0.5438149340160602,2.541782996324049,-0.8070241735816543,-0.8065896258880622,-2.2752756174148865,-1.7243878929412146,-8.974299567102815,-5.660991445033908,-2.588818871375738,0.8763204576418092,1.76936776932469
43978,,-5.161439990765202,-2.8766847451818487,-5.704471519286055,-4.068215497624407,-1.9553813956729729,-0.8080688893935829,2.7677488491956885,-5.547539207447507,-5.534687985739211,-10.87829404298295,-6.025706953281532,-3.9356891331734527,2.2038952758467905,1.9695760483294067
44228,,-8.71693459921534,1.8467139777615127,-3.743732332922828,-2.6820189878141862,-3.129067668499101,-2.0326345198274405,-0.0910161955074355,-6.739841320862024,-6.506598310804765,-10.958139887833372,-9.212698755669969,-2.209029503909598,1.656647445373496,0.9835513861835676
44478,,-7.791865278024409,5.309886225545224,-6.834006295686285,-0.4564218386767302,-6.319455755882235,-5.2683455522610245,-8.348347152358864,-6.514480342338215,-3.982342801772848,-6.12132018421221,-11.57772040980509,-4.107793392598506,6.483840951326677,-0.8172195337963817
44728,,-6.861723452092575,-0.4992867647653096,-11.452684698006676,-3.3342902778031203,-5.008952986038354,1.6715430321938447,-3.6010504989721417,-4.559913101643637,-2.900999334272214,-3.56087716418463,-8.885283111721225,-6.10105608713685,5.403623646896847,-3.4666251248817312
44977,R,-9.263263732295965,0.7550864628850973,-9.636025989238648,-3.5840509340730176,-2.706134750080822,7.516918420056296,-0.1904712069302416,-0.3091382503641663,0.2505742613533312,-1.2100926561378424,-4.604093039648926,-7.486680588242953,-1.4005395823581286,-3.43218824668037
45227,,-6.019664839375272,1.4308076285199067,-11.195717669073035,-1.5047593298396589,-3.33463297647802,5.100734873643972,-2.8098269387627712,-0.2121476270403119,2.693058693556696,1.4065170483877718,-3.069355267176335,-10.555210245181266,-0.4809322415406751,-0.906927880244646
45477,,-3.726378384541107,-2.258405283942416,-9.340451817313596,-4.2876954717123015,-2.0494146008389373,3.682482184544861,-0.4059525381457904,-2.36610028299728,0.4140289338897525,-0.3912745943551274,-5.978945901975139,-8.851171850731467,6.446771453387406,-0.0456934318282325
45727,,0.3359155790607004,1.897726736891185,-4.980018814328558,-2.0628265096676364,-0.0977932176251762,-0.1413520299281598,-0.2456527678616768,5.3328612590641535,0.3697914170095811,1.9730141606402756,-0.845795510600647,-0.9438585229250956,4.90606007469606,2.7075443807519
45977,,1.3758475943996429,6.866713384869833,-6.22735379477213,-0.3927606160100954,1.1319090188428405,3.078254902271846,-2.0677484812994265,6.17226049142619,-0.5396853441387988,3.063492019644039,2.518101031341349,0.2064924024231119,2.0732069231645247,5.3733961100841725
46227,,2.0697550711218184,6.92057753504386,-3.9195558093739113,3.5615245331086003,-0.4397187532540696,2.920720553922964,-1.4482495773345585,-1.7687127482811218,-5.246728936203072,1.7683447191809274,0.9890138398126966,-2.2710629923113466,3.7601053458160982,6.659906147916396
46477,,-3.012947314461722,8.62796083100715,-6.7659180295035135,2.304004430833757,-0.0018696443801762,2.8145116163826045,0.4603030308886857,-5.137648005871486,-8.000330047576197,2.430334416243422,0.7326445025917089,-2.464566128004528,7.730251675781966,0.0136245644650709
46727,,-5.934226431795393,5.0166981713122185,-10.929669974427174,0.1230454271588565,-2.2335386557700447,4.129209724539748,-0.1992036253270465,-4.410411615058174,-5.090751026645616,6.597819113712356,-1.995092253829744,-5.530201069994325,5.100839105528455,0.2261493477742838
46976,,-2.526462146048228,3.3636316415601613,-10.841442634775918,-2.990569435880849,-8.275392196754524,-0.5736610768001728,0.1365381961576145,-6.87745264402357,-6.898667287554998,3.57974703688482,-2.663625486061112,-8.743251442587006,3.189119086424496,5.866649169965521
47226,,0.69409320048683,8.10693822380657,-7.064436909537022,0.7484868461083725,-4.280552284752977,3.6733836608158974,0.2017782044157329,-1.2085547307513065,-0.2731783703991923,4.323712810511264,3.773020144974197,-6.551425782158839,10.99677408659338,5.624529619360716
47476,,-0.7202398756795113,9.631649989180293,-7.603884661102694,3.65117665995421,2.3045531027671684,6.6585559355941655,1.9322222428550448,2.344644197583951,4.281306161203182,4.59061485741324,6.094827186004357,-2.469953110351923,11.200530623196672,4.283584637332175
47726,,0.6966477956190851,5.240926973037928,-5.551309495549651,2.6223008297088013,1.7751609332972067,7.142124913057749,1.4032271855293446,-0.5712174644666758,3.0990441826942265,0.7006259459141826,5.331629670551933,-2.950399803189282,7.113903147538892,3.1393773765471398
47976,,1.985992349563326,4.248273482844488,-4.182914692224784,-0.5656283629108928,-2.932018395516458,7.770217628405621,-2.328077508361716,-1.8631368635829129,1.2050490889460053,5.524009887960198,2.2281545422217626,-7.534516381377561,3.764191235753434,1.8577944763278416
48226,,-2.738190118187469,5.763413798797961,-8.110309304125687,-3.698103065650256,-3.566075173030425,0.9793423326461534,-1.8819628985596688,-0.0614452353012848,4.403198458361983,10.026378486483337,-3.56929342203292,-4.116202267994339,1.3605389182775065,-0.0320491360589406
48476,,-5.328603767778066,8.077395918209975,-4.178464681596346,-2.4582887661028705,0.9852344733341164,0.7410688362943163,0.8945368540161297,1.9391297060986044,4.143839270827186,4.392482954021424,-2.195301298961088,-0.3907642266919759,4.416209704813389,-0.7882387982192368
48726,,-3.8302475114753314,4.544924528024905,-1.3755199124530015,-1.267768591138598,3.727847329221987,1.7044976829725074,7.331901798439146,2.9974895661925363,3.671536834711716,3.970472530007311,-7.416102433511997,-0.7078653296694002,8.24457057676471,2.517882428649379
48975,,-2.022692594373124,2.998125579051982,-3.246314121744032,-3.0399650590739107,1.237161913124141,0.8595362124840139,7.062475394091181,2.963463316384227,3.104478605455552,4.075404742639426,-1.3610436301362618,-4.7169564353759865,6.741532638498708,0.857058153101118
49225,,-2.8626035251499866,6.217364400720696,-1.5908929689870486,0.4750202068240724,-0.7601965627097229,1.968056695965827,3.386755628256724,4.536374581401624,4.399730782279802,-1.3907859417572297,0.7788132225250026,-3.246661031343317,4.014273588758408,1.4473891464356836
49475,,-1.4352827997579225,7.727381191791042,-2.5305430009257,-1.3175092189224924,-3.182456726055724,5.723400450308038,1.7492019529734275,-0.2449104805636888,3.9629653076594455,-1.210139578217835,-0.9073649666800556,-4.815590310142092,9.62896761859404,4.922270653485773
49725,,-4.205095792014105,2.9706394526434337,-5.689452072001688,-1.8165064536480848,-4.385437888506246,7.314053006731511,2.1309769548191837,-0.8965644991383142,2.332114337175106,0.7660383824742374,-1.2480389865475274,-7.98710028355014,7.128777783082154,3.184766473838561
49975,,-3.274233501061685,5.588889048657036,-1.6156784741614352,1.5235081063016782,-3.8746276408654174,5.498275626044852,6.715162096131873,1.300293647782874,0.5999759172164648,3.621575883691474,-1.079011648338299,-3.9962952461305754,6.679889069636236,2.997647665065343
50225,,-2.0729691924829483,7.353702190872381,-0.222034866554803,3.0167758919963883,-0.9561504103261126,3.030083138772936,7.822359959793025,4.8305444483619455,2.059128709250828,5.49669019448694,-0.7283456981455548,-0.7192858670254005,12.474639928254607,1.27479287784412
50475,,1.4333299104848765,7.395320716018258,-3.4317877219354043,-0.467599091137219,-0.0689430202337743,2.4638243522912355,11.11300794859326,5.095450297503149,1.9039240659454597,7.755915418119437,1.419125869526756,-2.807038615727068,11.049846479948734,1.261506347703318
50725,,1.9313446557912328,8.896972096379523,-1.0154870294853886,-3.2193643963107075,1.1198603925798816,1.5793354228618446,7.081655021294372,7.509567957584445,4.753511970552248,2.6828774742512373,0.6847073151678406,-1.4820502199034111,4.611966423067038,2.840211150355413
50974,,-0.9012217003997636,7.998728477202809,-2.7303421648263333,1.0949552997072358,0.4338967722772031,2.925682781176489,3.777656860296042,3.86116640749212,2.471250495969429,0.5138152817240949,1.1500383190959198,-1.9085578776093557,6.877292202150166,1.6497894279815215
51224,,-6.512368504462712,5.726280181845768,-4.457348334691309,0.60826352674732,-0.1536290663730997,5.560378911797439,-0.9440614402221832,-2.7296413527407246,5.140544421778731,3.4043709821962143,3.105076722066065,-3.1820004447484456,7.909442483379646,1.4068641965524311
51474,,-11.982490973170828,1.8298884292720925,-7.036089466610419,2.8176768937276537,-3.740168247731226,4.501485671212714,1.4447818021955054,-2.915469593985876,6.642726964003844,-1.0082939019356945,4.69238962024297,-1.3042916128812116,6.756405486399466,-1.9604047811362035
51724,,-6.559713315770949,1.4615048683432883,-6.139744378213246,6.1789454674104105,-4.678170564243088,2.85215923148181,0.9785606378239704,-2.20064034319738,2.2518842712709413,-2.6309412207059166,1.2949845124215085,-1.770627611551039,5.57074864711954,-1.7041012264456508
51974,,-3.1062459817597183,3.1497579972622667,-5.645046921249486,3.10421231403829,-1.377509539853001,-1.3488856319859273,-3.037012972356595,-5.590880291054319,-5.113350748472174,-0.3500413652989003,3.304650736397861,-0.5148045684794529,10.78572003163195,4.908796139280288
52224,,-1.5841782493935952,9.15938100122681,-7.93576143561773,1.3083311468227132,-0.4251469688401983,1.5444394939829462,0.4780131986008225,-2.755339895880535,-1.9623125571557531,0.6942271094352913,8.970607463280999,-2.612648103181456,12.60625765497741,5.841185594425563
52474,,-2.827074449508321,9.138192149262595,-7.919559759015978,-0.6267666342968481,-0.9556642695898772,0.9211086785669104,1.4239261845415534,-0.5964974708213213,-3.30136523381279,-0.4152545422773107,9.327062762958604,-3.199665823054655,9.948066781680495,1.04532341317361
52724,,-6.562732540048205,5.580203069492305,-7.320920197208717,1.7038233706902064,-1.6324251380679844,-1.4965451496693514,0.6147447822932477,-4.093605790939455,1.2730972616007452,1.1053354067159258,4.061389196572712,-3.62551062555088,6.514485404721456,-1.4074025647295854
52973,,-0.0140665055433145,4.099048972159499,-4.881698469272507,2.9868788083930258,-6.525256193343453,0.6333711012244883,3.4323493024078475,-1.425642283316909,2.170235106140302,-1.186628539395196,2.1388117593555678,-3.15721907873447,8.99130068167489,0.2145706229887386
53223,,1.8069353434572943,7.5256265723724125,-2.7998006634076096,4.400042712028505,-1.2265503479460698,1.3943003366496631,3.331452261487422,-0.2646171271029565,0.2901418523192757,-0.293247594704383,0.5224656593727821,-2.531524734008032,6.893454469132648,3.590723215618965
53473,,-0.3941697239583577,7.258173068821528,-7.093191062783304,-1.113761240110306,4.738094102337546,-0.5342211816640092,3.906985951406986,5.253291125107319,-1.7131588540199505,0.4242540147749062,4.176558286231815,-2.6696934190829458,6.079759259022649,0.9721834284206534
53723,,2.7458931473730432,8.44812086041475,-5.138178856885466,-3.7511133927132345,8.465149640500888,4.063527657563504,5.005850706480955,6.644649274651142,-1.1742949477394655,2.3387333613500494,6.315355356674365,-1.922122761532694,5.700622595798542,3.0736769752398225
53973,,1.6452111231356892,5.03950960975561,-3.939649964790327,1.2293600478217142,3.8389026092405416,3.1772393477865357,3.603259649125482,2.833973275409804,4.99769148821334,1.7677030801032827,7.549379360279886,-4.088233447022355,10.510984629924884,3.8197736551525088
54223,,0.1450567622098251,3.784088175623124,-6.124626503457052,-0.6454162406955845,2.5421221865386308,1.0651713059985437,1.1968369325248434,0.8086376873056458,6.577720565589804,-0.4060417487956083,7.753016698478992,-7.663997549504011,11.707293504084308,3.84156721991896
54473,,1.0841223367619908,3.7952003832842167,-5.651773936380533,3.546257880233445,1.591334763737811,6.860567927752745,4.171902541315145,0.6594421489924372,1.9455948997213612,2.07894332267795,5.109803558184759,-3.251492595199052,9.514717235918754,1.0542096820116629
54723,,3.086868394210766,7.244245638351973,-1.450988797697951,4.216153277139666,-2.887931001680208,6.588471553684631,4.701610189040117,1.8343445078957317,4.8367458418858345,3.7495914637757566,7.466351298867165,2.595514305430928,6.294074155110831,0.1703915313669134
54972,,5.738660526258082,10.47228512316531,0.9048495690043789,7.193938084354215,-2.875956481158409,3.780121958994098,4.1100710690130535,0.3772716713226728,7.480729717453953,1.075403632809047,10.706935708166633,4.222412343113956,7.151082184396058,5.566078515857972
55222,,1.913011587455268,5.6080531102460345,-1.2628602320058635,5.403536345184444,-3.3212542010769184,7.764329252823725,5.307200115870256,-1.1586725221802132,4.160860469620036,0.294998380311124,4.049532469087137,-0.3967876468834592,4.7947097797261415,3.689764992069095
55472,,0.978993966815758,5.650758869357864,-2.5843970857519056,3.2042042364763663,-4.280275249846561,4.742524342852902,8.338523684961809,-0.4779519353711808,2.204040907829402,2.6889991269146347,6.23487029404804,-3.9258474877632734,4.408931398498382,4.890122232772713
55722,,-0.5024629784386022,2.9456991534710286,-3.8879054267817823,2.1314677545852483,-2.6123015866936545,-0.1029933405127484,9.60735084104148,2.5770582988432023,-0.849956711333174,1.19366748905558,5.953735088100004,-2.079205084822817,4.9422870181981695,6.17957920291774
55972,,-2.888965843282159,-0.9377030978429516,-8.007202266920256,0.7772316822099221,2.697701273273281,0.0596774755718109,-1.819184657650548,3.042371390975971,-0.3553605751978647,1.1411218050752878,2.5153412820483068,-2.665411646497816,5.050396314267566,4.006598571105785
56222,,-1.7111775940612526,7.3451688142334115,-7.607264634533461,1.4512987950052805,4.843401439933103,-0.0658514119651055,1.7923148768094603,4.3917902177674,1.8442811468668912,0.1870680565974096,4.328436769780857,-1.039610579782113,6.310247856082119,3.4250347725101475
56472,,2.5381686349013632,9.515172188764405,-6.171172985096475,3.903368906849443,6.22314215760098,-0.3338315899228205,5.155670587302296,4.835378112930386,0.9508705302645224,0.1297526547239366,3.695592632634377,-0.4619473719753527,9.46373203592142,5.553639850725172
56722,,2.0590875499131767,2.4724034153206795,-1.3726435755783415,5.164869359091435,3.163157627986486,2.62705809682088,5.928479607537129,2.3302558848080053,-2.024401726166821,0.9507188257053344,1.7408895606100463,-3.3881692733847157,4.713232350994004,6.5108387500971485
56971,,2.5771808824472027,-5.264410629965592,-2.062259179968696,-1.8303187264152991,-2.529226329832526,0.79660430209159,2.9426406595346104,4.44123854673486,-0.5529042065822155,-1.087731451313824,1.4726733130970753,-10.246506520319087,0.9099392853970512,5.047511906365775
57221,,-0.301982941613322,-5.736150195915189,-6.436096807379257,-2.643989659393991,-1.720209238893019,-0.909755875644528,2.7301270394531256,-0.2214429641094871,0.6489618377034001,-4.888502736453157,-0.6147191207253535,-6.758073685554896,2.9429555673097663,2.541628059784368
57471,,2.1825917576436336,0.1653696635984267,-2.146089832465854,3.743485665588122,-3.859613625026273,3.9998678082701646,5.785657499271258,-0.6278004540169436,-0.2953629444656224,-1.3267994677034347,-1.1441051886791735,-3.1297210169251537,3.4640114722146738,1.775885163483325
57721,,0.580808816528812,3.820977354468117,-3.472734533416459,1.8951441983455384,0.3314853787928452,0.4302779634363886,5.12122936684529,-0.0084785259053224,0.0856629345504497,1.0898765021674317,-0.8975551963712289,-4.021361911523354,0.1026978440177263,1.260864031691632
57971,,-0.8504770659246503,4.776497057791172,-4.319719522915896,-3.3901685026736184,2.1537542557941864,-1.5601447487875897,4.708159266612741,1.6250352272394877,-2.531402920854063,1.3763015124281777,-2.3056668297922305,-3.878106465523103,2.629381786209958,2.0592362508719084
58221,,0.0322533801783306,7.763544351984015,-6.005320770268597,-0.9994085746320844,-1.4641824232583285,3.0708279694404794,3.331677652050329,-1.1572429313657353,0.0032267488852672,2.7424936972414047,0.4596615652615851,-5.391305701124018,2.276895228479053,2.135656218079368
58471,,1.0853875488249196,6.496700252014234,-6.0828130009925605,1.0363631410897496,-0.3678715719719665,1.694160630736936,4.30159289201956,-5.815638132893662,-2.7814809011093398,3.237414049854734,0.6303038593163104,-6.133086482057352,1.3014547594547563,2.118687353626049
58721,,-3.588946496914594,5.749305832289098,-3.865000927320239,1.4864396161825253,-0.5231045075038991,-0.3050571910074801,7.01689802042027,-0.2172267769421099,-2.8258089784760934,0.2060213016565272,3.7861949087529942,-3.73431262858572,0.1577129495373866,1.26643413753303
58970,,-2.6510621514454686,0.8431165441509709,-4.536353830808672,-1.870621630769264,-1.2487312008696358,0.5044860436356177,7.0361953097783525,1.7115239276899157,3.678629014826015,-1.3103604114617493,3.732594352429777,-5.830630040496818,-0.7318370425486524,1.7565961700687789
59220,,-2.539051693492804,2.5661427407701387,-7.275888055318843,0.4304118112649152,0.5818319765149962,-1.437694081059653,5.349473826167888,1.948925081618461,4.273136421642617,0.5667988620629965,1.6721899617341398,-7.121912035940952,1.9588549672327855,2.6579188314833964
59470,,-1.094479087225841,4.884146546767961,-9.491002383363064,-0.0460873341727709,-1.4399289500214358,1.5865932686580984,1.051178316190012,3.0762240276426374,1.3846886779756509,-0.4731155895681008,3.3310963109052807,-6.280202620061407,-0.1552267887591987,6.184049635034069
59720,,-2.9353350740734148,3.9452684172217567,-8.015083444086084,-4.260537961057821,-3.6644761248240414,2.213032052164308,2.935264847232733,-0.1578130071291554,0.7746295289723724,0.7955768797410206,3.431430527534618,-8.610769179990868,-4.4107427911983095,3.887405118913242
59970,,-4.912804803607198,-0.793317007935691,-6.355936551304029,-4.978001623933905,-2.1018389264966446,0.4672841956266244,1.6671637350960795,-1.1239301699879585,-2.507697866547029,-0.1271534239885579,2.1732307383693734,-7.839814324523364,-0.6009068492811349,-0.6907762063023741
60220,,-2.7150144692072056,0.269736691883188,-9.035812981030636,-5.321934275530984,0.8141112555327448,2.549203136309562,0.2784610239110489,-0.0318549163499719,-1.393693905876282,-1.7609582661167098,1.662173534043479,-6.49689888312885,2.461722110523479,1.9847556349504751
60470,,-0.1164119554873457,-0.231691114368924,-5.008272621111322,0.0456444400383748,3.535377867195378,3.839949311907378,5.822328985083782,-0.4938096188598172,-0.8769645666693657,-3.864725370391817,1.5973029057861374,-4.0188938936343535,2.707501393617522,2.392647198598646
60720,,-3.5489967528968007,1.6159657518800876,-5.539397491141339,0.3961959275122828,1.3749300820701782,0.463543144152395,10.645412166519872,-1.477441526200587,0.5642862445890848,-5.679873307541054,0.8175101733967178,-3.2425066618818645,1.17416989242224,0.4238953760152699
60969,,-2.6093213490072857,3.853190777494288,-3.4873604833877394,1.420688258860252,-3.4199644586813105,2.9628108263731088,6.765816732086734,-1.4969674867615443,-0.7427956709189059,-1.2660908924661851,3.520592773345248,-3.01041166927329,0.5637866781272517,-2.252987295467088
61219,,0.7999363183493086,0.1559476245850167,-2.7063952629602483,-0.4016334532332591,-1.4907016050405943,2.225341332730679,4.350358769872685,-1.359052308072681,-3.998208801023251,1.0882441126191589,1.360938886577208,-2.671183208168269,2.0963454148121614,3.0938233758140004
61469,,-1.074709770982847,2.04974666726995,-2.996961544754672,-1.3528056896439444,-1.0597714055816838,1.2324968729713028,5.434146654097666,5.629348985903565,0.3737512600429915,-2.8579545745299013,3.842128109156652,-1.6955093441164406,3.725545900001863,4.222955182514905
61719,,-4.388097271726799,0.6069080562855366,-3.752718871302669,2.22256873873617,-1.2163666654927314,2.758332827738816,5.815264866757719,7.642289149679701,2.086777398775925,-4.828034452295254,4.84028582327637,-0.2779469487836523,5.152296431030377,7.416195824669284
61969,,-0.3353834776446353,0.5123277009563629,-5.681525057155891,1.219461936620179,-5.837149402694488,0.238924531843229,1.685130739829045,6.134152105153463,1.9828600406296035,0.1328931060404851,-0.3725614416243797,-2.110369208629956,4.640310513727053,5.30668172921247
62219,,-0.1002702571280263,1.4885973337441911,-7.768952202994991,0.0905026151546927,-3.209853319261317,0.7682339503224912,5.784123562454015,4.616509506868868,-1.2782284326362925,-1.7306630051363836,2.269408181768088,-4.793847755134857,1.571675045173108,-0.7550162354882217
62469,,-2.6056893969478665,-1.0711036436163333,-8.40259182944734,-3.946523797562038,-0.8801123717691499,4.401703476796437,6.364072679208727,1.222341499524878,-4.44093529887024,-1.8472488756929213,4.652149280358435,-5.942045533390643,-3.473484335842369,-0.2456090082984618
62719,,-3.806947620168141,-3.246318258533532,-11.641075086970126,-1.4062544992794537,-4.144043740189375,1.410773381766094,2.2831580087451515,0.9452602414929784,-4.1052603584417415,-3.673135962251066,2.5048911168356094,-6.574690299997315,-1.340654453905523,-0.5435231684448188
62968,,-2.507620808173021,-0.3819114962303853,-6.533345556467212,-2.880104466410792,-6.8574089686805095,-1.86166136897326,-0.531307923538286,0.50650213936566,-2.195237126865592,-1.646843103952387,1.591379370755366,-5.788537147656579,0.0590180251122152,-4.012403713123308
63218,,-3.4423156602811,-2.33940049466078,-5.205155203149735,-4.923445943636119,-2.414778009233981,-4.0059724610343865,0.814096666364629,-2.1789385379736266,-0.2140886678593218,-2.3042321147263727,-1.0722191414998874,-4.5914835989088685,2.3853126856378144,-5.76836190524517
63468,,-6.803821467110716,-2.5747316531399105,-6.034625254334502,-2.459155279972073,-3.328604522461976,-6.65398455757474,2.6578342988294863,-1.2516171450488598,-0.8301660969602755,-3.3953280975963844,-2.5925373566999714,-5.982214509510841,4.630223406086483,-2.1423183593230086
63718,,-5.483148363472495,0.6581250539730615,-6.471985472552651,-0.3875108372949188,-2.2145888960688973,-5.089235387349812,4.07735874864356,-0.7819226555024522,-0.7469109160773445,-2.611778334145624,-2.3165807045470577,-7.577547481228794,2.596980673024372,-0.2775743949412391
63968,,-3.7857612180787,2.064831791796889,-6.3110662540320375,-3.269906334909772,-2.4919699881813933,-3.8435052085225054,6.098111919886598,-0.4224869935652786,2.613681210173702,-0.9969365625907162,-1.041622948353542,-5.507604329362426,0.1533998581783894,1.012780472851156
64218,,-1.172981266556388,2.360901145047824,-9.822474254762868,-3.0320738250313948,-1.255406607356899,-2.597922955021319,3.663368534536196,-0.2043209272360942,-0.3847269578722553,-0.5823919048396963,2.489826221641817,-4.309540324324482,0.9181135093314394,1.690603186128858
64468,,-2.3852252062379304,3.742272580602013,-9.91834195207723,-3.9818713097146,-2.575143035102496,-3.446953823943692,-2.2995481283881194,-1.2046730288259435,-4.127046286936661,-3.3996889815151894,-0.6109363715367485,-8.450104174028123,-0.6593952590609996,7.404500612385833
64718,,-1.2360774292869663,0.3972839703533668,-7.710035116938831,-4.021347795016809,-5.11964346132549,-0.6783631514925372,-0.632552752392756,-2.605152817020726,-3.815667152377438,-5.9295917336662125,-0.5218498454081193,-5.638790013669841,5.3607742968914565,5.570065472259049
64967,,-2.2650391548715563,-4.447179547700549,-7.266095017993088,-2.0395255949487137,-1.3401645033164222,0.7965272027159809,2.789389495681478,-1.7102246527730918,0.542414170929959,-4.644948992256246,-0.3532075224962669,-4.740592364898831,8.332363051896387,3.579397942365188
65217,,-5.296003140854663,-0.7736876090421618,-7.461143739099274,-0.404691897014694,2.332795250542303,-1.653886883270495,2.8172496326113947,-0.8178588524285219,-0.5237852858378143,0.9900535305599996,-0.8908677173111429,-7.22017647318402,4.108739674913424,0.5842408772966158
65467,,-3.487864865287138,-0.2127647282703046,-7.08600921134086,-0.7479979487329046,-1.4371701057444204,-0.5598477179921391,5.645135315717152,-0.6956713975767547,1.768555352429206,1.8974636634935569,-0.1386251739521694,-5.284391894307429,0.5312886005433957,1.0963691122999455
65717,,-4.759639069308474,-2.0589636150787256,-6.53695120906797,-3.025958421764245,-3.520906810814891,0.4331551095207165,5.04506449799822,-2.751191206187154,-1.7092043764353202,-3.7710135034127834,-3.0947373673113803,-2.813007655746464,-2.66656404918952,-0.6249686717648252
65967,,-5.0399637132361725,-6.520179228742924,-7.55747712319554,-4.536882400274894,-2.0080705856747154,-2.424044520721304,-0.2620176953967099,-1.9482420699192549,-3.980568670389606,-4.604655499269153,-4.019031201184287,-4.298525353915767,-0.4638248998642913,1.8544247824158309
66217,,-9.860582872003784,-6.30864793637935,-10.38335471888686,-1.145474876291399,-4.940722579885572,-5.065292153665405,-1.7181454587911995,-1.1260530038234675,-0.4717598463873373,-1.685973016650122,0.6975802936662296,-9.319277982481037,3.6042621582944,2.0818821418543845
66467,,-8.423394041520243,-3.589655490295902,-10.896835004875388,-2.265034389724872,-2.7780249356468167,-4.12105747344364,2.4407542565761244,-3.5103254671408184,-0.8533659546791295,-1.2305045882955064,2.1031073542652496,-4.7331541377946085,3.523219009091136,2.602224871538472
66717,,-6.626046748912684,-0.6796238173063389,-7.072742421762351,-1.038487638182375,0.5868469492690251,-1.703450905476175,0.7869900151068157,0.3075694705568707,-1.5223719737089685,-2.6115656989642337,-0.7663771681392253,-2.774235418778224,-0.275352033452147,2.193521387900503
66966,,-6.545662777590852,1.4292550604694756,-5.48975299418328,-0.3816629367076907,1.9285191073497996,1.038751935470154,1.64636826664559,2.3159309738898104,-2.0065099607887773,-4.665641935457913,-3.337355880749024,-0.9050295426313112,-1.071346664241343,0.6351494426771738
67216,,-5.557524095379717,1.6005608373161742,-4.659767862038818,-2.39953468824337,0.9003094017485143,-2.193826157682883,2.4010967015227678,0.1745877653505113,-0.8029748031694781,-3.312468157268879,-4.362296191615353,-2.025153635775734,0.3968864021124462,0.9353527527581056
67466,,-4.2620512226397,-1.5283035204742357,-2.6047829355297205,-5.935307563891504,-2.300038357981121,-0.365198840512415,4.913909127074434,-0.2911907948813205,2.094962613274503,-2.276554666979528,-1.031677858619386,-2.0116335109954475,2.7869790745734244,-0.3106873401989382
67716,,-2.7815661408750048,-4.399633298576083,-2.5171026769807057,-3.301219361941051,0.0136123285589748,-0.8129550450769765,1.679763389799702,0.0243556807911909,0.7727827951427588,-1.9572389064428084,-0.5759995602993361,-3.4212568943993875,0.0955084782334845,-2.7259098574096976
67966,,-5.549535005108232,-4.454074072283392,-6.083080677391303,-1.386028843783643,1.6172057595716016,-2.834049162370976,-0.4715725709571458,-0.448394973405778,-1.083007409806168,-4.591370856344538,-0.3266870384681271,-6.332181130027874,-0.0441012398856325,-0.4311559104426382
68216,,-3.4347727895357694,-4.035917356574517,-8.413673617450977,-2.118030410022904,-2.328590781833009,-2.0401168370089717,-0.5256207293277729,-3.010678364530575,-1.5255531577285872,-0.0857207501463115,2.7500774097831746,-7.170416510421401,-0.4236259646789084,-0.3068717800283382
68466,,-3.0133879576786446,-6.776191718414271,-10.667351053759756,-5.131779555882392,-3.6258173414847072,-5.784789528230276,-0.4011360940797345,-2.9787506005662934,-1.4734839601043723,-2.886405232487136,0.0534561057953441,-10.238689046479678,-2.300528525685591,-1.1493506094421415
68716,,-5.916540328755765,-2.198373541118164,-8.578544244959447,-4.575201736172724,-3.0624849523909554,-7.200081500447744,-1.1642793380706489,-3.0361164934297262,0.5835804880684272,-2.8028111378304423,-0.801053355555032,-10.843114748255896,3.811178225760956,-0.2049056391000242
68965,,-5.26452986578475,-2.598398038774259,-7.52822971191581,-5.470073619257324,-3.716410321457293,-2.026739485186379,-2.000337929590028,-6.172931379109797,-1.1889344900738057,-2.694957089585181,-2.771291686119043,-10.700690747027616,3.753573413812624,-3.13605488559666
69215,,-4.248657434539382,-2.04263709244214,-8.396054899663474,-4.491417283518711,-0.8714965558832535,-0.3929236961961602,-4.896334800155191,-3.303503645383134,-1.1210923525313496,-2.523287974375086,-1.7555651630984292,-10.072748553302082,-0.3059703214981976,-3.409990016120224
69465,,-0.3457730689735578,-1.2354019334780184,-6.534677575580289,-4.518566347315317,1.165513257620742,-0.0012544808741758,-9.467618375278755,-5.085906658854293,-2.472870570873056,-3.722524929075361,-0.8278493739228499,-7.896920993384602,0.776908252567206,-0.8524882524117168
69715,,-2.5843760126783373,3.391436180848572,-6.377884309179351,0.3367205263066174,-0.2853863102956315,0.0093174947857544,-6.670046533967652,-3.8555375231683375,-4.4041970094821465,-5.0404852907171165,1.20269799004226,-6.873543525711874,1.5858512003379144,1.079814928034445
69965,,-1.8352186482135104,7.762059220570401,-5.239012974838973,4.593261351471382,0.6464201477945046,0.5543182591525088,-0.4818998237885396,-0.8879835448877207,-1.1285667325867754,-0.168202560822687,4.539780611762145,-4.535350771964396,5.15718621113691,1.6494196901731797
70215,,1.0075755504249368,10.114613043548148,-2.1160935740781017,6.088767982874716,2.69404510050679,-2.640684956287887,-1.5448993266553517,-0.9012798543352598,0.401339634681397,0.745574603800324,4.689536630033952,-6.3824986436877165,5.894802254214962,2.460503782049876
70465,,2.3673020249986623,6.526152799449677,-6.130256013753643,4.76194029910797,-1.3495534351038454,-4.973773068717035,-4.618933100297502,1.2190737419948547,-4.629327281710834,-2.4308876713198826,3.189385862132585,-7.220981891372925,8.303331686508711,1.2618158636679258
70715,,-2.029349907826706,3.6733502158172544,-8.644614594330022,2.1708364593341445,-2.6872425882899984,1.4734520240340587,-1.3858157417536685,2.816588998197328,-5.099366759806541,-2.7205866858804875,1.9678260473345244,-4.268894765485751,5.465496723664335,1.4851411790251985
70964,,-4.829297328456728,5.16666263589106,-8.16356628076737,-2.814516182775606,-1.665417993287476,1.7932360535085952,0.4160564610162257,-0.3596055373952439,-3.437936571850577,-2.745608831468825,3.5286514475498243,-5.7521896281283125,-1.452588959813137,0.2895978813325092
71214,,-4.513464481843591,4.95604867064004,-5.879530822931988,3.438056077865939,-1.336163563031855,-2.757705288105048,-5.383152917392687,-1.56243829227355,-1.5106876070792483,-5.574484332344506,-0.0641747023267687,-6.079054838022647,3.062800595565304,2.305552680096296
71464,,-4.007709508072632,5.378238910589746,-3.5396237628817144,6.375718607927326,1.9318667339482496,-0.7989899328994352,-7.095162646958353,0.9848524328689134,-0.9938016237096492,-4.329782594176353,1.4266092707956577,-6.536896928956264,6.152943908621273,1.7560668583058217
71714,,-3.820860894586428,6.954944319118097,-4.477032366732814,3.937783309454935,-1.102480459798462,-1.0014456984396192,3.2444226553494264,0.9349486740476138,-0.1833797137145406,-4.037735797150004,2.997045682419926,-6.147491453999368,5.627539098183573,3.3416356442057777
71964,,-0.8990741306300298,9.755135172592691,-6.987227288223382,4.826043730048309,3.177916755477958,4.275338576219154,9.176163248463782,2.404932076710375,0.6332964064932203,-1.35012996664631,2.019695486939482,-3.343650185097205,4.07496823734717,4.071049692458192
72214,,0.612555456943822,9.66412005788987,-3.842596400062157,5.219345878777792,5.517374012359456,8.470844506085419,6.188937447994291,3.417985383837041,0.3518057554021878,-1.1638899705039696,-0.3835135749774168,-4.372280042314399,7.1259793581703015,0.3160137788798272
72464,,-0.7360007782795754,7.237730185290098,-5.891244906902866,2.388703651364765,1.0183996118971168,7.467760439509671,3.0572219834393968,2.252103829172221,-0.0075279124343792,1.0353674347145725,-0.897072927292112,-8.751688713642098,6.301754000332797,0.9410524294292468
72714,,-0.722519797600417,4.100903216934473,-11.024676318634729,0.7309073399325366,-1.8855372622010045,-0.041943834946631,5.554845383104851,2.822468703351558,-1.4254593947318095,-0.9066101496649354,-1.3108960653181778,-8.190033604540005,3.604649129212811,3.003907032130077
72963,,-0.8144818533901945,6.344917791967194,-10.588423848717806,1.98882590143904,-3.377485085088851,1.4271496134006736,6.04639285343353,2.0630388333398826,-2.057067630555276,-2.441760569911685,-0.7259691939827494,-6.462027699431299,1.896795347872413,2.925105999343547
73213,,-1.7413411597173936,2.848918565655848,-7.768673289542921,2.366357974250054,-1.7305127182283049,2.9760353768669434,6.347346288509086,2.7146476274498488,-3.219859083812819,-3.494470552722872,1.134850229662587,-2.964796915885576,4.965800598768212,5.527135599489682
73463,,-3.3944861325955,1.8991993844059047,-2.9653046053078307,0.8261654718133525,-2.654203922519398,1.4016573759233328,9.89851065149011,3.0855070915480267,-0.4820678077837625,-2.6649020187559884,0.4360204236963517,-1.811533462463326,6.156985773624799,5.444350167675883
73713,,-1.6653015047184154,5.459905813235812,-2.4126065970307424,-1.1218123657436865,-6.337133805404422,0.6817531925331293,7.1744343049277255,2.769084562260006,-1.0849522777017089,2.169610932284802,1.8833960218517587,-3.796570197069662,5.16998539541677,3.239886604940358
73963,,-1.5156596272395553,4.695760158345003,-7.92011634708178,0.0500393730841313,-5.409201476656569,-1.953831189786822,2.208966567468304,0.6763394716564226,-4.42813547709248,-0.0225747714529534,2.7203993594680806,-4.81481894698509,5.491387960438601,3.822014237130124
74213,,-6.147557964776361,6.854746276887934,-5.381573310969331,3.851965775253365,-2.5748269165161326,-1.219876236997646,2.638335717982512,1.1285254844688344,-3.602057185443276,-3.637875228016281,0.7970626826973443,-1.757875276213432,2.601280785708473,-0.3374242863312596
74463,,-8.493102006142413,9.033914803188065,-5.876682504681597,6.955247093886134,1.0416240610275869,1.7100742111651392,4.6110352327944994,3.982171809027351,1.1347332326959283,-3.401044286222936,0.0452671424099924,-3.202325495884148,2.777674059944999,-2.165320377646023
74713,,-0.922074446200058,9.122232252468002,-6.786187065110079,6.566359401899304,3.115018660610134,-2.5096116922173186,2.2150999645932865,1.7491587683359535,4.194327717389236,2.286836220086204,0.4635426347225735,-5.808957650363697,7.830820083146715,2.227948344920648
74962,,0.9648366262062104,9.169590398764011,-4.834789955738414,4.362638892630405,1.2351523371744035,-1.295315171863859,-0.1096021449729849,1.26436080807852,6.402983666739904,3.603942491742231,5.761454615513054,-3.611442310315161,8.696819198496199,2.1624500485311065
75212,,1.0768501435275013,7.163606626026304,-3.0520226903986365,0.7708037262006749,-1.3371937515800805,0.3189898110377537,1.8926882312296665,1.6561919463350976,4.256086537062375,1.262132570091896,5.871771439378186,-3.411308540649337,3.610085013769976,2.6242154652836747
75462,,-0.2213225042849984,5.543011207919346,-3.531995913110612,-0.9648192876694832,1.7041584563014285,0.8432019078831844,4.09661724581794,2.206894831602403,3.10539073792585,1.1112635664578894,2.667598199502061,-3.5530824832219245,2.0013586411328794,3.2809437031795694
75712,,-1.773081140266835,1.869751272078112,-5.360879119926077,0.4515569469006131,1.2199760774891892,1.89632644638322,4.451267567304569,0.7980534049069969,0.9587555005301162,2.5093127073904995,-1.0749253305265412,-1.7896682501433814,4.452533877175043,2.2868497370612832
75962,,-1.3205263322433156,4.182667865768853,-3.2584905911975053,1.8999377193772555,1.6137402741183102,1.9990497385709525,2.719058370329371,4.457984443385911,3.253297246115926,0.7808104104975182,-3.184029689129453,-2.969820873319406,2.912143731935264,2.4338963116283545
76212,,3.072289955512008,7.254952050164597,-2.7777091238234224,-1.038460858966,2.327844146643333,5.094315106621053,-0.1598448285960037,5.339682359320548,1.9757044609327208,-4.578511519881317,1.3017824755746508,-4.511205852649164,-0.3226728674349647,1.883831619829508
76462,,3.803666593110592,6.487536558437252,-1.610940948488192,0.7818442132868054,1.8860687121649564,3.595477671968228,1.2385128126166036,0.0847511462664478,-1.30411487907675,-3.440081975257546,3.0222685061207626,-4.085916055881958,2.46661003602976,1.6412718750512354
76711,,-0.442987479755172,8.785062741853961,-2.8285347923370443,1.7794562061672936,0.5147914519305776,0.1752664414596217,2.389401239525857,2.919523016595724,-3.6461065404503374,-4.513227263080228,1.5019851379141147,-3.781820322321571,2.845511256366075,0.8876722488802704
76961,,-2.9954136248630285,9.560080071970138,-4.442398530408304,1.4233347584389977,-0.6679885600642743,-2.2791650149661358,0.925824854320806,1.5573004770696344,-1.684434023624859,-3.988726259025188,6.733906066002441,-3.32271105602324,4.248874255511349,-1.7411362822339282
77211,,-5.103570194556687,6.261485925551594,-6.187500695895155,-2.089744002998923,1.577939899814476,2.3943273990830867,0.7363899811634528,-0.2040042680045597,-1.3528244068015325,-1.260708755086848,5.887070015223687,-2.684585045008547,3.1081848016509617,0.9179227677079196
77461,,-3.3017645020398865,4.2007010082836205,-7.37606610332298,-0.6159762640557008,1.4414944930568645,0.5232575950101955,0.4456190898690475,-4.847929788270052,-5.331049727061028,-4.15086481362633,2.1535051618375025,-7.672481971874662,3.2764526296927765,0.0573465660160493
77711,,-0.9077941053808244,6.277966332843507,-5.660822071771588,1.028269591030626,0.4383379968883975,1.6784254654770274,-0.2388120883405105,-1.0596451799455515,-4.344052762227001,-4.908366701099734,1.285931452424245,-6.571840448247095,1.7733803849095977,3.2275391130376923
77961,,-0.3566303817423855,4.66540836773415,-4.348348972432427,1.7642032334782731,-1.9449896966714684,2.122979628480299,0.2570893846474902,-0.8285713151081232,-2.7014275736023565,-0.4727195557513248,3.134870523574772,-4.507248553100868,2.5237347635168645,5.809416116641936
78211,,-0.9076994995378334,3.651058543456416,-6.180043433736958,0.5350631540583751,-1.120081316215852,-3.296088431284561,1.653446802294103,-3.3583811720973222,-3.117013748939341,-1.004382606853246,1.384256751183145,-5.640007676408465,1.513016586984203,4.893936393381769
78461,,-0.5541348350424397,5.336749925861165,-6.527468104209893,1.697875216287852,0.441378629556488,-4.497043233755278,0.5149366925409058,-5.862509099109397,-2.9953863050046903,-1.441224793690915,-0.0654164824724703,-7.772119325341601,-0.2428728008077968,2.219466742629792
78710,,-1.914699237072826,6.325657138850388,-4.73872167291359,1.7526012521868224,-1.2376520063192191,-4.470855560900761,-1.2731679368124305,-3.667019453906267,-3.317710123647,-1.090964167878033,-0.3649047653552173,-5.895904320794145,1.4185145660395506,1.7800972908236543
78960,,-0.5017816448443599,4.844168322904002,-0.8305992092294779,2.255261057213044,0.1604446843505,-1.9964244358171312,-1.465250165084654,1.8476149020675945,-2.6680626770461835,-2.864912269987922,-0.940147258802885,-0.3417834711864165,3.39455722066782,3.100794210876648
79210,,3.1165981822637883,5.763316289814451,-0.0005596952828223,1.8485874981584605,2.9241995558634883,1.2706752169837747,4.387378842518814,2.7462896578854386,1.945091496964735,0.9799191313368087,1.241558505154762,0.2895051201724247,3.773035112622578,3.302416299641485
79460,,3.564250678407862,5.010400000641076,-1.83680824415829,0.692138666482614,-0.162763705300136,0.8913445688966187,3.63971742167982,2.140966886246078,0.4479394512610547,1.8040334803921465,-0.4962780386686719,-1.056042514498639,0.3272009767762632,3.31057627915218
79710,,-3.5280100921999025,2.162453590997729,-8.414846233468346,0.0076953449369681,1.657634277237913,-3.759291027718101,-2.7189081503789385,1.108086765564039,-4.922410983098412,-5.090554156189484,-2.065871318877518,-5.419386237930359,0.8189407597721733,1.4626655518055491
79960,,0.5202479741373807,6.263962676057675,-5.887417581696687,-1.6246622662224257,-1.005089867202276,-4.010191568551545,-4.015409553257864,-1.8153404478037527,-1.9931840021814304,-6.034353972071459,0.029918108760656,-7.966222285752849,3.0784497000586004,0.9894365524474696
80210,,4.183515455841785,3.0642550338418637,-2.6422059958862345,-0.7708875315958935,-2.688770527199261,1.4893103187949477,0.1573152104319054,-1.5636949010399372,1.0287210517730632,-0.2207716624736411,0.7296385597271511,-4.775679919678581,6.459777180347564,5.807652006236806
80460,,1.3772183334347283,-0.6902015011974512,-2.5918607947168404,-1.349659259747669,-0.5280464810357768,1.048713396337701,-1.39518047721353,-0.0219281742844603,1.1754381912074792,-0.9789772218133096,-2.5921748827855344,-0.8226919700028344,4.083190963895482,5.878156192221544
80709,,-1.4176226520107007,1.798351479035735,-4.640590989199569,-5.485124597807332,0.1395012449568728,-0.6788379186670619,-4.542934705630653,-1.2717104527180845,-2.873453770408436,-5.418580473244856,-1.8400583258013592,-2.3913058199361723,-1.8283073445088136,5.378439767197483
80959,,-0.8153963909335494,4.984348564519098,-4.627204167197268,-7.061702697240337,-2.588505094817457,-0.5545563849953584,-5.283778326924084,0.7368731304150716,-5.885238350287569,-6.076756321074976,-3.642728916747374,-7.446873253674696,-1.1327925201131916,2.4126218359799223
81209,,-1.1029860669270313,5.337741272334724,-8.824671491853977,-1.3686793503000128,-1.4214521221212226,2.248047661814192,0.5510497285412433,1.864776885322292,-2.94401354175222,-8.720397958546469,-5.183000044510486,-7.245577397464186,-1.2097465780399728,5.226814629199682
81459,,-1.4572501467666312,6.141345669779328,-10.984909684650953,0.4152751762847406,1.9524920445950915,0.8484627592175087,1.9881064832613,-0.7557713810869647,-0.9688639324900566,-3.788902484267509,-3.0949946961125985,-4.3015011639080445,-0.2358319031111731,4.193983257881943
81709,,-2.5160488540594272,3.980799248746576,-5.118008575160236,-0.7157773460052399,-0.5355491982842632,-4.806297042641127,0.0527029344456838,-0.5646986938799174,-2.030555876999884,-2.162092840273464,-3.19206621409905,-6.22401815259833,-3.948443384753188,0.717360389765185
81959,,-0.4878954040887311,0.3502193787378816,-4.161814377654817,1.49921043170442,-2.135043964801967,-4.886502375264322,-0.3584560017250971,0.4293414825818178,0.4916465262171157,-0.3920459014297057,-5.312011293773536,-4.821953227456771,-5.0632036308413495,4.133252079091992
82209,,1.7834231632633497,1.9055736493607367,-4.885136292587086,4.4798631895938,-3.581877240902527,0.6900678817654881,2.49351150864305,-0.8553188447481905,-1.3048054912593965,-0.1219888097278619,-4.000508395301242,-2.636544100287091,-0.5618100113673388,5.701353860090959
82459,,1.576282854309146,3.8457510820758074,-5.618694880448148,0.8674439620460171,-1.8600147818084225,-0.1612070462687577,1.88355273705691,-1.029764562226048,-1.6315987134186145,-2.388292385632484,-3.5610867253478,-4.104212761615885,0.2115507748549117,2.3060073158868426
82708,,-1.9365130206800223,0.6732608787881357,-6.752165577876389,1.072747161713534,-2.657675350784141,-2.732643686677144,-1.932080847685316,-2.591136019784932,-1.8935904167643665,-5.266807938454175,-2.883057088262491,-9.452358408508877,0.4869640725079006,1.7851965060443962
82958,,-5.859574661881463,-1.1031030150409622,-5.974253138299309,1.3778745805022878,-2.647652714830885,-1.2896822624210027,-2.1093995610284906,-3.3134447972732235,-5.137045798336212,-0.6523699781246959,-0.3772020060852393,-7.773632660578526,-0.0586750910910495,3.1582334436405874
83208,,-5.946315481557392,-0.1355693117147678,-7.209039012828143,-2.1793009242628334,-3.289490937589906,-6.20805660047616,-2.392711086443226,-2.004222427086611,-7.844814623976265,-4.464806719725704,-2.117659842201832,-7.869032928693024,1.154931203524875,0.966225557939394
83458,,0.2236093690849558,-0.3749972186987326,-5.231867551231424,-2.316762426494817,-3.4269495157295675,-6.761268005450914,-3.02355922301055,-2.7161037894106475,-1.851941629665192,-3.5179900027327884,-3.5390170902367646,-4.236911310231162,-2.006001747213559,7.023047099336867
83708,,-0.5273373011090338,0.4302792028367325,-6.603904740666735,0.8348253517530411,-1.741141532688066,-5.7906343593951926,-3.262414516527824,-1.945073038202405,-3.140665926075395,-5.376807669997436,-1.4394846640875845,-6.32987686702212,-0.297210671759909,5.648994030110499
83958,,-1.136397463236254,3.764182584670438,-6.028831941897495,-1.5502588903475227,-0.920601522068042,-6.193263386394678,-0.240078037740165,0.4970622019482152,-1.3632544106582705,-3.781697193564152,-2.432007424364476,-6.465286992103524,-1.2958032587259596,4.265848159571148
84208,,1.5816843190135097,5.91457494228764,-6.440054151645416,-6.287928551086708,1.373025853894452,-3.088008111532321,1.032983462292896,1.2675445999241957,-0.8079371507029608,-2.9700616454861795,-5.1407911712576055,-3.9665233348688127,-3.3990814757786603,5.695346705009525
84458,,-1.0820965915789813,2.092907290630326,-8.219681001270882,-4.96126277348275,-1.9073764776075208,-4.930803968677044,-0.8653669075215981,-0.1131745095921638,-2.969271760242462,-4.634717374177727,-7.239046649870047,-4.419916870882358,-1.7574729544923766,0.9376696575932948
84707,,-2.746952406349888,-2.034384667041972,-10.158168371941493,-0.0560248985122055,-4.4021335477249535,-3.272764788522628,-1.6578677224740732,-0.8106923107247956,-5.144085748894575,-5.35962048095595,-3.3362995790806305,-5.229997403815161,-4.07079913288119,0.6430416227893123
84957,,-1.4086943369648353,1.3669103353331875,-8.132746131259967,-0.681918953016778,1.1837006044040348,-2.310140445144574,-4.325899403025044,-3.881793172288451,-3.602835258950151,-4.928209099412534,-1.056840606289389,-7.635332554936776,-3.7731706648226497,4.118133367020096
85207,,-3.4941999947469675,0.8624040352732388,-7.795885810075297,-2.555217066253056,0.0935533480970014,-2.187317821336278,-2.1541261838488044,-3.1212716123192648,-4.362106779783749,-3.95704198145056,-0.91515440254472,-7.0453867298860775,-1.9327032777117383,2.8420535513707774
85457,,-4.794499904066295,3.0612876207005577,-5.802930674856403,-4.451733677279076,-4.923205524856656,-3.68786615061767,-0.0610609307172438,1.3365403094748909,-1.2296539519827718,-1.0540001968369888,-2.825175575520846,-9.712965649871128,-2.2311223386242327,2.7598306515236604
85707,,-5.096722831125812,1.275523932549249,-5.509701690762409,-5.230782999153756,-5.848740692290598,-7.258322895060899,-1.19453267337641,1.0811665840416216,-1.9232490398775783,-1.201084334408402,-5.964188309684037,-8.2099139509605,-3.935600838662268,-0.1794296184022089
85957,,-6.561965815933015,-0.1156046865372305,-5.0416725521419465,-3.0924962926055115,-3.72979046188612,-6.580437239656627,-2.918868224048742,-2.84199321475584,-2.9196998514283825,-1.697657561757708,-4.128490806306571,-4.778061567611838,-1.8142288840144445,-1.192392250403524
86207,,-0.4374015727813591,2.01914215969748,-6.220786339399672,-4.46618588342603,-1.381748794385246,-5.339569349053891,-2.6732426427884235,-0.2850538154355859,-0.0065314723862712,-1.3329786236213927,-4.656657332432742,-4.928415409175796,-1.0430598151503818,1.75720821815031
86457,,-0.9200090818968072,-0.905308132322738,-8.028062030682552,-2.8306554193498465,-3.671863954970152,-1.5141329704072124,-0.4749047747594643,-0.2872164108340349,-0.8084944961640492,-3.669210696660597,-6.902168181800972,-9.129777154283897,-5.056181373207744,0.8052402796552937
86706,,-2.135732723560617,-0.0504719269455841,-8.731102865143127,-2.930391697543967,-4.374208880390819,-0.8590523191382858,0.2103794160408618,-1.177530075580434,-3.1224864119643785,-4.949849339447158,-5.471632727038129,-8.46358943174433,-5.716160051764962,0.5584974697842064
86956,,-5.974290734416457,-1.5965595042574936,-8.978660411169745,-2.4403713428645277,-0.7273824189332616,-3.3758808258569486,-1.826922903057979,-2.7609846278902097,-4.081266425901793,-1.6224978040538225,-7.137642850526572,-6.730385267595512,0.226396378672154,-4.383062515641551
87206,,-5.029047006096232,0.2060334936807561,-6.411034758646174,-2.600980072330475,-0.7418765097480556,-1.231464135728097,-5.549899534600455,-2.832787919287072,0.7440568887936698,-0.1679048194706104,-4.927127016271238,-7.337822753886943,0.9457768031595876,-2.190580285256737
87456,,-3.51240245993444,1.1096686548240688,-7.583002714752207,-2.002453309774058,-4.467768223852345,0.8135697177835072,-2.220174516102936,-3.0400657588479745,1.2243438500049155,-5.75994343640053,-5.1842533486239,-7.458550345924449,-2.870130350396815,1.4470627290905935
87706,,-7.640191918801419,2.609603566350593,-6.211788605859572,-1.8829227038666771,-0.8683897711182897,-1.5313990945325726,-0.0564009691408559,-2.2642527625116564,0.6443640222575547,-2.7553498888764816,-5.970268154540177,-5.69303943462005,0.3354313144962024,3.1482299999649754
87956,,0.2531511591530284,6.170433913266895,-2.3292698643806498,1.5554919477829303,0.959681160344015,0.7415702419264115,0.252163981381755,-1.3909063862627458,1.115937532794352,-0.7486488905294707,4.842876690132579,-0.4622721049807354,5.256237406669154,1.102771993223848
88206,,2.900956685963405,9.3513823424503,-1.1459185437870736,3.463105237948945,-2.2082152839950298,-0.8881082017710996,-2.009818893068859,-3.741387973601391,-0.5013969058440173,-2.0846959907225044,6.871846295097939,-1.052287061915947,9.40509018185427,4.733665277191726
88456,,1.0385998198861437,6.773646128215441,-5.85224333146662,0.9294125133984816,-4.115579889393731,-4.729471363485555,-6.554528631344513,-3.817629611806146,-1.448199810910736,-3.2762161623723323,4.00923902557436,-6.704969603453879,4.707780662825678,3.1159423209538244
88705,,-1.3303151232137636,3.0909720468432984,-11.607656321943136,-3.019307292653408,-0.8253218061766155,-5.409106006391324,-5.260523185057929,-4.175079783042859,-4.725500817842389,-2.3996985041899723,3.6366915039346006,-10.58173257262387,-4.904125439421291,2.80794278465638
88955,,-5.391400791206377,4.589211219895649,-8.972847092761818,-1.661499497920117,-2.698886256040986,-7.595720672787896,-4.601881678232177,-4.265625618983995,-1.7116321274755963,0.1816033281767366,0.6218881605139743,-8.183023869447206,-1.8254123917461864,0.220869424684732
89205,,-4.19580112865889,0.7862681113980214,-8.318612292239212,-1.4552324664953395,-5.387779661239943,-4.904826579477156,-3.478106127540287,-4.2573767436064855,-2.255015675190318,-0.3922687744537176,-2.4219897499377616,-5.542269918354715,-0.1174596446241112,-2.154301787793755
89455,,-2.964155200304343,4.151001210955431,-6.386331610014144,-1.8779850115627317,-5.575290360269954,-3.14311385241305,-4.033573537274972,-4.977255370746326,-5.32324143215169,-3.2148862976652866,-2.0952950295993515,-7.786890643236052,-2.570656959812708,0.7164371165051144
89705,,-2.488821986077104,4.837225878186402,-4.971455743305928,-0.0928048824002601,-6.425885511129845,-6.42753457012891,-3.6233149320840816,-2.985776204824429,-3.2760834326878783,-5.338269863782785,-3.537456063681193,-4.30195912387385,-2.4078452983597005,-0.1099248047762859
89955,,-2.3294962303759266,2.1953738620698173,-5.761191940115065,-0.1338894504422054,-1.3442435175425462,-4.652067311204794,-1.824755052506954,-0.2680547804116884,-1.0562867027543792,-5.191618688954165,-4.981077700451887,-5.47377235564861,1.740528310752503,-2.6988653612838154
90205,,-0.5894267425235709,2.4997076183830997,-8.56288075209415,-3.114151726013838,-2.0084005938354856,-0.8038850858367077,0.4030275002154136,-1.2465170396245857,-1.118252234526205,-5.108325062752181,-3.6252646159041975,-10.81849196708638,-2.1844875092498417,0.2402995454153796
90455,,-1.4319546666540215,1.642578971457243,-11.111945258962397,-4.305369825548365,-3.0388148188723063,-2.693344708484328,-2.6029513451785,-4.81237296716114,-2.020066625465305,-7.41249843607333,-2.303755017251653,-10.452985896689906,-3.7177174109715128,0.8405782138142788
90704,,-2.4164762931947843,0.5150437664749989,-6.804219742510571,-5.862214476181946,-1.519107097609726,-5.145028195138558,-5.510210361347797,-5.033555327324908,-3.67071101457414,-8.052065552165216,-6.048505289930853,-8.157397299668938,-2.5279754595759747,3.0295742919098902
90954,,-2.1233380876179715,0.9832135563322624,-7.952075762932981,-4.977450737525022,-2.802827476798959,-3.593366193715389,-9.086183913420902,-3.486910024063526,-5.815927124978456,-5.06978304047185,-4.644642098290413,-6.828286486147803,-1.517330090269534,2.443065275828828
91204,,-3.1487981658270723,1.0270599834180751,-7.194350761610528,-3.184306910745521,1.074428730087427,-1.8474891851668855,-6.941815017427717,-1.0593438897036591,-1.6905703105514556,-0.4023329036782634,-2.773507630855743,-4.103337627771361,1.6237373783399032,1.2227421946563135
91454,,-2.4633786132624715,-0.2181057789887649,-7.183156526496659,-4.082847685871373,1.819065802689177,-1.8846297381301984,-6.943158463911162,-1.4390945407632174,0.2547717098266364,0.3465836590453542,-5.837655754549207,-5.287855052348597,1.0603631058908578,3.267571863213221
91704,,-1.2825119415795363,-0.0130643435629551,-9.084932393426705,-6.288826929401753,-0.9669496984514904,-5.277697014581638,-5.599517769551814,-1.4273510474208653,-2.6544585392792857,-3.8423941631493976,-7.784848965343169,-7.628644333695533,-1.875858181127756,3.487132700440525
91954,,-3.839206196045484,1.2003189482417995,-7.705747667362271,-4.5365601415622105,-4.738928919231206,-4.947210365538259,-4.890160037659857,1.432238231298897,0.9601545513160976,-5.690985764897492,-7.41096678100246,-7.674062852325325,-2.6375993105937563,-5.018255235986261
92204,,-5.096617471324416,1.1244401287779555,-8.362042345001074,-1.6731835663902754,-7.400944362592306,-2.7218679263588745,0.4817348738488163,2.2565034021444563,0.2400135932687214,-5.333680731922961,-4.272299774178869,-12.284341486016624,1.874134781984204,-5.828751565573826
92454,,-3.329811492094586,0.8991427393733551,-6.512621711674931,-0.2939673817774573,-6.459714318999827,-4.951253603785739,-0.1549093333703374,-2.490620847895956,-3.993467204846172,-6.320110682172864,-5.6351844639819255,-8.721431768202375,1.8235621569662652,2.955372158156039
92703,,-1.145267648338846,-0.7330188770339369,-6.568470187098246,-4.7628559643934025,-5.548763381397839,-7.396197692472379,-5.076014339764107,-4.407275188270259,-3.2041926011238364,-5.806508646645366,-5.670633068824975,-8.979996433468488,-2.6011141124325245,6.262214957999653
92953,,-0.8151534079836121,1.175769213446582,-8.755946685470459,-3.836904824224151,-7.869125149404816,-3.340244229447306,-2.2698780217700847,-4.420507544096186,-6.37441522438941,-2.875939889768947,-3.865709529077632,-12.710932193236406,-2.0460626371608663,6.269547260102635
93203,,-2.794377924828288,6.261199810598189,-4.912436202740505,-0.3997996547131777,-0.3813039403846446,-2.337764938442865,-1.8321595377689297,-4.482187170411355,-6.521195666115698,0.1483123422784851,-0.3492402138030223,-4.9580393421973055,2.6190520315797903,5.19416454946751
93453,,-1.5921161439667462,8.89990603269604,-3.7281153308431674,1.7888399468611735,3.021764473279269,1.7933906675936724,1.0910900749023873,-0.0708150702662689,0.9516820511974832,2.3799583104873507,2.338715184101901,-5.017508244596707,7.516036633689326,5.307308397717085
93703,D,-0.8358881920415226,3.858814269853656,-5.976075612143369,1.1420493254051016,4.103894739613322,2.579986258344888,-0.1098191042181415,-2.336626304241442,2.9638433770077715,2.5995614877311413,5.13377680919851,-7.326968316019794,11.402749868212435,1.285442532133737
93953,,2.124667643259162,3.729621586044795,-5.240224373110523,4.60868825619814,4.267596878734184,5.742247313620959,-1.4205045025637066,-2.863448302735118,5.915424040751552,3.4691069686485587,5.0514193151930105,-2.877369153754427,8.473580962727262,5.129619610718276
94203,,-1.15207576891831,7.944770974729418,-6.443013195805385,5.082914091658149,2.522869590683725,5.045429017720295,1.5883026187075795,-1.3929180608905227,3.1640446635970387,-1.500726212116115,5.207686476857417,-2.3615669138971493,3.2256981113490477,5.433895779158019
94453,,-3.952236268320177,3.337924854302956,-10.161038995266187,0.4167253198672864,-1.7682382399104206,1.1584206082160853,0.9584783290320869,-3.689177488691069,-4.820696784822872,-5.142205806692916,0.751896182901481,-6.801288886520947,0.781850032006866,5.930619089652462
94702,,-5.567145373678367,-2.891388521887242,-9.87320951687383,-6.519217794676942,-4.863496486711839,-2.2263533480436246,-2.035346207649644,-6.715486646190182,-2.6062406669835574,-4.936647253508189,-3.6627239530214943,-6.528109330939811,-1.8618660842060843,2.588292689236831
94952,,-6.855769216237642,0.2875239579137488,-11.297883083647656,-5.207188438985304,-5.271797480612232,-4.9185352352212135,-2.303471722250086,-8.252234449086497,-1.672382783198212,-3.6988900583436446,-5.905281257990326,-5.997668356069481,-0.3344633578567366,-0.2237313526088482
95202,,-4.638194928982749,0.0963575232049006,-8.395290647838399,-3.431257813692663,-5.142954983606398,-8.19095779228545,-3.481261215954782,-6.62140834345863,-4.605562692160339,-4.381250281560386,-7.18765106159135,-6.777662425686307,-2.634448799913576,-0.4892706618236946
95452,,-0.5918715501633185,3.8537537166919034,-6.391343285819494,-2.3377525741646976,-7.410941766588849,-4.731354180683052,-4.111514071134938,-2.6553003153289723,-2.0489691012433697,-2.2978727741361245,-3.4872396042773524,-6.563248314040148,-2.73096131371755,4.685152484180461
95702,,0.0718935663646226,4.18318168401949,-5.631799582553216,-0.7052497722079377,-0.940666817317415,-3.10611185561334,0.2401477768959308,3.20646596752249,-0.1263376526737755,-1.2827111300514724,-3.082551867457952,-6.473260028150207,1.881418148158348,4.636850517515959
95952,,-2.57581409945034,2.662880024295855,-6.212973193033683,0.8253815543289194,1.3607458559699197,-1.4488521696028358,1.3271562168601092,1.2817832417895156,0.4302376481157202,0.6418694640290002,-0.0861403184666741,-5.4754310438929386,5.03276173504775,1.5079206859966665
96202,,-4.464977135462713,4.001411059176911,-5.732810864966943,-0.7759420897323572,-0.8462076990693836,-3.160570609776496,-0.2524558318869352,-4.834345152165293,-2.3609806500436523,-0.0823690012439934,1.4194784595263663,-2.328027907736537,4.3660842315841535,2.5457177984803443
96452,,-4.927592157188356,6.050902844117897,-4.773354110003615,-1.2618122604807107,-2.7920119822921103,-4.207972441956819,-1.9365402582925808,-3.751714396430779,-5.489981664834125,-1.421834858297348,-0.3854839852552446,-0.3889938905268935,4.710619579599476,1.8748700077089109
96701,,-3.882534142405838,4.090049227759312,-4.883810889868362,-3.652703135666776,-1.1893391318946516,-4.010428454125428,0.035072115167965,-0.263022502377791,-2.883429920482864,0.0985474696754282,0.4741325834127665,-5.1006242030409865,7.271467918740075,-0.1597669522208963
96951,,-3.5334700905273486,3.036906714816203,-8.589866551229617,-3.767996335821509,0.0408976393252732,-3.791229809608053,1.3350582333043124,0.7813583476404393,-1.4933145502902263,-0.3191541239480622,-1.4074048253911149,-9.6213226102243,3.538203647090442,-1.9473922672326125
97201,,-2.719891998726285,4.688572797627976,-6.951601076860404,-1.5820902852696417,-2.340864952962841,-1.963983098696052,-0.5925665169374807,0.4505143059509978,-3.514133158790853,-3.9472568360605855,-1.082519031838938,-6.0320313054090064,2.718402617571609,3.1831901139635206
97451,,-0.9175073302642844,4.938515961136271,-6.585216828387987,-2.1305736781623748,1.143372303005215,-0.7593397451808681,-1.3615890420623415,3.2007147363784902,-0.9373069898091052,-7.613140039867703,-3.859781224986669,-4.31123532135214,2.9586214984352237,3.306962273804839
97701,,-2.219442500133548,4.188113160153717,-7.203737591944625,-3.1231684239072264,0.5129956613562137,-0.0685865877811546,1.1136683015018525,0.4520258168236435,0.6520567600766136,-3.0904929000912382,-0.8093448943072727,-4.521508092780525,3.595005712567632,3.6116874803313066
97951,,-3.767836030543475,5.673711119500347,-6.777586312693833,0.9177333636033752,1.5253040295658038,2.1545954621724035,-0.3764731465991208,0.1973925190446529,2.7800548805151166,-1.791761567117693,2.844395323606928,-3.7720495488203154,-0.9490325142247388,4.333998304849235
98201,,-2.971650408922128,7.503554351554777,-6.989679199690022,3.938599572239596,-0.5996724960493884,1.0808844020573405,-2.2094943061543133,0.6312239042615687,0.3259386508981196,-4.075780918763246,1.2989607299521837,-5.865897345027134,3.0557799873711518,3.903378646720994
98451,,-1.4771873359846424,4.459072961393477,-6.118305183036199,4.221829874192618,-2.560848306313781,-1.8338668480818052,2.0161890939500755,4.830301583588232,1.359385443557489,-3.7879846724901167,-2.1725997722817065,-6.3232439127755455,6.593307155491793,2.8384869477978247
98700,,-1.191683628032871,-0.0648733595760975,-3.168178115509627,2.1063873311500103,0.4524079944575773,-3.3940147936482674,4.857160662230454,7.510874560689572,4.2579394107073325,-2.1438472869960616,4.818946834528229,-3.690840588285565,7.650962340075102,4.899579822573525
98950,,0.0621988355955495,3.3499641453819344,-1.619741006164486,1.3611634859719168,-1.4214591495249642,-1.2161040131940213,3.2832452579183498,5.226776160874838,4.065452950505279,-3.4172513233816986,4.583550854180331,-3.5297095745836398,6.792450961173425,5.876466170053865
99200,,2.6458351205378112,4.209800913724665,-4.602743028803308,3.1774639714553325,-1.7434500400214017,1.2216272103105883,-0.9563166924298616,0.3988296407607979,3.9823583782798986,-0.3256146513210926,3.632082642734881,-5.479813624368957,6.181007739454553,4.23867885579438
99450,,1.7288423033926668,5.829871432720214,-10.149679272441862,0.989546303335836,-4.400621982990887,2.124241932008475,0.9415102850806462,0.91855037375689,1.0011670586163772,-2.000886900759145,3.544481665361976,-3.709171836320265,2.871348132767926,0.6231172984252527
99700,,-1.6050795541067813,5.256947711066865,-3.44798839130936,-0.0417029205779812,-3.19102659405838,-1.3199436909322928,1.6289138997840014,-2.040929999858485,0.2797466086778609,-2.8086366937243485,2.604434462147507,-5.19759943506994,1.4215707781340472,1.5242884225859918
99950,,-2.6888649777814377,5.819357873307741,-1.289027322513835,-2.1690195188860866,-2.735868191537201,-1.3292478643868328,1.3956281599471558,1.1273858037581992,1.8069494818654264,-4.470042598258204,7.965545076000101,-5.976695497582087,0.8018541472868895,4.659789822377945
100200,,-3.49610379776341,2.3558664997677687,-6.282236485591406,-2.021355041427148,-1.2312613556953471,-1.3905044154746808,0.2600790356903952,3.18967371344721,3.370290938803908,-5.186099170877119,9.50022795337794,-4.14418908837484,3.479378934019727,4.385219481320352
100450,,2.3635914266217464,-0.1327787498728787,-7.728188942293581,0.6153288503839905,-2.2905167394504744,0.3012881892857939,-0.7433084344549297,2.1091932488719296,1.344940348256456,-2.920542554653151,5.45379427501533,-6.6532730091936,1.4915044196116642,2.641419728902962
100699,,1.8149022271030404,-0.7240255334656169,-4.723184508630935,0.4531861238861638,-1.5340773539703103,1.2947006827032324,2.326658822138176,1.2111950332461163,-1.3612114453090345,-0.8436990429100941,4.603398935357776,-6.340138143090066,6.227856226067567,2.7591648741261605
100949,,-0.9302356222671428,-1.3968833625340342,-5.720591695211804,3.535824954776761,1.3826310222703628,-1.0717594817087448,1.9562834877802149,3.071366875138734,4.231225195936835,2.9674360828532604,3.3055928156705305,-2.789925944587284,3.760279356513803,4.634886458749105
101199,,-1.7945310298895785,-0.159916604794807,-4.318093532998294,1.9578349633205097,0.6140122467234754,-4.976587252549755,0.1727516308057702,1.7324925210549331,2.5240452581629707,0.8879151630045592,4.624556972938557,-2.2964806806375164,-0.0461166057658588,2.8101570740773765
101449,,-3.611645032529066,2.97919724182354,-3.200277204465398,-0.7148275878434149,-2.2692895699148687,-1.9042428495037165,-0.6143623240778824,2.526064160776294,1.1139455533615956,-0.934677930554498,4.321983067071265,-3.5581781009783624,0.7408519851467433,0.0907859535359375
101699,,-3.4779075171504688,5.837066049272714,-4.25178077411629,-0.5694448048025166,-3.319534863947812,-3.780489358371982,-2.0020149037015047,3.299960129643213,0.4827057515138074,-3.761487131915346,2.725950755031331,-8.24301021572124,-2.158204999177312,1.6381047255653662
101949,,-2.947211820131348,3.978985242097448,-5.465749687691764,-1.344466712740349,-4.475373908127037,-6.607708663653325,-3.581521099193219,-0.4948123927853576,-1.536694022634473,-2.4380834222454077,0.4269019996167251,-9.562433075817076,-0.8161240757415928,2.9468169694308037
102199,,-1.728731973878873,3.924572333464498,-6.905195682870886,-0.8917585388039289,-5.093144166370699,-6.020362486150127,-2.975408760095358,-2.674520222894897,-1.8176883140832567,-0.8764067321482094,0.1917363748033509,-7.361005922921175,1.4097653757851971,3.81258543426249
102449,,0.5332862912824331,3.1355828669320456,-7.636463983628815,-1.8115523659993111,-2.8130627754273725,-6.027158043373811,-1.7658026561033369,-2.268748373708818,-0.7258571047277123,-3.325714215192296,3.040221170217135,-6.662830439914665,-0.145329630647368,5.82517290398563
102698,,-0.1411164160531546,4.050470313246566,-5.838321597311461,-1.746076672682664,-3.423184670195823,-5.893776480206084,-0.4096550085559359,-2.4289276858709403,-4.5186919505454615,-3.3847124028072164,1.2855847375439704,-5.409885013675503,-1.573587429329394,3.809427116618135
102948,,-0.5439035452645196,1.2867930309403397,-6.805658408354807,-2.100100751350107,-5.390221355221231,-5.786207519350507,-0.5499898407538066,-1.540939789442945,-3.8458182232692417,-7.20420270704953,-1.375687133965127,-7.987341061466666,-0.3142167440843063,4.547012647870583
103198,,-0.5568296735117172,3.5128913464301177,-9.256716763647194,0.138220428786312,-3.49337474556477,-3.543709989959436,2.3829935791036023,0.4767134280993639,-6.481420196574048,-7.847150569642838,-0.2427714078650296,-5.215055613555476,1.815859877860905,5.343305235487735
103448,,-0.897547476393642,0.4406423510130306,-6.54845154404476,-0.5592186086426011,-0.0700829104696084,1.3228551453108428,0.2763935056285699,0.2116683910714359,-2.9814248425494663,-3.527961458423421,0.2944634330209965,-2.5239194515103187,1.1473942756297142,4.650142144427663
103698,,-1.8265087992650564,1.48943814078525,-7.163197615047664,0.3315118821628656,0.3511537659992261,1.5884980564711482,-1.0152440577489583,0.624511848510503,0.127343482780573,-0.7783102973982552,-1.2564865287874358,-2.0541445515446024,1.9672785800298995,3.333021537053386
103948,,-2.794383628472761,3.731366337083324,-6.405220096266227,-5.60125727831589,-2.3391103953065686,-0.6021008728695673,-2.332559723432549,2.0013647629161944,0.9695147786374786,-1.5382565925117215,-4.666059125237597,-2.703943282920031,-5.675761774990846,-0.366294721498794
104198,,-5.27399455465967,2.9619994911260568,-7.927082193668483,-8.1581452157445,-5.336729888858878,-8.178637394907152,-4.143518853841731,-1.4061761923572622,-3.028747724267084,-5.792659676991439,-5.800516034595741,-4.76787337939782,-9.230532990138236,-0.1001371835894859
104448,,-1.0341325031014783,3.342174819350749,-8.853819175431251,-6.397055051800473,-2.381366017205297,-3.674612812577704,-4.034301291405711,-3.905970062405728,-8.224208428524888,-8.272451514683352,-5.143569136468468,-4.508426396031259,-4.869579135083564,3.5970606974929504
104697,,-0.4227615999364597,2.7421568102920637,-6.567239191688805,-3.8702085425611497,-1.8101739767940408,-1.406542812948566,-4.248077157040625,-4.193123541314946,-5.8008400433244525,-6.351329343780244,-1.411113651862721,-6.742837926697634,0.2269414910552868,2.3573378725833187
104947,,-2.4753681660956968,2.96378826762921,-7.337873849902401,-4.234568878320693,0.7887004034646592,-0.027049454595856,-3.275922951110752,2.978813165844836,1.383677653060631,-4.12511123213754,0.5809425096981191,-5.36775602463563,2.1409470118286054,2.3630224915420555
105197,,-3.674279961212018,6.08422583113412,-7.221347125802828,-5.078956339604675,2.6296019560254487,1.2623703826599506,-2.4860160758638465,4.56899395584153,2.181825393459901,-5.543560100100709,-3.290586508543752,-2.2428829052653247,2.097830056766107,2.8118030978978865
105447,,-5.141199123265354,2.7177170718518244,-5.097476722097566,-4.061123581356871,-1.7371152965289167,-3.075373638821615,-5.711921172708923,-2.3691897650962743,-3.718275373743547,-6.304299277212376,-3.0427108488899006,-5.682022920940764,-3.744342706392071,3.598900177847415
105697,,-3.243616302022285,3.685122915480512,-5.652804082171984,-3.914617340941353,-2.2708971855594067,-3.270442589393552,-5.76622976125447,-2.1672181727309985,-2.129187884748975,-6.71531518448738,-2.5919917477132093,-8.163572669236723,-3.059871989609177,2.0880145489854094
105947,,-2.6300958559707013,2.6417345124309897,-5.311922515094585,-3.2509019194169317,-2.8021035684125613,7.338270385778028,-5.336289508314324,-2.2553308205860785,-3.4144019498328904,-6.3159777115570295,-2.5219539679180043,-9.485286084301062,-3.92468022912308,3.1267116069812224
106197,,-5.542625521408867,-0.9929121920154942,-7.872338055418941,-1.229717014056715,0.9917325131838618,12.063486550643344,-4.148054497093713,-0.5573712023735371,-0.6908347914504105,-3.3599900940202136,-4.986893467424385,-8.128593145311058,-5.72342639869486,3.191125071892542
106447,,-4.09907614033944,2.4286691940958725,-3.713175371639221,-0.2643755184328895,3.0965564888152923,14.3688970143649,-1.1876345982074754,3.983130352497089,4.032819037593675,0.7943391117747239,-8.870908453624752,-8.05184810707216,-6.00115343573516,2.738755566782915
106696,,-2.7013625139223163,3.264731324022593,-3.409131054001412,-1.2994687056117016,3.7309316712137406,12.646776204859016,0.8590750364796251,4.385828884351815,3.6181727512436863,0.2512176530327683,-6.5770514672025655,-9.853175530930224,-2.6853280530105184,6.250637535849162
106946,,-2.981798472553721,0.1281997539832833,-5.427090488907949,0.1558626805957099,1.7451364907059888,-0.6388856295969418,0.8551973315201534,0.5173832500638654,-0.4634151205623062,-0.9308619958810572,-5.1055176243695,-5.253350854200127,-2.686038570984932,4.152986898611276
107196,,-3.0930609169510275,-0.3368183965778438,-5.011402643386365,-3.860970005006157,-2.891883230300712,-6.069010292868748,3.0052844437406963,3.2581513222576293,0.9824530263780478,-2.540280418992387,-2.5366357565516804,-3.888068934384691,-0.2945543991913853,1.6171884704129296
107446,,-0.6042764344665044,4.264151194983622,-3.852540139816607,-3.321234418154784,-1.0695215433632028,-2.169863441758836,1.886413533457778,3.21960289146947,2.7835994608819474,-1.7807470987258784,-0.996885747725645,-1.2485512098435738,-0.6389833595059731,1.5700388182006275
107696,,-1.3755667815565833,6.811482254405657,-5.414850015994976,-3.788789815483323,-2.3300222603163623,-2.6621156509017307,-1.3853582706662544,-1.3872931425875277,-0.4114621099276498,-3.3562631425970046,-2.8990547655218584,-3.104888507580191,-4.589619009916314,3.398155736943462
107946,,-2.295087726094305,4.573497558487308,-9.026220363091904,-4.347884491153388,-1.0335286689615562,-2.6056715010607663,-3.39722004528704,-0.5920776257550023,-0.2665205654910449,-2.680034361652459,-4.163733337088468,-5.421840404669918,-4.349004460730004,6.6234884858115
108196,,-0.9242714614191216,1.7166159277835982,-7.611809223155044,-5.297394157114734,-3.086183978666252,-1.5476012953853238,-1.7773537588517807,-1.6952017149913434,-2.617324007362764,-2.3706076728388674,-5.338878646452382,-6.5432648994753535,-0.7015272011054243,8.127772783981408
108446,,-1.257166625512516,5.433406687381304,-6.9809242639229225,-1.886728103014813,-3.877387411253375,-1.0233773187421584,-2.54415445803078,-3.783589442067454,-3.2172683681423737,-4.70478321154724,-5.583636238808766,-9.306504901382608,-0.7313818328908662,6.387489919088575
108695,D2,-2.961489273574997,3.204479604790964,-5.6075426710982414,-0.6016876843179193,-2.3717920381247963,-2.1394445562217634,-2.743841348736918,-0.8871699131877351,-1.0337450917273825,-6.463680842747085,-4.510708368564461,-3.6724288219545103,-5.5336775650998185,3.8992558154538592
108945,,-3.9468728434533458,1.948835505453268,-5.164731562185071,-1.4660191506916396,0.2467034091831777,-3.0956880607447133,-3.485739325867909,-2.1492958843903294,-1.814971986026068,-4.422999378958242,-4.635710793874598,-2.248817625404623,-7.923229191618937,2.7185003395035863
109195,,-5.707417017870776,4.380496190473703,-6.023999224498161,-0.0098572572164988,0.4795623584079999,-3.512696599078286,-4.887712657506658,-4.271632742949086,-4.678690932259091,-4.787819149280086,-6.907511082434018,-6.754986032414697,-7.180756141675241,2.5154388615400314
