timecode,event,eeg.af3,eeg.f7,eeg.f3,eeg.fc5,eeg.t7,eeg.p7,eeg.o1,eeg.o2,eeg.p8,eeg.t8,eeg.fc6,eeg.f4,eeg.f8,eeg.af4
0,,-16.127039053916825,-7.473141148687519,-17.771402432893463,-16.751264152739346,-14.556048353263522,-14.95066457867454,-12.709421594173913,-13.483109597753732,-13.150382352578085,-13.731465505881353,-16.828588890307476,-15.446989009707355,-8.637991728354192,-9.986582438931968
250,,-14.339294062284134,-6.238453989927101,-17.804605233763894,-14.848826837392552,-16.388666927601243,-14.61063503114287,-14.673602438989716,-14.322839499750089,-18.46662597847757,-13.907636548776935,-13.583972855769153,-16.550190933985387,-8.744099749578872,-7.1832098478510815
500,,-14.454508054228976,-3.846755527153501,-19.355942026639852,-14.25673449558616,-15.829243088229894,-14.79851782464834,-17.845784659133834,-17.710066747699802,-17.13102373178074,-12.243522398132429,-11.928170716583216,-16.371192420943714,-9.267905420551934,-8.722063446372179
750,,-14.70094905634143,-4.15302711362875,-18.851985149163024,-12.665093058799554,-14.178426068451287,-16.04858061131686,-13.66284947194271,-14.83048412553281,-12.803940349726446,-9.415930000312075,-8.360381320356701,-15.528415095501982,-7.717881472162691,-10.596814718939893
999,,-16.249318161853207,-9.383444616868196,-17.4568807840962,-15.23358702120846,-14.261786795817777,-17.725752271294812,-13.176714483319795,-15.878407451267575,-14.41216341207574,-12.378899150061862,-9.771356158514507,-16.2485766805375,-9.63323352402464,-11.469682011095305
1249,,-16.139707807212858,-8.685488279453589,-18.79835003434977,-17.142991743177614,-14.445622757441452,-17.065803897799608,-16.465516634064045,-14.07883123931564,-16.9357098332031,-15.85202019438315,-14.03665046674256,-17.562673654063577,-11.53537686503941,-11.921037889534883
1499,,-16.28056167263094,-8.951607463360231,-17.866533386743555,-17.58889471370249,-13.384346701238051,-13.670404596301752,-14.399382241457335,-13.335521691452453,-17.16564193622155,-20.128770244711237,-14.544546614057117,-16.257521161794564,-10.49855075324166,-12.96801040135653
1749,,-20.32606982442153,-9.868776402059083,-18.66045652166093,-18.327087221273985,-15.18928170664972,-13.213948786022948,-14.656912406071203,-15.381067272903078,-15.681677262166202,-17.438951125055628,-20.111003530296912,-18.70079129276465,-12.579743164092374,-13.818056979809024
1999,,-19.29794010778599,-9.816325086392606,-15.820946273822358,-18.307829680591663,-15.408353165368002,-11.803297434598644,-13.323330525558177,-14.25352590067816,-16.538197777859963,-14.134742805974524,-19.64231925019515,-20.561022134772152,-12.409303340675972,-13.351517527863844
2249,,-16.049464838487093,-11.08105757984525,-14.578836378049523,-17.681831880230845,-14.329007996414528,-12.110955228949356,-15.239811309886935,-14.932381621470336,-17.491828915083257,-13.000545401223713,-16.122124211305938,-15.478455892566853,-13.282013321763507,-15.546223044049723
2499,,-17.41302633185544,-11.15357150085487,-15.159975449571178,-15.642021805319365,-16.01023979298019,-15.248376626467795,-15.12759349930958,-16.301578640713114,-17.646770251329357,-13.526803886371608,-14.231243754288167,-16.78033265760273,-13.620384516766435,-15.051586299872582
2749,,-19.93367798100409,-12.385819025306128,-14.959019327585844,-15.868546275277422,-17.61341035917004,-15.464476583142826,-16.062513386031878,-14.538580681455366,-14.603405526472988,-16.517362856694234,-14.28789873411252,-16.08348627143944,-13.550679641344114,-14.154982680510155
2998,,-22.353602349855077,-13.399162887988949,-14.204264787354044,-18.48320326281608,-18.65436956783876,-17.838496313447983,-14.346164694351414,-15.89973985052804,-14.899580444453235,-20.33334600638924,-16.738733840520123,-16.696517778271495,-14.5446655828664,-16.57511818078372
3248,,-19.23549488823884,-14.173593890879124,-15.146278423779258,-19.459725454634697,-15.300176767248429,-16.55777659986359,-16.387791151979783,-17.240340892313178,-14.767723342910903,-21.46685920814687,-16.9071509077575,-16.213239908213318,-18.663910886419615,-16.681767866182412
3498,,-17.402663009644016,-11.8041212121707,-13.783922037489972,-17.89714548034744,-14.538200757138522,-16.56541447669238,-17.38064785059192,-15.457090922769568,-16.50248355652009,-16.665436041440447,-14.958351258966552,-15.583993804401093,-16.498035935183218,-14.695630843176296
3748,,-19.3965898077916,-11.313562039468655,-16.48681185987887,-16.203927488524062,-15.266763892125365,-18.045223027686315,-15.658809969382766,-14.845609243346177,-18.74114016037421,-14.947975963248556,-13.87672091206885,-15.8231521766663,-13.152654882257815,-15.365088181824555
3998,,-16.66678479149513,-11.42523857207542,-18.33018388362092,-13.389708958250791,-16.286148297778183,-17.054515205372677,-15.613574388875232,-14.650448452981369,-20.03792879776471,-14.93643609836708,-14.218413118602635,-13.516802483165232,-12.672733382881278,-14.44085306455286
4248,,-16.075258648459815,-12.767830889688502,-18.345813172000373,-16.55733467386089,-15.913772896159642,-17.020983537314834,-18.54202206444024,-18.721560736483056,-18.50175213004883,-18.48254050388026,-16.766343722007903,-14.176390528375537,-15.71858471837465,-13.636000976589528
4498,,-15.549091780710212,-9.901534033173611,-19.47920135189684,-15.681796883288213,-15.094600504728838,-17.990707714814288,-16.80462918533513,-17.91473985153023,-16.187340406447458,-17.274223909238604,-16.506256620114296,-15.709595703861549,-16.343738087031372,-11.299606062741994
4748,,-16.065971455416197,-9.07715717738452,-20.04187963780865,-14.5186124067326,-16.773032452633622,-13.5201051973916,-13.674945427942832,-15.84078108004634,-14.653769686681336,-15.980284768777668,-18.52557631820949,-16.313516183050247,-16.08165123152641,-9.091304216134636
4997,,-17.111997112436068,-9.286497446159936,-20.46387522944935,-14.343909587290568,-17.568019685759502,-15.915428134959344,-14.445798688112465,-17.263175380562053,-14.390883296340046,-12.639898927005952,-17.100338383717702,-16.730241099978723,-16.724320490874234,-12.319927824860912
5247,,-16.69923079523645,-5.3074673267505,-17.486760861992668,-15.176369727581118,-16.061356456137194,-18.762638571544187,-15.867055578976226,-15.881744420892169,-16.230561254297406,-12.13778424470956,-16.241694433355768,-18.184124429942543,-17.64427105181456,-16.260447576530236
5497,,-18.907207014858216,-3.346842139955626,-17.198941365800053,-16.934934631700337,-16.36749789183331,-16.709817268142572,-12.886965015567014,-16.221009534405137,-19.80428339265363,-17.511271477366805,-14.9895871032166,-16.464399209714305,-14.935175155119108,-11.115900720507488
5747,,-18.09717666609125,-4.27270121236935,-20.017836060107605,-14.568986787079794,-16.223654405887984,-15.07849233914156,-14.08839599764966,-16.02223757823047,-16.80645513363006,-17.818768082513657,-15.178198728800226,-12.931667737197897,-12.109329933836133,-12.376732608459264
5997,,-13.64184544445066,-7.976911680256372,-16.445673709483874,-17.142828353799835,-17.75207759122886,-14.516861005953611,-17.605207319497502,-15.14630402672562,-16.04745344132545,-15.4310950542377,-14.488612525449383,-15.91030207125871,-11.29345510644237,-17.864673377085335
6247,,-14.04052887158038,-11.942211211372124,-16.077780515123766,-16.91634738081062,-17.945651194356348,-15.385579151915731,-16.019475815166544,-12.919789392485772,-16.88686113430369,-14.12062723391591,-14.487920684521976,-16.857160335857728,-12.506175234507522,-13.452550945624688
6497,,-16.477528316248495,-8.215426050284648,-18.43235780147142,-14.74086908844087,-15.753120086642443,-16.931502131003473,-15.951900103717518,-13.9633462665425,-18.79235105155583,-13.652591229243498,-13.139410494112347,-17.956692117538932,-13.769917605885636,-12.452427715086763
6747,,-13.584406152128729,-5.707127954328301,-17.956625707393805,-11.02519032869414,-15.880143923202878,-14.623174385422333,-16.438868433953864,-13.861021654820814,-18.36109197555109,-13.50911007114381,-16.144404830145312,-16.010917449176485,-13.6393124665371,-14.318306710741185
6996,,-14.524970918705284,-5.930955953305962,-17.994079093236085,-12.439304943730749,-13.857056541062423,-13.6891389605182,-15.754655302310267,-13.59142589209136,-17.958853965935624,-14.233528670411442,-15.193408887254474,-13.517221147052174,-12.881663603473454,-13.46255633221694
7246,,-13.272693964310008,-7.512839671115001,-18.052014408069844,-16.73832419986164,-13.43209196430207,-14.54423907881604,-14.038291017286566,-17.450838610226512,-15.587345050572353,-13.047797573182471,-7.615020944488721,-16.84855763336051,-8.822022484358937,-9.997393359197911
7496,,-11.865379168110772,-8.227556564744622,-17.013019261329717,-16.600146598369182,-13.026083012226088,-13.208645574771738,-15.304281078575915,-17.82372065887388,-15.560776493510016,-11.1268976849197,-6.767416799761441,-18.892523924771677,-8.04734061843773,-11.008005305903312
7746,,-14.16663320912001,-12.710632948642855,-16.442330092141628,-16.784885649457628,-13.623801693556771,-12.435732487593995,-12.658878767990666,-16.421520646372635,-14.975967895641054,-13.965806001265896,-7.726403113193493,-17.92968359965729,-9.88409605054046,-10.44486539283075
7996,,-17.015457485719793,-9.996654938810876,-17.75074822426436,-14.72381240233879,-16.184414513939814,-10.982631407961623,-12.297172765890846,-17.58878226066042,-16.414736806800494,-12.58890651555128,-6.497135735238652,-15.420719883627282,-8.646897524785546,-10.213562691164777
8246,,-18.701323830148763,-8.141646942802355,-19.14810413985329,-14.457626451501875,-15.725441328809026,-13.5551966382673,-16.54637129102223,-20.53663825587252,-16.580193890186475,-14.872721010857752,-12.30946262102952,-17.337094519810595,-9.754102414375454,-13.839164734403706
8496,,-17.090880805356523,-11.675984193564432,-19.443924249496742,-11.756655175820269,-18.60977297331211,-13.917824234624035,-14.018748468336952,-17.472966554737436,-17.292127946542337,-14.003506992360196,-15.520176913866807,-20.340303872612505,-8.672119056508809,-15.645728116176924
8746,,-15.936325778772812,-9.981542756968585,-21.069270075087267,-13.731800072643278,-17.18774159033256,-13.218412184646402,-15.721951111323715,-15.095089771521137,-17.201516716023384,-14.199844268811136,-16.170106476879333,-19.227713726796523,-12.075037398374931,-11.745967986218036
8995,,-16.54313030314928,-10.13544775236489,-20.855782395852668,-17.134328598776754,-15.325886946997676,-15.3160556053727,-17.093333150234827,-17.7517187003601,-20.64504295605153,-15.108025434993454,-17.153072534249468,-16.453695375326998,-18.332499603995164,-11.70851110233662
9245,,-14.147799287723778,-6.85575080719076,-19.25183855384785,-16.843398602081542,-16.498829140943837,-12.839122791029547,-16.09758657438598,-18.280946288508872,-17.57837078563987,-16.187722546345718,-21.514920800352986,-17.72772309268459,-12.183376557802472,-11.672697191058194
9495,,-14.150551288142756,-7.931750430072228,-16.678144895821347,-14.168430696208066,-16.91663048416764,-11.278032129866816,-15.695945468968985,-16.560332893709266,-15.023559391664222,-12.459933699541196,-12.306150751828069,-13.213988785175104,-8.274314673377665,-12.854044412688545
9745,,-13.591732878414891,-3.73112955275778,-17.86565047528934,-11.258352352562316,-13.78751506343917,-11.704884306355028,-15.99069039823584,-14.745346107930756,-17.411158499024026,-9.491496755483112,-7.129803872056312,-13.914449522687615,-3.5755075914090098,-9.366497381525422
9995,,-14.23106679568616,-5.478657922211888,-16.917900901525925,-14.577147206097308,-14.367215370610827,-14.373258719548252,-14.688728587870823,-14.941380692303593,-15.722552226773065,-12.43061268736499,-11.559297128720155,-18.91350952264666,-7.166713633083429,-9.756403263023527
10245,,-16.054639229533834,-9.56012681109048,-17.368057711951785,-14.986470593600473,-14.68838907667693,-14.145792835832124,-14.254484998078487,-13.105173195308392,-15.406966147664091,-14.072223461335913,-16.013132123493186,-17.284002010298217,-13.608011011447328,-10.02048333216104
10495,,-14.03969417902063,-8.037181374340886,-19.02140546576166,-10.182774866656034,-11.937644045667906,-15.110354583019436,-14.311368983549292,-14.651512758929565,-17.499551895261092,-13.616084334860783,-5.931077919524551,-17.25964482781368,-8.111532584968433,-7.984630684533542
10745,,-8.915092955846529,-5.617011579100555,-14.970886747088482,-4.855187044207145,-9.517631506580406,-12.567321002493625,-12.612678369545945,-13.640394612960804,-13.115880469722471,-9.057428304398282,-0.935599498992205,-12.629359794786357,-3.8508588009508937,-3.354889520193879
10994,,-10.84604150005342,-5.744278286720284,-17.191932155015397,-7.519786207373642,-14.424278503203482,-13.805170909872972,-12.483964588732636,-13.792256044246326,-13.82229882910119,-11.455279327161191,-3.663710995095624,-13.85622725700128,-8.320083497989447,-6.474023457635799
11244,,-11.703556962050856,-7.867139428373981,-16.405209021210023,-9.442604452953894,-15.505183483362178,-16.012647642860593,-11.247326095374158,-16.66498335523775,-13.894699186837297,-16.904603504484182,-9.512759352834204,-17.73997681512292,-6.8745441849953455,-9.25804797652952
11494,,-15.347984038955628,-10.926960369253614,-18.24270944869221,-12.12168097595124,-15.605480956631965,-18.217785953972943,-13.860735849583952,-15.466294339434995,-18.138623024188163,-14.948909869547034,-16.938823834350128,-17.95555623151017,-8.410199137289032,-11.57082039549712
11744,,-15.30077797905224,-5.619849227289696,-19.81371129020162,-12.654987346100564,-16.491177458210984,-16.160521370417907,-16.371345823517867,-17.046096039757266,-16.668843530107175,-12.580292835138511,-11.511793264676871,-16.15351818905215,-9.501081290082888,-11.549890877764229
11994,,-13.914688608844816,-3.6480156325809534,-18.498921294233263,-13.23542117488818,-13.788154206105396,-16.704604459456426,-13.572751517566775,-15.700924156857106,-15.517926397973769,-12.911351118619962,-9.231154712900798,-13.354544744454158,-8.584750624803858,-9.156671391544664
12244,,-13.994215687318937,-5.262289893843678,-19.740718155950315,-9.978127799767217,-12.955742123388038,-16.801509443642573,-13.04621490709512,-15.02215244871568,-13.520660794441444,-14.71529052357933,-11.734779300268173,-13.381983057754091,-10.35948328282155,-11.254234931921616
12494,,-14.294546034004362,-8.674786552518688,-18.72961040386664,-12.574803819357587,-13.244221460597776,-16.566615192022713,-16.26578338606461,-13.85212496495192,-13.04778838148723,-13.189061109370495,-14.289286114425972,-15.900111069502348,-14.145227609236866,-10.375403784824195
12744,,-12.210833694335273,-9.636121699460784,-17.779189838499,-10.186898867844397,-12.255168182303075,-14.970004756195952,-16.33780727150095,-14.01847408325883,-14.233351240236413,-11.289152539863789,-10.754348161102229,-17.19182198892379,-10.516930754975258,-8.595262354811975
12993,,-10.002464597552551,-3.844977473657132,-16.103720717786402,-10.01904221842912,-10.57593002611184,-12.719637386496633,-14.31147830327884,-15.033766702199124,-16.005477343673657,-13.641717993004566,-7.212961718478796,-14.696069208450613,-2.047953963663172,-7.282874992957459
13243,,-8.419349193959757,-2.2866664616596166,-15.898870672201705,-9.166797884961309,-10.963056928326033,-12.147633281959912,-12.333778553866075,-13.193045241839208,-12.184565269525072,-13.90266645482356,-6.75669467422078,-12.589309102981751,-2.283739223809845,-5.590739379292936
13493,,-9.60372165252278,-2.6524716477091603,-15.709479100735722,-8.460213102621093,-11.624693014055506,-11.899935625894589,-11.865024662483446,-12.437493380911366,-13.535010091457575,-14.87899536210017,-9.104862755116775,-13.174328416039565,-3.97149274406304,-8.272715615272082
13743,,-10.865154716571425,-0.0274393200496993,-15.10452864658351,-6.694686679082624,-15.060255902147803,-13.066915678887138,-11.962152936386891,-13.683529215457,-16.113242062645586,-14.44813970429611,-5.747116905156355,-15.013079855624952,-2.937671530403651,-8.790223303839012
13993,,-12.253668072748791,1.0736607500277608,-15.671778914258814,-8.426174632803852,-12.576613638665536,-16.4231633174454,-16.60406198746778,-14.809860613991557,-13.198972282060922,-14.061597714931729,-7.423698357416683,-15.594061020550855,-7.630926461873072,-7.622345816041328
14243,,-7.140708300840859,-2.022962758810869,-13.603566952062703,-8.735570517407984,-11.005816704436697,-14.52251205063832,-13.325306906624688,-11.276108258761536,-9.935245096835589,-7.291878455737923,-5.028714687476787,-14.893543518081756,-6.306792001574254,-3.123121979271229
14493,,-8.775472627057376,-6.653769685078277,-15.725114903903908,-7.540011769509599,-11.431357122722094,-14.91737663244234,-12.805275337936529,-10.990589039633916,-10.513149714700203,-7.898794753170204,-5.956143945763851,-15.20929513325898,-5.76611769978578,-5.623917665611019
14743,,-9.737037283637989,0.8723515923322585,-14.9046559220028,-4.536308009376032,-9.625788290729384,-10.951351103247877,-12.604270620565236,-11.527235355369942,-10.761463902492975,-7.966373440147205,-3.5403404359146275,-13.339429001042628,-0.0224599827179635,-2.3657674112771416
14992,,-6.185583474976549,3.6052756084367727,-11.303786382548404,-2.36648154075744,-8.467147448886255,-8.465990266608976,-10.5747748412671,-10.976579613243375,-9.72583202551573,-5.104058828308128,0.6101014698945189,-10.596265821223549,2.582086938570173,0.1497277572317008
15242,,-8.880279988203142,-1.7707486510987676,-14.310200243965156,-6.277543958701893,-10.242225350299066,-13.4362613381576,-12.186434404213102,-15.398195838441202,-14.754909090519677,-9.738979729969907,-4.891516310838185,-13.42631537328665,-4.838750350846399,-4.190687810690429
15492,,-13.559063267668694,-4.827070822296636,-17.51947550773155,-12.827986336571229,-12.437685836056836,-17.018477550270376,-15.452503919359389,-17.682476406896853,-16.621779809991025,-12.07650407629999,-12.507374492544471,-16.606011133931368,-11.614364387806834,-7.960370603338658
15742,,-12.349522644951112,-3.830120288352541,-15.213021891353533,-11.478599022033958,-10.50237999575488,-17.05398689332011,-14.81625616435852,-16.15441768462442,-14.786799753961873,-10.757563243165178,-11.624099304267348,-16.74635925518076,-11.437627748698226,-8.457763217761414
15992,,-14.591951251070972,-3.175457605445427,-17.342163391467583,-10.676507645116086,-13.513449225021557,-15.599668339323411,-17.26303222411689,-13.586097019220258,-15.128925667416006,-12.78954123432876,-10.486408890698833,-16.382343597186292,-9.275820670856906,-11.464504009496777
16242,,-9.15756318131569,-0.5711186880141496,-15.929431661834125,-6.637290444270578,-13.68948475399518,-17.379953170095373,-15.80751911124153,-12.865024139648614,-12.833009334487365,-10.40866813824777,-9.784326230647672,-14.45736141957439,-6.890431849052518,-8.946700597292715
16492,,-9.19939699678756,-1.2269345638333342,-14.406696388122162,-6.476953126708581,-13.459474410415122,-14.957754731598012,-14.051154064977744,-13.530917029233011,-13.340160815440733,-10.093344665290886,-11.660854437552914,-13.130761380777043,-6.746453426602636,-6.719338266963933
16742,,-10.56927672435821,1.9177612306070717,-13.276501107630953,-4.03199261074571,-15.125245100148536,-12.951596869194786,-14.97901783983863,-13.170115119862505,-12.728132270399232,-9.367048660535213,-12.239189323521128,-12.391395398306091,-8.098736017646571,-6.896319567820932
16991,,-10.312345637778844,-1.588128737867486,-16.281668285157117,-2.8897817779756108,-12.494489719669824,-12.644499070576831,-19.77455670314464,-12.117183110163872,-12.7352421697303,-7.587417251892292,-11.476127837449448,-16.28789982422021,-6.269997946427345,-10.292501992590807
17241,,-10.52338127197391,-1.7295948542717343,-16.149291250080708,-5.285850567789481,-12.887019041778789,-11.898136303555605,-16.460687006427108,-14.27447304941035,-14.860939550861046,-10.904144850356246,-10.72043230872417,-15.209644994171382,-6.996669668406835,-9.217403374424649
17491,,-9.504992258102066,-3.4517530364207296,-15.98283277686215,-9.183588947030769,-13.05400839547379,-13.05263789184733,-12.449554840811036,-14.682239911322082,-15.44040075515306,-13.474561589391357,-9.252732226171274,-14.725768738968457,-11.617018043676111,-5.14194522031571
17741,,-10.893226066272303,-6.196826786654054,-15.401782400942157,-9.0532986751219,-11.249657552267925,-14.0920701585564,-11.054878834253463,-15.640080989805494,-14.691725060446212,-11.51671547310543,-11.972342232755189,-17.179223904047312,-9.641034875514,-5.163231476814731
17991,,-8.861823760283116,-0.0788786551297962,-16.46113685518459,-6.582992700243249,-13.007683037183543,-13.18146714012682,-12.028894378441596,-12.82146372614918,-12.959519075978188,-11.746749619716937,-9.204207092866142,-17.77345801865831,-7.948937513590501,-3.75244880748836
18241,,-6.890351972169501,2.7269324871175464,-14.13050528982309,-1.486949334253242,-14.102918339883422,-12.337096180409572,-11.67613909894452,-11.643291368874335,-10.375396322376758,-8.81896004893697,-5.961354847159579,-14.602390169152915,-5.759458924859685,-0.6885300931240655
18491,,-5.923478539144192,1.6438291588582634,-14.405927031983092,-2.3569716224390973,-12.853670068550056,-12.971524216770831,-11.684078129647457,-13.921888387551087,-8.949609620414105,-8.840729298911056,-6.508618528720669,-14.731692590819376,-3.222870430593683,0.0600403414210191
18741,,-9.035183215126764,0.1894413666728016,-18.76989897193241,-6.97059345098253,-9.83878627795485,-11.933905708187432,-13.540491435099584,-15.494246884800145,-11.178838605995804,-13.404781273468156,-8.164900467543138,-17.911648399202072,-4.532361096796213,-1.43940473436989
18990,,-7.314413081937301,-1.3422860488859416,-18.94093299704562,-9.910365297640343,-13.918804070040542,-14.849324374812896,-11.559892223912112,-13.5569841049401,-13.000525262588596,-14.955303340420372,-6.754138027361856,-16.086674677513347,-5.954482904489748,-0.9179773238795192
19240,,-7.521554005164703,1.7156421318720962,-15.301807276075529,-6.196889817940682,-11.044566411775874,-15.501486987657682,-10.76052622215532,-13.029495678422752,-11.865967234458015,-10.82676473713931,-6.109385036803658,-13.229400719833446,-2.622336110839074,-4.093283592611556
19490,,-9.060970132266728,3.725658602132023,-14.729912140297849,-2.200229104490432,-10.515285141649152,-14.480193098252204,-12.562399555476894,-13.349866286785318,-12.529353218303685,-10.43520281388867,-7.129697976879125,-13.88953899178621,-3.880808364620056,-8.606563378600363
19740,,-8.312165693409355,1.9423664826404,-16.651872212441916,-1.510243414670163,-11.878535626777689,-12.674280668305798,-11.70468007666273,-13.077836634461333,-12.53200755388771,-10.310290003803342,-6.497082569388926,-15.690057250828517,-5.70400362759746,-9.243301983333907
19990,,-7.023172516577781,-0.9479265744862028,-16.237131940523064,-4.499365323403787,-12.003885808479016,-14.255119403079297,-12.267554763743007,-12.093893419591383,-11.531292585962426,-8.546363245662485,-8.806659366611276,-17.034875202440507,-8.625487616474942,-6.181607887427035
20240,,-8.389829757366417,-1.503285106457224,-16.09606476083559,-8.036957797110528,-12.34632456194181,-16.645415242998975,-16.959709936594876,-14.21933179822182,-13.762398545875726,-8.998678959036155,-11.162982421333709,-17.715260318662644,-8.457174289177726,-6.670894564857479
20490,,-9.859714915685396,-5.39384380888422,-15.58186874045959,-9.58749156922109,-12.948673694108937,-17.245269591806714,-18.63912192065558,-14.698348814140584,-15.03819689208996,-9.952369863748393,-13.520442338198906,-17.67244094783068,-10.49473268698593,-7.964773579448714
20740,,-11.551540933707782,-4.063810998979499,-17.773690929068323,-6.646277591073163,-12.441868622029997,-16.201437723634914,-13.673760551235256,-13.955309949923704,-16.80569066065093,-11.437824159183371,-16.7022943038841,-17.519207080227602,-10.052512281401205,-9.4296625279574
20989,,-10.579751879074282,-4.568059272616511,-17.7790526288725,-7.257649418315138,-10.908124985481267,-14.174722435167451,-12.06805572174208,-13.557626967846746,-14.136321249952822,-15.386775466704474,-13.737106095339415,-18.212470556850704,-9.733027682743522,-7.436916885561668
21239,,-12.904384984430015,-3.62723193561017,-15.24064966199036,-7.756548795238844,-12.52972762364479,-15.57247808670686,-11.788298945534518,-15.537246433737437,-14.92408160918927,-15.34822296731134,-13.65086739982182,-18.757876743116523,-8.435717838240134,-5.689861786902938
21489,,-14.64942446247338,-2.8987839927660906,-17.30280084846765,-6.09918861799113,-11.83646551893956,-17.986811070889758,-12.086279937612623,-18.0708004268313,-17.493505230801144,-15.941180264990678,-16.016694605339122,-16.213712713503902,-10.681804400788812,-4.863711362344018
21739,,-16.949335061956283,-6.408267773934522,-19.010635405728667,-8.015560979693417,-13.904895142220967,-18.108164666564747,-14.303683926550477,-17.301361411305333,-19.97038418288853,-16.920653422342866,-18.338198336240985,-16.410057516308722,-12.559982162146772,-4.370677859102519
21989,,-18.594856236897854,-8.156366842260232,-19.158552458537468,-9.676838402119053,-11.62089797942352,-13.65085847193464,-12.89198742217508,-15.247176089515044,-18.87597181099145,-13.194750630239144,-15.50835188997602,-18.353699715012255,-11.943440427889476,-7.942591854365638
22239,,-17.806994380806838,-6.49028461445056,-20.21341476361367,-10.21795232954984,-14.329600550699206,-15.89739308843007,-13.394225771429827,-14.859200421336956,-16.75878160515877,-10.907778257832309,-13.526031657570805,-18.22495708836089,-7.844239516894743,-10.266032880294135
22489,,-12.983211348933825,-3.985015120379269,-18.6770783781716,-11.069713793214834,-16.003983764761195,-15.964159158085298,-14.825125317689,-16.784468840199413,-16.0143749996701,-12.38309302125443,-12.765475131045216,-16.940914279976077,-9.605640290208084,-9.8021643189007
22739,,-13.454690121001605,-7.215600015678943,-18.794624720886805,-13.278587587123576,-16.227770489392142,-14.245091276042432,-13.063186691835964,-22.032397929810298,-16.89247383733322,-14.013033559965509,-13.132599060974949,-16.404355519434624,-10.236508250348155,-9.820733582386453
22988,,-10.298263895888962,-5.662802325429396,-17.015239525652593,-13.12021288333132,-13.934186500412377,-13.036603482197163,-12.676024993437087,-19.80013148114313,-15.03697406747447,-15.019889240489317,-12.697513496672045,-14.2466668811032,-11.293939875200843,-6.8169828144479965
23238,,-9.739537586778674,-1.720461237540079,-16.53382225542358,-10.656020631232684,-12.486487257146573,-14.220528446631278,-12.94139069566758,-16.86348470900722,-11.408418330952424,-10.983009700535236,-13.02692558474173,-14.619087476675094,-8.903453738033921,-5.146989303630104
23488,,-11.335045309770573,-3.0000986426754745,-18.533171373073543,-14.328391813735868,-14.94071761305711,-17.29206602488407,-15.26145542391441,-16.724253200168995,-12.334509661702333,-10.59567572410084,-13.156997300330897,-17.612576038431907,-7.426587900434009,-4.130616977236284
23738,,-11.750193316690336,-7.192083156558967,-19.521246011950247,-10.961781954311428,-12.398806698671663,-16.742496185519695,-15.75152285080341,-18.03918526014996,-20.84406375915636,-15.11909997832114,-16.33821821161724,-15.430294107152942,-8.276469030680435,-5.503987044936235
23988,,-13.094361353468289,-3.595868360740373,-19.12203070184696,-8.080152051273235,-11.94882777676494,-13.82368256727564,-12.625082441956344,-16.247916426141316,-16.212125916346306,-12.836854866944332,-12.557147194590794,-16.4119857530035,-7.134211081804364,-5.80114333468412
24238,,-13.730062654156407,-2.485833309932293,-17.992607907044743,-8.48320246735234,-12.236694132764796,-12.999063947305324,-12.92291906463346,-13.121600111795178,-11.498994160918809,-12.377439251001473,-11.367009279630476,-19.190785628379185,-7.365491775780737,-6.698446197742101
24488,,-11.681087820494078,-2.3305704484471805,-15.475445381091848,-8.826837577333631,-10.926186206226925,-13.550896920612738,-14.69546573665892,-13.196495802329435,-9.930643139374668,-11.14356749112514,-9.996917058804724,-16.18107819519898,-5.378730294182953,-4.833145320844741
24738,,-10.93853385742518,-0.9542969301596768,-14.901940466771013,-7.939148812906573,-11.567038675570762,-13.187615848461682,-15.4960903206255,-15.291821162405956,-14.413377636823329,-10.413317708872173,-8.776342974848339,-16.131060173288322,-4.4282347415334975,-3.7268243611049936
24987,,-13.09654059481197,-2.063979650583021,-17.035577893192396,-8.751321931881732,-8.558328986788423,-13.839154594493133,-14.879784129337974,-14.250703219042652,-17.371420201820506,-12.078887249923906,-12.977228588113745,-17.422231521978922,-7.268656477998817,-7.06760506083678
25237,,-8.908831979321782,0.0728485897980691,-15.536807172777008,-7.481967371283239,-7.186362008302966,-14.327421494575818,-12.123467111594415,-17.105958126896066,-15.17233494038422,-11.013514663017435,-13.007563059826053,-13.70460754044512,-8.162728697216163,-3.64659860781508
25487,,-8.836781099482357,-2.3428004227582253,-15.853911402968762,-9.806732004430652,-9.379048299761504,-16.998957038563226,-14.259653270004511,-20.327944245124023,-14.534916715214596,-10.914531685662451,-14.887345901062597,-12.878575030666443,-8.709757354094702,-3.929186042687239
25737,,-12.41064478023465,-3.072981891899687,-16.81414655016606,-10.320845532702585,-13.050914848762629,-14.723309737932633,-16.854226421745366,-19.027936320479306,-15.78852581978386,-14.319221672944485,-12.701123865102062,-13.864724222849564,-10.609621489192133,-6.618422796210396
25987,,-12.899586168626293,-4.87120983921071,-16.813158885474373,-12.610125208192065,-15.587305783415356,-15.622498298946027,-13.124402017267936,-16.02728252391713,-16.36743081518062,-14.87244775005288,-9.872930300522944,-13.857605251036112,-10.006878960953118,-9.3431696401608
26237,,-12.69486728979058,-6.362159800135071,-17.093556355057935,-14.836464819362051,-13.027401666864511,-15.269602678107535,-12.837672731328649,-17.214995893430373,-18.598845773468348,-15.040827454559274,-13.031495954407038,-15.20648953830127,-7.923895619446013,-9.34330796862456
26487,,-13.112246768926482,-6.678102497301786,-19.974443636568928,-18.35559962760233,-11.674077887263328,-15.434270092009456,-15.168138528573811,-20.410592447981543,-16.695563145174617,-13.79105048265564,-12.758929916283403,-19.62153365237408,-9.127435274548956,-8.50834358553944
26737,,-15.29706304718033,-4.031354421292139,-18.32129992306464,-14.313415900665522,-12.758740144996782,-15.175110522506722,-15.890446209250698,-16.16925346791276,-12.081870146520371,-12.56083036781083,-13.124279955202416,-18.17654639214368,-9.562341175434309,-11.544734402862655
26986,,-12.741093387701742,-4.587024933736139,-17.672325828374852,-11.523309985880772,-8.057673699476002,-10.562331552194737,-14.0490931879098,-11.898253261550716,-12.5963074717678,-11.625963223619864,-15.86483269266723,-16.903994863753265,-10.11204318477924,-9.34415054999481
27236,,-10.69713113772239,-7.32042724796702,-18.271282107041404,-10.555858679630788,-9.037897608234385,-14.122437464124143,-13.79120988927289,-12.960510326806606,-12.157047856100828,-11.65986543086666,-18.02029871461025,-15.484244509472507,-11.760245136505263,-8.029327244959699
27486,,-13.834618963123772,-6.320576049038512,-17.18840921167334,-10.85142505377782,-13.810422846304872,-17.992302007697162,-16.157958961492632,-16.342030337214055,-16.038302495360085,-17.00174061719498,-17.162886746469923,-17.345740304991182,-11.59094970922064,-7.563053599089291
27736,,-13.19978906082758,-5.940833766588149,-18.0145895677338,-8.98483753263576,-13.642564284945884,-15.442751229703145,-15.520712761308582,-15.91391969436231,-17.88967925532968,-17.500098710761282,-15.511715963512517,-19.49637845987326,-9.160509681051368,-6.039623381268264
27986,,-12.921488247163293,-5.486629895334873,-18.55471508297433,-11.370191075364293,-14.07768227522787,-14.006769009891771,-13.04638428257512,-15.91858646713898,-15.810958357122862,-14.85553784209526,-16.079889289660613,-17.318804332198944,-11.809225513699086,-8.18188103348789
28236,,-13.10978439100824,-3.8844689569747226,-16.337688592569368,-13.532027214923072,-13.501098394542195,-13.2696189603092,-14.5400477117681,-15.685870922940309,-14.69015923965481,-15.523840654903614,-14.349495259590146,-17.384457861285757,-11.640748091569211,-9.295273333142683
28486,,-17.139390705721567,-5.159683261557238,-17.63233102956425,-15.368697056144017,-13.987853942100738,-16.113617784744513,-16.452730678083487,-14.625244989110309,-14.125233092010534,-16.19881419204065,-14.939767130054424,-20.83263082372747,-9.197290770334495,-6.570712964398851
28736,,-17.366508143464156,-8.732641117455737,-18.48105595992158,-13.771400341552472,-15.4593276315075,-14.248111911090696,-15.2325856769129,-14.347611947168105,-17.206505664424007,-14.285988071933373,-14.718520010731964,-19.5022670706375,-13.741624162719273,-7.112675772841253
28985,,-14.79288842249436,-10.463484987943325,-19.590924536688053,-13.885331782114834,-15.45509577384967,-13.2705284661348,-14.80854601125731,-15.20738128436526,-16.420120582643015,-15.986592351635627,-16.027783670952832,-19.871779269682385,-16.451041637732278,-8.315007179045114
29235,,-12.672637148679566,-8.126275906755215,-17.642409715642827,-13.042219288552024,-14.326628451669546,-16.821691053209875,-16.696943551469207,-15.875417189883905,-13.380876349800824,-14.644231531884898,-20.443259152029317,-17.488854412782317,-14.822006065818076,-6.7021008919572544
29485,,-15.372612767656095,-8.410989102908289,-16.47211381404533,-12.053734136770604,-11.660463292829151,-16.264186817464466,-14.72935993743619,-14.632445620781851,-11.01159208170137,-12.957331567507326,-15.767201321967004,-18.013806353418644,-12.493551973349843,-7.822769186662544
29735,,-16.556513171538164,-9.70074911843698,-17.003887159844055,-11.599231811436477,-9.721560000654684,-14.25587729417105,-14.868599380488025,-16.823879666559076,-10.533988119687711,-14.691471696028213,-14.035111636079378,-18.997084258473727,-13.60600029291325,-9.980387462648617
29985,,-17.737169136254273,-6.433924045791982,-19.414079727637144,-15.945140118477534,-12.839759741588113,-15.027473602925753,-19.0787372753476,-17.324519448300236,-12.8127886589692,-17.141701906107777,-16.99744775262077,-16.201654757732708,-12.13050311793504,-9.220011598839788
30235,,-17.497603859607995,-5.627754267004819,-20.040256182124985,-17.224254945202716,-14.53470789255471,-14.432770283190967,-14.678958396391904,-17.643584721771155,-16.80348413038721,-15.349096554960948,-15.526604458167505,-14.434831983755076,-10.598371153206111,-8.217121559197022
30485,,-15.12014223049195,-10.665312171902526,-17.50303908729462,-18.16933164738684,-16.138244285449098,-11.927145207467918,-13.592103807882904,-18.90176024144133,-15.991482419393428,-14.7054218898732,-17.018909366874976,-17.685452718180628,-10.667459228078616,-9.889777882419304
30735,,-14.382115521529936,-10.8784613442679,-17.464681945379088,-13.50629649162041,-14.863516571119169,-11.16789480616646,-17.070612809051546,-18.897854483158586,-14.06268711415274,-13.307543665629671,-16.874117195762654,-17.89399821862337,-13.921003515926554,-8.264054129671973
30984,,-12.848141468931772,-8.628302683544838,-18.631027489678026,-11.865434387935576,-13.846541152451888,-18.731160266693973,-16.11634854784291,-18.83817463694214,-12.105886865348513,-12.315876599480614,-12.65608669646504,-17.613269429855723,-12.213185855366929,-11.87229571442063
31234,,-13.870497605127948,-9.324516227995874,-19.89829687809778,-11.861047386881546,-13.834773474733948,-19.67369291304497,-12.980343808894542,-16.860101251195875,-13.56041736413986,-15.15569391436067,-15.141819830428007,-18.143122080838584,-7.500456909978243,-7.949783977612414
31484,,-15.534634554858588,-7.532562040766896,-22.35926783687568,-10.303210840349578,-11.438434324779209,-15.80703558457424,-13.94380469250466,-14.534987616343422,-13.850940473328643,-13.732334533288276,-13.477815712478243,-17.610520869037234,-9.31098302358604,-6.319878210756239
31734,,-14.95556603015118,-6.3999295057161625,-21.87794535516546,-10.5201010721704,-10.345494858194336,-14.192540957652469,-15.544752102896638,-14.424120688812396,-13.183004631677193,-13.674306431370152,-9.11418172105819,-15.903484116673514,-14.862977425114927,-6.576912088219684
31984,,-13.768023064965204,-6.576185062685271,-21.5190230752868,-15.071250727908788,-11.194110823154674,-14.230665202905858,-12.221302446609563,-13.556707080683164,-12.67015330306286,-17.841190538500566,-12.018150445436724,-16.346053563152438,-15.88823604203131,-8.97615617324824
32234,,-15.4844487510724,-8.864127342230972,-20.13980290514242,-15.739303470067616,-12.707449575244826,-16.846254502761226,-12.971785990790464,-15.759741588630316,-15.568434902038552,-16.50862909509678,-17.87168699800361,-17.864164875568115,-16.907903824819886,-12.269554058569511
32484,,-15.163119861899968,-10.066068845334469,-21.341598532371755,-14.95963207951996,-12.093987714994444,-13.400655238030762,-16.535965397529043,-14.315053363204033,-14.960081155259882,-16.663142437342128,-15.256512239360044,-18.50327512143941,-12.275576742281704,-11.2593691220174
32734,,-18.23391988693124,-10.19228404699119,-20.327144880468992,-17.231153119779947,-13.971312874104465,-14.466278659931437,-15.786245095291603,-12.484023484074587,-12.975051129917729,-14.127414212806196,-16.1536000688915,-16.874224608397558,-12.18965451215288,-11.231781535121137
32983,,-16.245444681719242,-9.92149948929217,-16.394620846726095,-16.442142887881538,-15.10066400580467,-17.201434682474467,-13.320402005660414,-12.87961257856551,-14.833859767211756,-14.273575680764996,-18.238093376195195,-15.682865808869398,-15.014858727748946,-11.809197203542263
33233,,-15.944079094741678,-11.6767522467395,-16.018473036026286,-16.264920935087442,-12.12454766881059,-16.905449699133015,-13.14651923718715,-15.595105999219864,-18.715961656249597,-17.695985418628158,-17.93259966421705,-17.12146874015093,-13.407408130600809,-9.98160494499156
33483,,-13.034091819303825,-11.450416073274615,-15.3578599958859,-15.600296098996322,-10.924722221549205,-15.75487643274073,-13.013160913438428,-13.358038280423331,-12.850604724429084,-14.712493144976529,-20.22043517165619,-17.29857007978716,-13.217787774782837,-9.704222022967905
33733,,-14.856081298525403,-11.618951888879367,-16.873330965563646,-15.64662678912508,-15.652547894676529,-19.182476942847345,-12.238505356587137,-15.18469577521696,-13.406796782598397,-15.367573883042011,-21.47798323220375,-19.398977091845317,-16.26391902965777,-7.492610376618185
33983,,-17.47777024982284,-10.230561793642336,-19.361054298553192,-17.68990159636924,-14.557325456694407,-17.886115851727073,-13.922162648278103,-18.89149498157128,-16.314501006722413,-17.449300362162997,-21.795212517175926,-16.8678557146955,-15.500748854022266,-7.4411926331089955
34233,,-13.779258743855625,-6.951406392109282,-17.60017173157806,-13.253477310866726,-11.70141149901327,-14.575032191087638,-13.014675293249272,-16.100463404263277,-17.509772276978413,-17.49914511756647,-12.549902515450333,-19.215416966679847,-12.746421498322036,-6.885825926723037
34483,,-6.408156796897718,-3.5839131769094843,-17.240854889610354,-7.990349661703957,-9.010390039456732,-8.721873168290971,-10.028148041836838,-11.973590402046106,-12.870096513857373,-12.204733754248153,-6.98700335864399,-16.263347565760252,-10.014716071951336,-2.5827683006286426
34733,,-9.025047819760545,-5.011981307596972,-16.661251340020463,-10.863551042935196,-9.093212855769876,-9.177527878292222,-11.248738759332518,-14.717063543990689,-13.656250144678602,-13.073413246895967,-10.220822308577628,-15.506004596626363,-9.33683788290523,-4.473681248253925
34982,,-12.846336023298475,-8.898058650377136,-15.818843265799948,-11.710396373009944,-12.154160997620853,-14.182543645839448,-13.496971519295172,-18.07615737484442,-15.493313404114277,-14.324908324476052,-13.704664610334994,-19.139166171627128,-9.260348088540532,-9.779535484829989
35232,,-10.828673096443548,-5.095387828698725,-18.65120674919335,-10.856612935153894,-14.974865502376389,-15.700679133451228,-17.31437242730336,-16.4641881645117,-10.008372775590724,-13.420336141501387,-13.685793788289358,-20.70606424912432,-11.876037309447456,-6.820326298241951
35482,,-8.588744342630923,-3.356090483509449,-17.81031753868314,-10.076352750923707,-11.264732576700789,-11.268241086243476,-11.4723548525565,-13.99410562176457,-4.325823486009466,-12.033185731690804,-11.2954006586247,-17.38081523155648,-11.364025393383734,-5.423896737315132
35732,,-9.085866597253055,-3.437647515511737,-16.27868555431966,-6.937612797404472,-11.330006172039242,-8.83059759087194,-7.588562623383336,-10.929305434056593,-6.037453288140777,-9.750125914529775,-10.298185947171469,-14.632189984826145,-10.371833030286885,-4.767233076073831
35982,,-7.799881884000138,-2.246742097156818,-15.156064116074274,-6.895299648449433,-12.952106856547374,-10.594806330967783,-8.65022586260088,-10.958179663879172,-11.11159676854082,-10.202760810798283,-12.362912903708477,-14.063846889905824,-8.09917594207183,-4.282266452055455
36232,,-9.164821066571678,-3.8189050695037943,-16.944884471769363,-10.419220970499396,-9.338993444376552,-7.958146259922465,-10.491566714914104,-9.299487807394746,-12.306472980179974,-12.919367390523014,-13.305621632462936,-15.283251820127582,-8.406003397678697,-4.608482217252611
36482,,-9.072309075376452,-4.06634408680537,-18.12007354120858,-10.140810174903743,-10.656698467581268,-10.17468800583126,-12.691415202717227,-11.131708403687748,-13.921095373485027,-12.973964310137603,-11.737720670712651,-12.158611173457343,-11.682648745214504,-5.547247581266225
36732,,-9.48815421037849,-4.93789588100299,-19.7566480918804,-8.028121597869912,-14.704558349175066,-16.041927178607175,-13.43839318100967,-15.486115280024917,-16.089470674097683,-11.814388781493257,-14.577394413059144,-12.958315983486884,-8.914231331713097,-5.608447144272293
36981,,-10.616247742612284,-6.36127221283444,-17.947890855779832,-8.132300192533698,-14.737464099620253,-14.77818990195756,-12.16695159128678,-12.44484796376129,-12.88382333928551,-13.50940421623369,-17.710095574819334,-15.521396294287529,-7.322940148392973,-6.46024781935136
37231,IR,-8.15937885285311,-1.9905273783151416,-14.744865619599514,-6.401430950940743,-15.11124410738882,-11.641842264902827,-10.515964180543993,-9.976469899254749,-10.868426036389708,-9.868527247582527,-16.06951120882989,-14.354450051712258,-5.62762952144295,-3.421783329667853
37481,,-10.05142129380866,-3.532800108915965,-15.309172285132512,-7.142070899722936,-16.536777524244364,-11.823915773515832,-10.26204563483259,-12.32179315503375,-11.962602389736226,-6.527756259133604,-12.870763944835492,-14.31977633095692,-6.6883865958068895,-5.996013359264245
37731,,-9.417486676280584,-6.714949659145572,-14.82054262311082,-8.004262836125145,-17.03181814072566,-14.424390498144437,-11.067611851319375,-14.72982861815579,-11.789421307780287,-8.723299971082758,-12.085057209676124,-14.346679583521468,-7.884784797082841,-5.223869806594519
37981,,-8.664814579684876,-3.666285802034983,-14.13141052658604,-9.02038943486435,-13.19126050861467,-16.375836517441478,-12.0238303326731,-14.260708322253532,-10.47737331478876,-9.407645612050745,-8.112546291115905,-15.04819795950528,-9.816838596762638,-5.763727874102532
38231,,-9.16384133824236,-5.6491321436719,-15.895953664702722,-6.167955957455634,-14.025703544263637,-16.746906844415477,-13.029938311692582,-14.724359093678276,-12.36827130749912,-11.060637711669427,-6.757676694106296,-15.710242255599288,-6.669476637141373,-6.936931914191603
38481,,-13.34671377688856,-5.740165733205224,-17.597540765657996,-9.706274909929531,-15.266729173256948,-15.658814297921824,-11.53923381796576,-15.99920784567862,-14.044672464015129,-13.085611818831332,-11.015140280533114,-17.72350719356973,-5.821184406705637,-10.311905351914426
38731,,-13.747521065315366,-5.563324155155641,-17.22146822711285,-12.596619845547783,-11.456949993401292,-14.997539835448704,-10.557168069315797,-14.028855604951826,-11.307706067104837,-12.76798176978435,-14.360670078790516,-14.362720513888751,-10.456136427722363,-9.555269126407463
38980,,-15.625418955010792,-5.739479720743158,-15.28292548470243,-11.160747744251784,-13.621905442105838,-14.747352693634246,-10.539685871402114,-12.492230123583605,-10.84166399070735,-9.2796272847983,-15.311645751802256,-14.63304073308407,-12.404534211112882,-8.925989084080168
39230,,-14.641915279642266,-7.611013061445524,-17.121293333758615,-12.38343353246536,-15.829496059560212,-13.722671382337133,-15.591744759861148,-15.176519764962284,-11.708236381263069,-7.327412568176458,-16.034561566914622,-15.952323239905866,-12.220560334585752,-7.819563532561734
39480,,-14.519013030248786,-7.698224678903762,-20.153947041938206,-13.311653197908832,-10.853300564062144,-13.807598549346237,-12.853572745095155,-16.50365262952376,-13.332915470075744,-10.247495832027074,-15.211100187539444,-15.311851737227585,-10.075665920859969,-7.891321817569353
39730,,-8.473971094883288,-1.0131574901892584,-12.351615988003196,-5.2295976070386105,-9.96570849143209,-9.743601061021533,-8.606737210909825,-14.921783849893393,-11.394278390304477,-10.838751729981652,-5.039270891551607,-14.430548860334746,-1.0377419033020203,-3.442435177357216
39980,,-6.257567776529161,-0.016051762537498,-11.77913512977494,-3.573943530731372,-12.146377667991626,-10.879151847353173,-11.73602971355078,-12.254998927005616,-10.741852742391604,-7.23532579366495,-3.232137628069101,-11.687438598832331,-0.3047008912089927,-1.5431155485875545
40230,,-7.582289822848041,-3.296428936197436,-17.97500674500163,-6.693108474332825,-12.870521433213664,-15.323620425684949,-17.20724260730435,-13.76277251145821,-12.139624923245371,-8.741408499223798,-10.219251936258951,-15.15695894580481,-6.424823318268959,-3.479933099028062
40480,,-6.828958670257162,-2.0860908524092787,-17.33854335500861,-5.700437127689356,-13.230020779427146,-15.53749332894359,-16.26123775488706,-14.407455913528024,-11.937615265543878,-11.120778865918764,-11.967516845292918,-19.42961268965458,-8.707254898616034,-3.0829150500341966
40730,,-10.777726370670576,-2.997626536383845,-17.643940193581457,-6.2450307517167145,-11.849842770190964,-14.12989328898134,-14.158744345469572,-13.735626257316015,-14.740300704198743,-13.585271023556537,-13.730793356296376,-19.83955676644881,-10.817201894915236,-5.210940864535193
40979,,-9.03190629940502,-5.759952384754863,-16.665962985016435,-8.5273466751939,-12.0531472650077,-12.673822499185114,-12.961342481976487,-11.656022576702672,-10.539621575589845,-10.687064147969789,-14.52445188341121,-19.50334211144256,-9.588026872207283,-4.917683509400661
41229,,-11.973584567310048,-9.172826570806512,-13.65577355141638,-11.78829162513379,-12.830003793046297,-10.305468406819791,-9.98259602029333,-11.821547447439936,-10.971420220199146,-11.032209714865996,-15.77135322799258,-17.580006117816104,-6.865089575635386,-7.348952638584284
41479,,-14.27022085205488,-10.918746245942888,-15.148211600534449,-14.15689844554131,-12.723181577165104,-10.983329912761198,-13.404237124396142,-15.96731457043023,-14.350388988686568,-14.15164467215154,-17.565739125796156,-15.769466525145384,-9.670095541728358,-10.683948476923318
41729,,-12.984095566505143,-10.5479060356945,-20.48720606599392,-12.05857639225549,-12.390069831981627,-16.69477390895815,-14.357103167870962,-20.18230023844648,-15.781074068328778,-15.32886626807349,-19.08347463784261,-15.874007081991136,-12.599667924451602,-9.365161629992569
41979,,-13.72754789932008,-10.48550364094525,-19.8072226664572,-12.257295374354658,-14.15480204376931,-15.52448614139309,-16.876304136583546,-16.84624720257952,-16.547306800341204,-15.473573737271822,-16.022481312808154,-16.546515861158603,-14.159563598119163,-7.3625556945860895
42229,,-16.509180257449188,-11.939706651230209,-19.31400875393944,-15.459494538031656,-13.66585398381356,-15.15928286275006,-21.699035151612776,-17.308154997193967,-14.817350288332158,-14.753152739620116,-17.239910673880104,-18.318946071811474,-12.795452799128242,-10.00266299655328
42479,,-14.249277092184878,-12.472318850449,-19.12808580551781,-17.033657210025346,-11.890066218304831,-9.999712484606528,-14.75203393159546,-15.661703426370783,-13.769836465774032,-14.234804700302162,-17.055045395491213,-19.29444047776606,-12.056490955676658,-13.670907529951371
42729,,-14.095305967401162,-3.018644815400155,-15.924329469344498,-11.350064914769844,-10.931288618084096,-11.989706895588604,-13.158209364514216,-13.622841777212535,-13.701819754206648,-12.171878577236132,-12.54754617302401,-18.943854879341085,-7.638368277305742,-10.984881335596183
42978,,-17.404810556964343,-3.3927669035807555,-17.490624250570363,-9.237723467937151,-12.283102579556797,-15.886209058172884,-12.767570304350691,-16.01462139738541,-12.009290646599366,-11.946140833012253,-11.98664832882889,-18.62933182041923,-8.057916332554912,-10.29125206811511
43228,,-17.709073036824577,-6.548962853615139,-16.376404316608188,-8.895941957680007,-12.910253696652084,-15.440451843909832,-12.08648779447778,-18.187007042399895,-13.514570881334553,-11.951563997410172,-13.449461776444611,-17.17947605022938,-9.08631655822935,-7.893671576160966
43478,,-16.019434245958458,-5.121994397610589,-15.54331263830277,-11.916102800234658,-13.2051321843074,-15.607481826016285,-14.300872318826368,-16.779961180995542,-17.595374720192133,-12.303560044929435,-16.018835971920574,-18.93267233037336,-7.260086544512139,-6.179865401903227
43728,,-17.1712592879541,-8.79590739915241,-16.091119202941073,-14.9376462793801,-13.435678324412384,-16.09604297192456,-11.577776949300794,-14.110577894132724,-16.427417746822112,-17.580637367727693,-18.88917071607785,-18.7840775912975,-11.870518243407515,-8.530783736089484
43978,,-17.756112368524548,-12.063128821978689,-17.866453932130298,-16.3819188771961,-14.677356497386327,-14.541668052023873,-7.976308754590957,-13.887982517867012,-14.152304880564376,-14.112594834024485,-19.66026621593716,-17.19434267646981,-10.045381994597957,-11.23048121403686
44228,,-15.003275705127738,-9.377126732281129,-21.790946119732677,-14.868473003025333,-12.805608205333122,-14.122736711677458,-11.529406969431982,-16.401070932703888,-14.465521706726673,-13.86141187690974,-18.536938079358546,-16.450851044948237,-10.497872057930916,-7.354467657855661
44478,,-13.256992346507538,-8.19962610421302,-16.048561463417933,-12.0722007017428,-8.682262046168049,-14.495711624658648,-14.723599717366472,-15.94299040600143,-17.407967876076984,-17.60477572692739,-16.621459202641475,-18.51009380843185,-12.193930151860467,-6.795387026388146
44728,,-15.436102975781154,-13.421624611526106,-15.04109887818588,-15.111585848709115,-11.912600415704093,-14.021277600544709,-15.148981685790927,-17.345255394059006,-18.858780382740942,-17.48469344876236,-17.49306942181881,-20.1628684896884,-12.251174708347074,-12.886095331506036
44977,R,-18.20475051906498,-12.77135030238514,-19.42264666363853,-15.221787017118793,-17.226805602160418,-8.638463970871856,-11.383026254837215,-15.783574593904529,-19.297158754452067,-17.766832651515763,-17.807397681544778,-18.805064603348097,-9.64330859413179,-10.651889933762344
45227,,-14.175792880385735,-12.52418443872947,-19.480554704588272,-10.080748200399604,-13.389134922567996,-11.08159133117822,-14.138750649334156,-14.213864613416288,-13.465616017335126,-12.183931348071596,-14.925717796531908,-17.380523172907402,-9.402673892811425,-11.08874564801368
45477,,-13.745757466742552,-7.259433465580299,-17.83190458611213,-10.291286607721071,-11.196047378169844,-12.933688395017306,-13.730094619972643,-11.449977318940965,-10.233393854089227,-9.029084171692576,-14.266919857576127,-13.014427050481252,-8.840038608723242,-13.32523457413908
45727,,-10.9875753327312,-1.966661181161,-14.236700024905227,-9.726451263065838,-8.750735191614918,-13.206033903585706,-11.175873706432212,-10.427832689952346,-11.244744293480943,-11.05092593320823,-14.095401949867892,-11.357206931779384,-8.024461009676306,-7.47390523002262
45977,,-9.22298631223068,-1.102338489214039,-12.742472771486334,-4.044558769713444,-9.507032811598338,-10.80280785572854,-10.064594562162934,-7.317874105933916,-11.583124318566352,-9.596066276093364,-9.19845499741609,-12.673390637042155,-4.969215386236972,-3.57109698273678
46227,,-7.671894733721228,0.3641225342477049,-10.838294312925091,-5.75420529589953,-10.524188971842303,-7.379895128327965,-7.296462329444864,-7.49593014115537,-8.126993585626293,-8.955319816057026,-7.398009563303098,-10.537942303532816,-0.1087880551323697,-3.830167704906481
46477,,-10.17006529745204,-2.615556542908068,-15.143663936157568,-10.897204696491984,-11.941031351326126,-10.537318056385695,-9.62469144362199,-10.773443090446245,-12.016707135282784,-11.650460563166927,-10.771871951493075,-13.616087848793496,-2.337621486986994,-8.84205628626335
46727,,-13.399832056486716,-9.394267816165296,-18.28572065454551,-14.467771728742832,-12.611614705719768,-15.854981538684523,-12.554568231017315,-15.403789589890756,-18.006031685010164,-11.603693879750509,-14.674746497761571,-15.575873836297136,-7.72379263650706,-9.67595923468168
46976,,-8.934131120303311,-4.481275862806768,-15.966730436103632,-12.959556331869182,-13.021750688155542,-12.45782535790045,-11.317278285094783,-17.893355144635432,-17.357408525754725,-10.44118222521464,-9.624154461947125,-12.954331938743168,-4.164350578475366,-9.046940857976988
47226,,-7.130134654376899,-1.860164604597508,-13.707642815946135,-9.257158868759609,-10.15373600068928,-10.21214832762565,-9.52152809543943,-12.114770903282164,-11.912293892488965,-9.61929934436746,-3.008118242994327,-11.65562314450019,-1.4226539642229852,-6.605105762947455
47476,,-5.383963859009558,-1.192804592877536,-14.60903803578762,-9.451838541808817,-7.279414749086904,-5.205503081354598,-8.663700043700379,-10.188610149446992,-10.051852864033146,-8.625789560538827,-2.36963301183608,-10.647155669229477,-3.7867605003069498,-6.108964221759216
47726,,-4.252307825134206,1.208142473111726,-16.340130457468696,-7.439524114886911,-8.63258826862894,-5.2849859688691865,-8.816563222102193,-10.719006068414902,-9.358891025842746,-7.74553028085344,-5.446975753869468,-11.27515421814855,-4.496638700339503,-6.5602960723743
47976,,-6.617117470987502,0.8095804457423961,-16.507493769848434,-7.305957699039444,-12.342520238718684,-8.549878579323318,-7.887314322455026,-13.200630926931044,-11.007615822297709,-8.17875103564895,-7.450049542979348,-11.342837830565866,-6.00514630018897,-3.939541138561271
48226,,-9.600992578065975,-2.1317499246240765,-17.9208939870254,-8.372748831264218,-10.024982140185672,-9.502745783976067,-6.740003903348738,-15.31290487790786,-11.524824125073565,-6.430703208112419,-7.87506026301396,-10.852406202708458,-5.4351596015329005,-4.21851799681455
48476,,-17.57830360502359,-2.560351293387988,-18.622813012896543,-12.063389424323356,-9.90069374900392,-8.949386359616884,-9.575073478955591,-13.167289272898962,-11.4944086583213,-10.33556914757968,-9.622797457607676,-14.325100873456869,-5.707886621177462,-5.932977844132557
48726,,-13.22489738099324,-4.359122068854919,-13.877290706537336,-12.853140885522183,-11.715209752914264,-8.660568894342447,-5.689396890439179,-11.63271008772467,-11.645361872342942,-11.967191780209168,-9.052144209034951,-17.188910858025167,-4.648677101120266,-8.233210381724973
48975,,-12.081646789777242,-6.340144165482727,-12.524259596768266,-12.56041984722968,-14.807609013147225,-13.340487738143672,-6.233358589724577,-13.49441764614812,-12.597192456914977,-7.8913996645222,-10.052515933509287,-17.440910891787578,-6.187256461381203,-9.261543600171985
49225,,-11.408398733585503,-5.04447213513574,-12.34318127477373,-9.65218525975758,-14.676802440550343,-11.627629324285117,-8.664399163198633,-16.395818750517655,-12.480087520403702,-7.978584191934516,-13.726247062572812,-16.54602381900458,-7.293697739891829,-9.502541767851213
49475,,-13.098281062703814,-4.609566061326952,-14.715534860979602,-10.847441645624736,-10.252062887851842,-9.41173352719309,-9.338182713221316,-18.739711681617397,-14.739830529931169,-11.891490978422382,-13.791021738726732,-18.40479100199837,-6.044234840483512,-11.216554161848295
49725,,-13.483319760786742,-6.087658595182866,-11.388691674503267,-7.554151813517235,-11.249980114838165,-6.783713815684678,-5.478695111755113,-15.62648109048592,-17.29423291212419,-13.737506104120367,-9.968860928467556,-13.038267977736478,-6.764565888233738,-8.987615948063137
49975,,-11.454591763102384,-6.44433497291802,-13.014034060386134,-7.794712305778209,-12.152815760139282,-7.99524741813522,-7.215791428350191,-11.833802137673244,-16.00959727274603,-12.983815727603911,-11.468072420876773,-14.09978334354888,-5.850691695456214,-4.36440592624861
50225,,-8.010938774928658,-4.493398067023869,-15.493071369185667,-10.32648524093581,-9.499715429613486,-11.131746381771077,-10.886251604816293,-12.78863850070902,-15.307468740771434,-9.637750198747948,-9.172557573871778,-15.130696153164871,-5.35303526415573,-3.4492969523801187
50475,,-9.79845196067542,-3.244163003185443,-17.31231799683615,-12.479209214124092,-11.58872100485706,-11.922496435329023,-9.93580738133016,-14.052433302540106,-12.200972147758344,-7.288944185737963,-9.359630819895584,-13.20471300340422,-3.7598096089812794,-5.370754392716961
50725,,-14.92630979829044,-3.7873045730800095,-18.52041361754853,-11.531043878940764,-10.681959681495131,-10.858243118111805,-12.93956867754424,-10.110128204138473,-8.583598583422656,-8.483489239887534,-13.694303062911109,-10.77176456693689,-5.063073881994555,-7.455950788705894
50974,,-16.32945784996975,-4.94046543430327,-16.278465271823915,-15.0767663054157,-9.536010600235016,-7.411212062368497,-11.09941912634092,-8.394524269153559,-10.662253141079226,-10.964325587870524,-15.188062591020424,-13.531864438516326,-5.7679006867499885,-6.45360929833584
51224,,-16.577996914611738,-6.776439364293455,-16.57573978161202,-14.745370640096889,-13.622108384853972,-8.405228446111424,-11.79954302191832,-7.181728853042039,-12.110006185917364,-13.207285394063604,-13.281176896984238,-13.471361256162972,-6.957392058162281,-7.551669499018189
51474,,-14.120710720664498,-7.040049705712916,-18.078798648275352,-11.28235250504931,-12.301404789962032,-11.398922340024033,-13.94119768456072,-13.144254436668293,-13.23283044734451,-13.59584986163837,-9.942095283539343,-12.620363684434054,-5.554281984001324,-10.63644051363263
51724,,-12.232097257597804,-8.201922378216691,-15.987990469680648,-9.58086258336458,-11.751233319119818,-10.107470405686067,-14.290424613672814,-17.54453524178281,-13.924346571128352,-13.47837094606688,-9.69686207452494,-16.44428198510306,-5.472770742851659,-13.018213896410542
51974,,-9.649092161608564,-3.5093911073839386,-14.179205383429183,-8.789329590831013,-13.758173063346913,-9.698460525648924,-13.497895756174607,-14.01029311510185,-11.331340593198254,-11.017360539414623,-4.056624096236398,-14.846148117185002,-5.816216242049204,-8.193049171355932
52224,,-7.962285278554547,-0.6338418372427268,-12.584698407655656,-5.4369575478299375,-11.482287700117253,-10.350729927988429,-13.36839264644362,-10.4240548814172,-9.729526386383444,-11.55325194769963,-3.297793918212886,-12.14725313488145,-2.430757722128843,-3.5641530881113237
52474,,-8.53624153940071,-2.7515859961048776,-14.949657494977124,-7.51887863520821,-10.946582890705546,-11.1554438261956,-12.060234573423784,-9.475404694299918,-8.790408700187808,-7.8558823024579585,-6.734624424752335,-12.841998336287029,-2.729681046757661,-3.9656415080443583
52724,,-13.080288599611215,-5.724172605912708,-17.3793061717215,-9.554730474502644,-11.62014609199379,-10.457650480686857,-13.496576447067843,-11.157239854800896,-11.364334409818792,-11.192950977975178,-10.640827634979008,-15.66595234540286,-7.657692086807422,-5.094222616124394
52973,,-12.768920354780526,-5.390391971125248,-16.52455947396909,-7.64340837938077,-11.426210518893338,-10.383357117951286,-15.846235864396297,-15.919916951337951,-16.42273039540937,-15.01817661088875,-11.911138375499856,-16.29645873874618,-7.245180475243452,-5.977755790005635
53223,,-8.567112832134804,-0.1271230013444168,-17.915559037143208,-6.346239352851541,-13.774571464133118,-10.102851875264315,-15.146709956765488,-14.336860830153777,-16.370598276716382,-11.831759099672652,-9.398369970169597,-16.319429522015025,-4.984008564301192,-3.2544697612443323
53473,,-7.866918057767405,-1.1779314458058745,-18.20702321422614,-7.998019294456903,-8.05566302326797,-8.917280947235641,-10.345991126670274,-13.965718740010804,-14.79852030235672,-10.58222654075456,-4.618189345599708,-15.374627707932362,-6.375479416520604,-2.048583231062256
53723,,-10.1679336545121,-2.194089232729364,-15.670867155446548,-6.891519746348502,-7.631711972667365,-11.968668466769882,-9.17678619857037,-12.55739433352786,-14.17597584949519,-7.532822460018341,-3.0521871299084715,-16.217426960471972,-4.883767661397335,-5.539243372817167
53973,,-11.361923928907164,-1.4267596526137236,-13.698442734019896,-4.374499025543702,-11.431805600722516,-13.12976564930124,-11.358965138001633,-13.13888806764318,-13.05309338898509,-10.215488050582351,-6.459573654734174,-14.89941107179628,-5.222691835357994,-5.5418008931639084
54223,,-11.034839826436045,-6.3154288334102215,-14.614528999495988,-8.100231503609411,-14.59553765066822,-13.676830319450218,-16.001858796392426,-14.671534035813956,-11.983324072070388,-13.55119790195952,-11.054431706768357,-14.849321632803344,-4.99309859712367,-5.83394118260899
54473,,-11.00023029677114,-3.3952529866329395,-13.432385875929532,-5.229588976825226,-13.04171002589954,-6.192772911455446,-12.192437822695526,-12.99959824239422,-12.491811765672264,-12.093417915775149,-6.712198589846641,-13.283059376127769,-5.823678414039141,-7.790697390507217
54723,,-4.998208262268221,-1.8976082217600727,-13.98313019753719,-6.987448418702807,-11.493066689260576,-6.515405587039011,-10.336505735632205,-14.761304337705452,-13.067176787745016,-7.756118329182058,-0.649585829349484,-9.076383915161708,-1.0361819925050966,-3.1193437284411223
54972,,-2.8765049701804037,-2.1509632322567587,-13.489721904037296,-7.401190026302603,-8.886135171358932,-10.906339356923093,-5.831259982664819,-13.698169992498956,-9.710082300614555,-7.834820690174866,-1.171901120278608,-9.354099513346894,-3.014069340952532,-1.2339490733348466
55222,,-7.440352508943229,-2.545225166390044,-17.717745932794188,-9.726858857117051,-12.915898678543288,-11.970643918690424,-1.337393129141589,-12.7441542627129,-10.890090882904296,-11.87777021375596,-7.253320219874041,-14.274824641614082,-4.059222611547532,-3.839711666923971
55472,,-12.10705746187063,-1.0952183067992496,-18.96945610678744,-9.38359781671356,-14.894028562160448,-10.255372457922508,-3.9503936110973257,-11.074737200408451,-13.12825011277724,-13.565224991126705,-8.55938039252364,-18.62741049405432,-4.968620710378234,-5.629117316209053
55722,,-9.663249060468122,-0.407108263033926,-19.34927448721598,-9.905890907888557,-13.201802956845386,-8.492433645830197,-5.827401424682842,-10.356403554929493,-13.187120997861486,-11.733248961763412,-6.596820233451978,-17.855444284503715,-5.071090271784804,-4.3493010643483565
55972,,-8.443187601775852,-2.402560035883244,-17.896816120268387,-10.197341830748805,-13.515148389510694,-10.404664429076282,-10.228137580270648,-10.917079991581945,-13.779977506467016,-10.388542581612386,-4.5361519511208765,-15.328081468096723,-6.782128671951419,-4.4575563330524135
56222,,-8.395640132750339,-4.185691412070815,-18.34253810140359,-11.41340522897615,-7.8380433745688975,-14.283641501825786,-12.306475752419834,-8.763802349526838,-13.565095238156797,-9.311200706795848,-3.603450737519463,-13.450258336258724,-7.660505603351898,-5.55404099538346
56472,,-8.397413653702923,-6.497456568684363,-18.82989360276556,-8.875694746668293,-8.51310874984954,-14.991247200204578,-10.00214779335164,-8.296344206986012,-12.357138456879952,-9.787525943409117,-6.428403683507376,-14.174800079148898,-4.681882146589896,-5.906585516213822
56722,,-9.919724096414198,-5.087037079870874,-17.107163050120636,-7.544778795338781,-14.420664112722491,-12.60025268547812,-8.499249537433638,-8.657168449755677,-14.0227873753712,-11.76641811962786,-10.172809372380703,-13.515267737132522,-6.8788330983068855,-6.398770408252518
56971,,-14.432326700480443,-7.172524095597295,-16.026711639741883,-7.350287424747145,-16.1659747666282,-10.208023517192512,-9.681108232067356,-10.071848784299826,-15.89855842251888,-13.1329459686118,-9.108710440442888,-14.542175797732426,-8.897521151164664,-8.559688858241296
57221,,-16.360489521058923,-6.594437538315877,-15.17462924835214,-11.69443103683114,-10.941480637781176,-9.80548486330407,-8.079985714564044,-11.79652144703667,-15.228656108125914,-15.559624711652912,-10.821070038830197,-14.636881599454131,-9.989837434206784,-7.071219144257915
57471,,-12.725040797126894,-4.0952491377677775,-14.452662884749836,-12.619691404328863,-9.824922281735327,-8.878818445880798,-8.99695850647885,-11.866581636548249,-15.42632195920832,-16.948683078689818,-12.59774756262518,-14.750800482808735,-7.602587051118243,-6.492856282954231
57721,,-10.217386414814069,-3.615329646401801,-14.787786301910357,-10.764975668046503,-9.480247308416107,-10.318418713725002,-13.916072328126296,-12.04438480494,-15.191281978039946,-15.836627726912091,-10.680885054407264,-17.555222535464647,-9.423083152783198,-6.071971680798564
57971,,-7.456550259979071,-2.6372286755610075,-16.460260483891787,-14.85704534694671,-10.646226541341552,-12.414989183744495,-12.30017589057506,-10.786535559080688,-10.229892699175862,-15.21002484775237,-7.716211447345928,-18.97751250056437,-9.299549652433996,-5.13600844843876
58221,,-10.667268557281345,-6.518517095587089,-17.090989285631697,-15.634492598594194,-9.980587736038729,-10.400997757961402,-9.495509042747292,-10.817896417208573,-12.096347733451209,-15.956105633280238,-10.795519709907262,-18.4204998161106,-8.571678327160802,-6.733596153489078
58471,,-15.441140327168252,-9.88540915204982,-19.565232670536787,-14.214526356467571,-9.52313475577968,-11.58168896730216,-8.814675927252305,-11.786200370875171,-14.413701613792806,-12.896981765108412,-10.751842276649803,-15.235196808785442,-9.857901970903304,-7.58505837980894
58721,,-14.908458450488297,-4.909956817735121,-18.124251194337376,-12.78841181900126,-10.418295921135972,-12.904461883965492,-9.266192719608783,-10.31126065952263,-13.7813920387668,-13.258854651153444,-10.687824306037502,-13.091425916682466,-9.527068619867524,-8.02999586705868
58970,,-13.48492410158598,-4.609356032684583,-16.290864615797616,-10.53761357610675,-12.084134797968971,-12.110897574096096,-9.582498334790216,-9.460941457746102,-15.200235932870266,-15.4140893740729,-8.985439480640645,-14.10716470807815,-8.855186580999616,-10.616705009701889
59220,,-11.393522426105369,-6.242992014486235,-18.727411503250018,-10.474152635266352,-13.105152967312424,-11.915737231203453,-10.10192153080741,-9.363935204775728,-17.17344873844254,-15.834827661306806,-8.057141350624144,-17.78618836475584,-7.218917720583687,-11.168484450242886
59470,,-12.952485160691651,-5.035505661388944,-19.426359673972968,-9.07523394932511,-12.218056926319084,-12.061408427147152,-9.501590029658177,-9.829501759340744,-17.816092859945662,-14.859069999670016,-10.320080130541545,-17.258337010064157,-6.9692018119004295,-5.297230642285902
59720,,-16.062444626049718,-6.709849997987243,-17.343386688295485,-9.220818438908893,-9.465019081783062,-9.347567850897905,-8.757441085659563,-12.733592932574446,-20.608890505816145,-11.33918427059587,-9.70524122649125,-18.01427269344382,-10.977697208191543,-4.50941199073852
59970,,-13.096840269573503,-7.17549127379458,-17.778601748779742,-12.237469458945236,-11.090247707662016,-9.744333736789583,-8.792660534862417,-15.120716757011111,-15.932529177504284,-10.80386626314317,-9.989100947213206,-14.076600793909444,-12.41578743467418,-6.271877597106741
60220,,-11.292189810636716,-6.691304609518181,-17.862189220896344,-12.362803442362736,-13.650887403352003,-9.921148565042143,-10.65733406090793,-14.956144493362908,-12.232789974008211,-11.302215274252235,-11.504641375131834,-14.059433692824705,-9.03233806282438,-7.025534598553999
60470,,-11.076599791680556,-9.072166209403868,-18.454110549755036,-15.14154370746488,-10.145780394312142,-11.334831352640604,-9.862188740895991,-16.787841318139538,-10.142370298793397,-11.557478180516425,-12.586885477005254,-15.953094399754743,-10.470898447113983,-10.150501996029282
60720,,-13.15367731234798,-12.959190178719703,-18.59993592975577,-14.533863098058973,-11.010557425669134,-13.79556131479189,-4.546271411572279,-15.228233106473484,-12.043355564523566,-11.727978510267034,-11.57440052058548,-18.622531223552777,-12.421180482905733,-11.11675163400886
60969,,-15.871625108129,-12.521397705383164,-20.418002220586647,-13.080039373762954,-13.0950757586185,-12.230571561840836,-6.854512113067825,-17.092007852190694,-16.827427704230548,-13.742649871107924,-12.01074378213068,-17.839415743933234,-9.033765705863845,-10.6536427089629
61219,,-14.54236021241056,-11.050006206068073,-19.32823393490056,-14.984960597355066,-13.26914080244961,-13.071501405796525,-11.99276101956416,-19.865008168387927,-12.92284936066267,-14.857430779977292,-17.72689784057799,-16.502587861471202,-6.386352375394289,-12.850614606052453
61469,,-9.394010658181973,-11.77030889648284,-19.57834848621685,-16.033987816696854,-14.037835013141455,-12.240500477360282,-10.672269134991684,-11.030314005597422,-12.941599973279011,-13.75411931541488,-12.851046956864776,-15.917195255381351,-9.15121544500822,-11.28711839948745
61719,,-10.358522479523074,-11.241667795144217,-16.704711461589522,-14.626351809808275,-14.329764129331776,-9.452832226674706,-8.848032119616754,-7.4206457632316125,-12.833901886424668,-10.254480216715312,-7.677861107054382,-13.374765648315496,-12.123824391796456,-9.888163074715274
61969,,-16.062216178927056,-13.933871645658336,-17.01109230149964,-16.7316776310053,-14.809828539692852,-9.272128044212648,-9.171436055957733,-8.29551158689517,-16.930831344565892,-7.914847030952995,-8.990812777403152,-14.591922900461336,-10.760199915390825,-8.086520841183996
62219,,-16.099624909524547,-14.259809913120344,-17.19070343081278,-17.578807655372522,-12.297945823867504,-10.026095268262878,-7.985891346185846,-10.10848818788854,-14.05190023005652,-9.985747503377215,-8.775398400934318,-15.342361653804767,-10.792180064854383,-10.36774213069859
62469,,-16.594089836921675,-10.341564813122886,-17.026423675860794,-17.363735996364667,-11.11164606758078,-10.385312902854134,-5.553021419634526,-11.926498247686206,-11.725488404988017,-13.929813966412766,-10.184204344108656,-17.614448130929645,-10.603601071823189,-13.031221858614996
62719,,-17.296859381471034,-10.90885006129552,-15.671252231239368,-15.963920120827948,-13.27090710227258,-10.040400618959955,-10.161992285103349,-11.63276157916366,-12.588944073821736,-14.79076087902198,-8.62019675819002,-18.109792316714884,-6.421970903666558,-12.695960011027063
62968,,-13.79952430850388,-11.478900335600056,-14.184502717115569,-14.353372980441227,-11.827929862006698,-12.217864090563175,-11.08297702959474,-13.224605126729267,-16.334681682968423,-15.741734366719026,-7.290032943891644,-19.44238773545908,-6.042220361195929,-13.8266670526957
63218,,-13.880695140267358,-11.77366125546492,-16.316167354913777,-14.874604533547322,-11.003916868634567,-13.591797957832668,-10.100792179158825,-15.507897233387888,-17.660453572711045,-14.687443399852008,-9.826207687199224,-20.118283100462104,-5.5358345168038605,-11.827311258010404
63468,,-16.099982824054653,-10.566026462424777,-16.221762681273464,-13.64056539275239,-10.010900672766692,-15.854103831914744,-11.172207865714215,-14.905181170596585,-17.671576603877416,-15.098434807740126,-13.229688674932646,-18.470763835518103,-5.0022592368852425,-9.5944046947207
63718,,-12.524535095028517,-11.99193163986964,-14.945540468537608,-15.497204734178233,-10.785028476517294,-14.989588383775445,-6.29433141823009,-17.307759241455546,-10.942542850375496,-15.150106877740528,-16.0185211568311,-21.30254453367478,-8.114759274158555,-10.45848388407132
63968,,-13.152660529295789,-12.553265340154953,-14.665674476212194,-15.12021670960368,-12.377488490843474,-14.576126370810062,-4.299288741554131,-15.167567687555394,-7.511273280518979,-13.07649428989954,-10.684294664316903,-20.30845491004935,-8.84296369093937,-9.76680186925723
64218,,-13.790639198858186,-10.368568064508295,-18.11295120925329,-13.265192569879376,-13.007659933601508,-13.628543763364831,-9.966016487215835,-11.137631977434232,-12.58358186151906,-14.023250483082158,-11.83990766363288,-17.371301298034712,-6.283301415547737,-10.892880131169369
64468,,-10.639760735082644,-11.699550568441593,-20.103624989780712,-10.699044756432,-15.496084692939858,-13.82471102479518,-9.249009741583151,-14.77655520917631,-15.326108982905364,-13.543534172925089,-15.365114093871032,-17.688220996215698,-8.859057174342656,-13.812745496743457
64718,,-12.67247561670053,-10.575666123399902,-19.06513033203732,-13.151925881394352,-14.373367929344791,-15.385332681209466,-6.171178713393298,-16.292295920548508,-16.31015373594011,-14.387682045162544,-13.359169987511097,-17.156716087291578,-11.574797608009856,-14.736067391013028
64967,,-14.23089750260045,-10.388860083293473,-16.886384130220883,-16.163515003726562,-12.924993112449815,-16.1984046782429,-9.212862017769222,-14.893192933137373,-13.311432543232549,-18.441037495385697,-12.62653593056468,-15.243433516622606,-9.350949430232657,-12.819754673580078
65217,,-12.522588121751564,-12.0761129337398,-16.50084457107758,-13.15018232050532,-10.348443638006582,-12.405637496854393,-12.178447692844443,-13.294519987896209,-16.058800189972107,-16.323072645134918,-13.933007546102132,-15.492672928163929,-12.339204163213402,-11.563812395475477
65467,,-13.931536904556898,-12.064711039769724,-22.546576147168388,-12.7906435523355,-10.802191606244522,-11.52993026420094,-7.652276403932316,-12.154134050300335,-16.614085030365185,-15.114103329880946,-11.7894756053973,-15.190274983591198,-12.910642809255757,-11.171036707785806
65717,,-17.85510806207709,-12.896227741872542,-18.801225020408687,-14.170735565350798,-13.804280136969162,-15.238016213621354,-5.039369390679926,-12.732955137423618,-14.346280334332915,-16.644021056874266,-12.38789370063338,-17.599119622824805,-11.172145594763323,-9.014387352921982
65967,,-10.964139591443802,-11.760953873072491,-16.674877964822418,-12.651107299514395,-10.76343112917055,-12.642092486985035,-9.6216287693077,-12.653962895232931,-16.190179581215617,-15.571271104305104,-11.133587959373449,-18.260216947794994,-10.738920634375592,-8.513218845697018
66217,,-11.437451126195617,-10.77502560282058,-16.75210629406893,-12.666210680042004,-10.890162591193937,-12.580088993292511,-15.548494255914918,-13.62769128458618,-20.83853734173251,-15.598025898192006,-11.150244033578495,-19.036796517261948,-15.209718072795786,-10.57888846123265
66467,,-12.035157247949162,-7.661663734555915,-17.045253084823678,-14.273676307320605,-13.789874102544982,-15.31832532259017,-12.249599232327196,-14.300086970658938,-17.669375739758365,-16.52462858531868,-12.517733039461048,-16.815561802223513,-12.572241214576358,-11.10526763905958
66717,,-12.424797064383588,-6.922054711212711,-17.754039517408142,-18.227411879509084,-13.824094719213251,-14.185263826822192,-10.886873471649285,-12.211693242871998,-18.09467529729833,-16.333179345583616,-11.239844681330426,-16.340517656658665,-11.466183646922564,-6.366722562936519
66966,,-10.992018557007208,-9.96825640379426,-18.059791844495575,-19.228647119564705,-13.733871097783066,-13.180080421234894,-8.942512106386026,-13.498564312908083,-16.325985673307706,-17.52724632455733,-11.023659809342147,-17.449350338509333,-10.96517262540775,-6.828492674787087
67216,,-11.33753421870032,-8.87461483595459,-14.936324588641508,-17.45302960382148,-14.04487651816861,-11.020229177606282,-8.87401236783684,-13.555348758678315,-14.719709574139454,-13.30964342088031,-14.04600853489502,-18.258723803433885,-15.015913932608107,-9.098342095544096
67466,,-12.987377034393385,-7.086841828100078,-14.790760003283784,-14.592507345646888,-12.464214139871633,-12.71645147798074,-13.385217048456514,-12.672220101697365,-13.12125408316058,-11.739889382624597,-15.212260154536406,-15.479819327158648,-12.605329846572191,-8.813908363153729
67716,,-13.252635342709604,-8.020032190061613,-17.106284043720116,-13.499475102024672,-12.978939790373833,-14.121379318770233,-15.393813744754285,-14.940711509991935,-14.986983898704231,-15.235579937028923,-15.557444437672356,-16.075146431632934,-11.390916835032092,-7.787578485991663
67966,,-13.37223319359149,-5.295578710879283,-17.505079423561916,-12.297840007143776,-15.477503782846089,-11.684553702338828,-16.051856263123778,-11.461228596079485,-11.211851742221562,-14.11846552112162,-14.80317437837228,-15.487881183579892,-13.429755018162927,-9.935159815802145
68216,,-11.937780290374532,-6.661415168074788,-17.8047006379941,-17.19306723399434,-18.414045410061608,-12.300800605541433,-14.675936807621213,-13.173250675568244,-11.628929829404877,-13.41937174719897,-12.274288276917344,-14.855687605901284,-13.300710571296744,-7.707410629011312
68466,,-13.601792390935756,-12.476718245845149,-18.729839483888465,-14.0542129427442,-16.927068527330555,-13.701210581523158,-15.207001890558065,-15.464735563853749,-14.6741882090911,-16.219931389374317,-13.510560781031977,-17.914203594874063,-12.672315829355536,-7.2346436141434864
68716,,-13.898859038457251,-10.797287326535518,-20.061765136263723,-13.718777641122184,-14.399280038032645,-12.91585867404578,-15.89666047509654,-14.939466850663658,-15.249176604659054,-16.23649976823498,-16.112945713114517,-20.821331625930505,-9.609684138061972,-9.39149474389605
68965,,-17.142414524260023,-9.216592747405782,-20.83620887775549,-14.571478205236424,-12.965521372071144,-14.461956609035296,-12.33851280962313,-15.62045686961204,-17.743171183817765,-16.28594636483283,-17.589441878593316,-20.92648821726783,-8.329084190687155,-9.647604689407109
69215,,-17.192811910704165,-8.177368170242428,-17.265951436608663,-14.5674223324486,-12.023839588229972,-14.455812231649698,-13.242926518897924,-15.669749783203663,-15.792697233294655,-16.56969173283201,-14.872821685880291,-17.74152716973941,-10.322145493338116,-10.314732916764411
69465,,-14.116305393829908,-8.165902120506887,-17.71315189553809,-16.67878128473694,-12.860256723763449,-14.906416076119832,-15.825854054540944,-11.896559529584636,-14.816502663320607,-13.16203494038604,-11.86480027972062,-15.539489186708051,-13.371730633074652,-10.197485110988664
69715,,-9.130083832534789,-8.294980638449477,-17.714132924658124,-12.686761094450652,-13.521060643690044,-16.48484306522796,-13.70399411264764,-12.968048967382057,-18.06715680091152,-9.996832693179265,-11.952513006712785,-16.13663624069867,-10.081793949444508,-4.90224491876306
69965,,-6.676771333392342,-5.200441551308331,-14.42207686165789,-10.27670344180356,-11.31074471608887,-10.325220635289728,-7.492442023662051,-12.757501242699574,-14.727186122603497,-9.026853946983662,-6.68367175201041,-11.563128758322517,-5.49502677294479,-1.3999314785198105
70215,,-5.053568062110346,0.7791464182203902,-10.772637693643222,-9.21932312925344,-8.662434660671805,-8.664939747392841,-5.02699704890084,-11.833382981185244,-13.31034393557366,-10.149242586716344,-0.6203036874213039,-10.30283027711896,-0.2266762617003885,-1.0414896884691769
70465,,-9.948503047980909,-0.6411359164892709,-13.804307707949455,-10.701550869027937,-10.381062150229551,-12.622115188760477,-8.863762321575665,-13.396294911340313,-14.33270308930765,-10.04640801755317,-4.496246716097183,-14.514514251803558,-0.8290131833416523,-6.279732183396835
70715,,-13.988566893807484,-3.0427471973426776,-16.5490040179187,-10.249511934040466,-11.93384075526794,-14.974406624760388,-11.07227463287579,-15.837287208560442,-15.821956078966576,-9.765023499360916,-12.055078423094088,-15.364159604809815,-8.262379875917034,-5.583090644393476
70964,,-12.4614692184909,-1.1877819925180877,-17.279065397522523,-8.607108978619316,-10.63652882965815,-8.994767687791406,-8.30683639153341,-13.66689406396165,-14.30314272483755,-8.845987814140331,-9.111892040922989,-17.39833223062641,-6.844392133152989,-5.108911528424694
71214,,-10.264802430752828,-1.4797911391635064,-16.41907544642152,-8.435777672745381,-12.059562842522684,-10.097674453582446,-10.48643033468698,-13.356862729318095,-13.48266577284642,-10.016673852341375,-6.636283901767697,-20.75618202679847,-5.984072115270455,-8.399560593810838
71464,,-9.188605369297438,-5.27574997484707,-17.365629831392898,-6.951369953021384,-11.418883276377752,-10.621541756303747,-14.355006691745915,-15.650160314196732,-14.522617333923566,-9.43908054503743,-7.615238148305993,-18.71110704465284,-7.289629959379878,-7.962324071102645
71714,,-12.438823681774268,-4.451340576687542,-18.087781624322304,-6.488551765221631,-9.7269392580438,-12.318742702192829,-8.99891764935809,-13.762091693331463,-15.830323821261434,-11.36729230367167,-6.861115405407244,-16.467339919178507,-8.325081124026436,-7.71999165419256
71964,,-14.812064165930368,-3.7046130847171415,-16.3464290192061,-8.299146002778274,-11.479629970077736,-10.388721496749866,-4.3742640980428416,-12.458096901011553,-11.864077825036324,-11.913313290904558,-9.035585450765868,-15.169531779540517,-6.785099523602879,-5.926316650139687
72214,,-10.636088169853528,-4.541683553628446,-18.182937400414914,-10.78898380102872,-13.459036438502045,-7.945427951024261,-6.716050025786742,-10.375798550781797,-11.912263567887855,-11.58522689774764,-8.992729351670862,-13.294689505566328,-5.342812253739898,-7.713772088239265
72464,,-10.06035462728345,-4.3289290355130525,-16.116675353748168,-8.54391188059795,-9.153609388241607,-9.268743647503412,-9.334731832644437,-9.876787324276634,-11.9543688452688,-13.767586192872203,-7.663676201464883,-11.937174613258415,-5.743605819552484,-7.632149023708033
72714,,-11.299371938076415,-6.065484419663837,-15.159687390004516,-8.988854716871526,-11.537967840787797,-12.94162386761334,-9.892327493306729,-12.074209780876714,-13.984382163079506,-16.112783506453983,-6.380931546189631,-10.336407568904416,-7.065014838221721,-6.65850704869224
72963,,-12.965584238081425,-5.854345112950686,-16.82260570607176,-11.014412408828193,-12.062278126247714,-9.0917830277374,-8.08570809767676,-13.538351382661236,-13.793653877698455,-15.739563714171355,-7.967058545850715,-13.889551855247294,-7.286822536379778,-8.312004336221325
73213,,-14.07425676008571,-5.087539084056313,-15.507835521766536,-11.999193345792374,-10.128951117017138,-9.611309700682376,-10.784668059394187,-15.492707572873458,-13.72536932325971,-14.652060553896556,-12.167424491518611,-17.132686217034706,-7.676778183989383,-8.886547301792593
73463,,-13.664238579413864,-4.4249020429405785,-17.495980625799564,-11.524676373880132,-8.686050662782694,-13.056948297386535,-6.481027279995352,-18.32682606560836,-12.939627880683274,-13.497879981765893,-12.375176226541898,-14.962367592928068,-10.642172442258635,-9.242156102631562
73713,,-11.64008874297294,-6.205609996641686,-18.672519603963703,-8.88485390430592,-10.629331962090214,-15.990885304080322,-8.331307109538495,-14.476702898745534,-9.12475079136608,-10.493273717212867,-12.023176537567352,-13.340047390987715,-9.228701261486032,-7.360474062719968
73963,,-10.846623113461174,-8.47758484635776,-16.02120036696394,-7.691083739251391,-11.085220831914253,-12.757209175457213,-11.70983170041337,-13.466324355992402,-11.285472379013278,-11.778494091316183,-12.754988656310108,-17.513291709489643,-7.3616730799959775,-6.114188366090215
74213,,-9.365689993269768,-6.367862946222224,-14.764827258044456,-6.083206732460199,-10.599328237497833,-7.279226347450043,-10.713670184018012,-11.309341639000364,-14.866243915329605,-11.465819277805078,-8.117947807768871,-16.283836568554513,-6.97871863462114,-2.9917967941091987
74463,,-12.581786603748276,-5.381587422138469,-16.70375864187796,-8.443216030679636,-12.131430107342364,-10.666982761862254,-12.00732223025044,-13.139690764593157,-12.597912732200982,-13.624988944434474,-9.029370763498806,-16.21751813773583,-10.12778371734826,-4.56954541457963
74713,,-12.356413292524762,-1.9860843626574656,-14.52217974187554,-14.51039483950102,-11.141751150512116,-16.090682327687084,-9.41585960546868,-15.064472558164711,-10.967183491923716,-11.325007406345382,-7.761525924675915,-13.861353083636631,-11.724161696509125,-7.09721013928116
74962,,-9.115026410374362,-2.500328782930357,-13.418350432705644,-12.513815124605845,-7.999750100554552,-16.707561496765557,-8.05575095565026,-12.935253131407949,-8.454146851102188,-11.545009167442872,-5.008614609177988,-14.042878172866754,-10.704365695822911,-7.025699231061768
75212,,-7.178268834758921,-3.6364922363839103,-12.80690513176318,-8.91168106938553,-11.479764506510064,-15.421717306475562,-6.869115285421445,-12.327552846142646,-7.952543436514727,-11.087847573751402,-8.153004330923002,-15.85384391099388,-8.957526074000539,-6.2402768265143
75462,,-9.158273408561016,-5.739795891587534,-14.984192430169491,-11.957674724518537,-9.596719705684288,-11.882797446368738,-10.920835402116204,-14.159424284699371,-11.294958866588036,-13.09236544820806,-6.685095064583119,-14.479613396750972,-10.884297579610484,-5.563685912729111
75712,,-6.48234737001646,-4.673065776847903,-17.178955691760326,-11.675289390047872,-7.6182091890317905,-7.845795159542879,-11.756020539212654,-13.280340945867316,-11.403104757780106,-13.072350562319611,-4.529711358344551,-14.52950061097162,-12.758953568426698,-0.1471522866181167
75962,,-9.745504941025102,-2.3379844270795336,-17.422227246211257,-4.610066153551112,-10.459318765491572,-7.931093905829445,-13.341677539283497,-10.512437693553547,-11.419358831697116,-11.193718766463869,-8.853781127808173,-15.786040229191258,-9.55437022207832,-2.8075844382316077
76212,,-10.556566537756009,-2.551287462604336,-17.07694854151995,-2.150515021231656,-13.316870688270068,-13.515238221395474,-12.599609409556267,-8.976937971434696,-12.710491525282714,-7.465701956648769,-8.587976860028927,-14.061767173238684,-6.861660349263464,-4.045706777186019
76462,,-11.302060460379073,-4.704697841509925,-17.22511014863293,-6.380124314621627,-13.552106087909214,-13.129669198569996,-11.555786212964993,-13.256227964432185,-14.068024231393633,-10.553950117689414,-8.377572669846028,-15.105431011856195,-7.428313658962206,-5.913363115101554
76711,,-12.297383907356783,-4.1627149286730605,-16.040530819481802,-6.646720518525358,-12.631710537005777,-14.464631310740998,-10.654860192735216,-9.856079011220992,-10.403818150188917,-13.317752885919472,-9.996306533305614,-12.80335597806635,-7.765252889588018,-4.941657603148568
76961,,-13.947797812002351,-6.058980113619496,-14.446022083122443,-10.026956512554076,-12.894230420360252,-12.988551401264454,-11.970820003603947,-12.453279994050265,-10.545775731037232,-15.570846196205686,-10.398333433428393,-14.919585546357297,-7.944496165916091,-5.535106492965449
77211,,-17.28292478852888,-6.834893566655531,-15.447828371086532,-11.4708574103498,-13.240828757872569,-11.22324914507085,-12.868772721255322,-14.934680971502283,-12.44168000035546,-17.1136339954255,-7.438586753512433,-18.501669823415337,-8.882823950155728,-6.394145058434718
77461,,-14.293525990514972,-6.373229521893466,-15.231668738608157,-11.235545389712776,-14.948287682307624,-12.686151216649211,-9.657078772391642,-15.728912503036394,-14.083010141016045,-16.635402059256037,-6.96614736352843,-18.03242965404105,-12.521747323386576,-10.41923576322736
77711,,-10.441923148350703,-5.320835896440506,-16.899999403641324,-6.597929700398444,-13.13935551300403,-14.459794772845328,-10.458011054527878,-15.902883135040351,-11.764512440490993,-14.812036254055904,-10.45276833001324,-18.071079469200853,-12.511272334486932,-7.426402868504198
77961,,-10.965335301877271,-6.41002347839664,-17.1983822902982,-6.061825662839224,-12.775844002419134,-16.518823056541386,-14.174478597504372,-11.88081513777891,-9.585137247103257,-12.563797532410184,-10.27244487773712,-14.704136982114214,-13.713268599569163,-5.280447525108436
78211,,-16.07114464211232,-3.089004025362815,-17.21931300528717,-10.991453321081366,-12.573748915771263,-13.647156433513244,-13.228265573914085,-11.329869678237902,-11.08550155445112,-12.617426641971235,-10.713623719758557,-15.780967286747236,-10.646440385278716,-5.889342077467513
78461,,-11.08211850944883,-2.405014722993495,-16.57953916057836,-10.94843142355272,-10.895739292082354,-14.04994740240362,-10.26963502701924,-13.447915245175643,-13.015966416113873,-13.622648550534224,-12.030852657641194,-17.13263391861912,-7.103307979677085,-2.2873337727436462
78710,,-11.284935386430314,-5.3178967947235645,-18.13165000610867,-11.804016635307985,-10.93912849620461,-15.709982036968828,-13.583331786268378,-17.794569735115804,-13.860393652494905,-15.69753869977956,-10.780758202597909,-17.134552803473238,-9.108249862974889,-3.610234359369081
78960,,-13.514325279372294,-6.030790209354046,-17.312454598170884,-8.409565288802593,-12.327058049541606,-14.747976619555937,-13.247352363235663,-15.933405840184996,-16.787187448772535,-16.588574194816857,-8.925747280846805,-14.946307259862916,-8.520571883883193,-10.075986141126798
79210,,-13.899327089819744,-6.811407741777076,-15.519913114423264,-3.5437188114277838,-10.414627599760664,-15.29911391745028,-14.176656123047074,-14.585813295886776,-19.073342413684664,-11.315089093546169,-8.569413496716168,-15.931088423308504,-7.231609555964299,-7.084513801789773
79460,,-13.860187068798265,-6.380027711986617,-14.94856376391473,-5.487599624975015,-13.600934687942136,-15.268869047199932,-16.75645416339413,-14.88746319973713,-14.98286268696032,-11.295051200865206,-12.726644943670344,-17.377208129527514,-8.827489798486114,-5.848611906827907
79710,,-11.294143216471596,-3.98908893615613,-16.779948709592592,-7.153189699487959,-17.00246939091111,-12.575957691700513,-16.793126938565898,-14.140119406197336,-13.1515978501414,-15.3087099100408,-12.85953280031183,-18.455352102727907,-12.746578850504998,-8.39863505845881
79960,,-11.53242624040237,-1.901600684802843,-16.594906570346787,-8.878438797594324,-14.410105550739218,-14.126853699608418,-12.081487984025063,-14.270002474385224,-16.302503773405974,-14.639827268246108,-11.543027249161568,-16.157794666198242,-14.20181193296913,-7.208120749858664
80210,,-13.75257101996501,-3.5960775724726552,-18.82680554009162,-12.989506511727114,-11.75411319873592,-15.523758493007133,-11.895898466904558,-13.36815257694636,-15.483011478658074,-13.760560232779136,-11.359771230347338,-16.276671436331426,-10.681145595070756,-7.475743554658161
80460,,-9.137558290198552,-2.999063990588082,-19.14374681914409,-10.833158381181876,-12.225161575226204,-14.075163857924062,-13.674285391063863,-16.61176996221306,-14.075150305773478,-15.277115962899204,-9.96686771422935,-16.063154669698584,-8.935865665943549,-4.802954960584872
80709,,-7.789737382610974,-3.1887419179312397,-18.55923220462772,-10.335009974501553,-12.139733104756228,-11.01693575854137,-14.767913414056792,-17.415319399447725,-14.816527926062813,-14.257592930476564,-12.20471247618995,-19.61472202835416,-11.01231824820348,-6.4514011812719065
80959,,-11.804110469562566,-6.667585894886477,-19.247162692455312,-10.275980861955205,-12.14193191300676,-10.511912658743212,-11.08465410822768,-15.304504267230117,-15.67749961463474,-14.38241970302393,-17.645565862844972,-19.3173157832653,-9.679561781961434,-7.383782167957435
81209,,-12.949523377240782,-8.437385803244508,-18.070773311605013,-8.534085179255996,-11.552253157058065,-11.08499775163728,-13.017005954418623,-16.871843650116155,-15.79377978845977,-10.262176598559384,-15.728860345044495,-17.10343046408584,-8.372665826119068,-5.098746533719152
81459,,-11.90059662294077,-7.8463908308787955,-16.658246824637068,-9.401057679433114,-13.23107807188502,-13.213853758785133,-14.420017174175255,-16.243314042288667,-14.80130312144006,-11.393267327136725,-11.593366930685464,-16.15181861336652,-9.183881827006164,-5.409984268031916
81709,,-9.722026119976912,-8.284020414734998,-15.353436783155583,-10.066130481515664,-13.621385621824537,-10.199732795331954,-11.755930750960191,-16.171530601089387,-17.532569144062094,-13.617992370274056,-12.568790839489983,-16.94257451376783,-8.764403156766608,-7.300264866562474
81959,,-11.035385585929529,-9.466576050806822,-14.821642862274372,-10.833963725663274,-15.893834221790806,-10.502031194449902,-12.26805987733826,-12.962280380652407,-14.997974693428864,-13.689847345896894,-13.622260579806769,-17.435536920113403,-12.413897058633916,-9.860085463415317
82209,,-11.649484621359294,-8.858553627428588,-15.148076697995414,-9.380557483659942,-11.778407405988244,-13.920951926557194,-13.908818405611846,-13.071317503738538,-13.772383411220602,-16.49988146620361,-13.496432694165218,-18.71200994530523,-11.411824111852765,-12.316803074291672
82459,,-11.15656705414641,-5.119994750017886,-16.019046105649775,-10.994652276312122,-10.60072637537722,-15.700270507569176,-15.213671521709786,-12.2867445374597,-14.23745176699483,-16.874268566703922,-12.120669912038888,-20.572127309465223,-11.564007448386828,-9.035913936354328
82708,,-10.322453778253152,-6.1004470026762245,-14.49187563291212,-10.385048479698444,-9.237382152503848,-12.775428560131584,-14.18072177080038,-13.075499479377486,-15.22199070155834,-15.377087317738528,-15.002660611948423,-19.424343653863517,-12.375334917070065,-7.119158240837223
82958,,-9.939219860340772,-9.160254036884268,-16.611372130753857,-10.006540851053185,-9.76380760147766,-11.386974009072524,-14.26108453606024,-13.146710558720509,-14.850322477390884,-13.63201708330864,-16.483624405233407,-18.336984366118266,-12.553998036876289,-5.706004701730933
83208,,-13.94086899791625,-6.660145514346252,-14.364044510273144,-10.318880583678393,-11.53581856912214,-12.4696639129041,-16.707075744741104,-11.08192659206079,-14.925237608626697,-13.031763002471813,-16.691868156654426,-16.012610674177175,-14.610543209665696,-8.138563807553986
83458,,-14.68943126654503,-6.3111130522038605,-13.73974131974931,-10.9926175058402,-13.814391392627648,-12.873327317268812,-16.958817618571857,-12.340477675304736,-12.276216765268265,-13.811204444326934,-13.13309674245695,-17.689529416610647,-12.362484159408162,-8.31053130412528
83708,,-15.390120942666686,-8.133546792632183,-18.855682461401145,-10.957581951297527,-12.393329279818246,-16.79868189036233,-13.331985325569404,-13.646662503482965,-11.94052124580283,-14.681358078038423,-11.991927324417896,-18.47658372326372,-14.974173480530071,-7.887905579849681
83958,,-15.112326725930668,-6.247054372096451,-16.35733072133748,-10.74047570235243,-12.405994000696497,-15.32995668208346,-12.355816302569329,-13.721647829748637,-14.307006152291654,-15.798353140140089,-13.422476623506448,-17.364307601368004,-11.359163955922858,-8.752804837905781
84208,,-12.166612319735954,-5.660740002320733,-20.05981990308088,-10.070979610046724,-14.199345508729795,-13.961954216759668,-13.300724984296371,-12.072227738588587,-16.537698412976475,-20.740416690087496,-14.29618920773949,-18.498648842550807,-9.137665060331557,-8.057724273263036
84458,,-10.75140980173051,-8.083098255156244,-20.51662223494638,-10.961884132366375,-16.592040386200622,-13.032577653690309,-13.07067513557443,-13.106674938789126,-14.578295479004222,-19.684011556510825,-14.411073917343916,-20.935910917902397,-11.615225500176926,-8.693280443287573
84707,,-12.657022806085669,-9.333133883074447,-17.66063636951591,-12.248815426168736,-15.054837485660329,-12.761341551536042,-12.49556335306366,-15.68597936820779,-14.902057975793102,-15.378749646516056,-13.958302930274575,-18.71449709901053,-11.954190651415042,-9.788034869085626
84957,,-11.836261588693588,-7.819081363592176,-18.17272270345841,-14.74654374821575,-13.749955728577286,-15.371294126520151,-15.22572494502165,-16.64935425187757,-15.959509899157707,-16.013029767652522,-16.839741843512165,-17.659691666107143,-11.69908877254742,-8.502736844360827
85207,,-12.90301691698434,-6.059816137167639,-17.426160307372843,-11.164099374197177,-13.569008539085743,-14.88144671280604,-15.837018745945478,-14.52827510959951,-14.293734287968633,-17.43555946361749,-16.533146431735485,-18.86519288853152,-11.684105724617776,-6.655740135621997
85457,,-15.155554547947252,-3.921844980699462,-19.6526965240724,-9.97655941181177,-13.439944338575971,-14.68665307056481,-12.29708311696289,-12.348987825824649,-11.84700713661151,-18.14632950093936,-15.577804811689536,-16.19938874296203,-11.538173774697452,-5.11128192551746
85707,,-12.6702308107035,-5.42158337207481,-18.76362953556349,-14.53691603546924,-12.426080484794596,-16.71758227221408,-14.601592585592073,-13.59925461483951,-13.21720631715934,-17.94636000291481,-19.12884711077964,-15.314354991246518,-12.90397904847432,-6.6157630655854245
85957,,-14.445527500569767,-6.99095948289175,-18.491342665740685,-12.588645958396452,-12.916863978605912,-16.620893838815064,-15.993307330956268,-16.97021905506981,-14.62334365452604,-15.872928889149575,-16.633083961092684,-18.72274167934224,-15.381466050351095,-6.602986381170712
86207,,-14.322529794647147,-7.604511795448303,-17.35692946902652,-12.712634948874245,-13.492462334698136,-16.252514312771,-13.285426523487766,-16.940218442052274,-17.673483861814475,-15.488240528362727,-16.822040460541,-22.111871016909568,-17.247776123223787,-10.039557595625668
86457,,-16.777281276983274,-9.134415976683558,-14.840156004936508,-14.601471908398477,-10.850728720495765,-16.04599703922219,-11.495232360850714,-17.816174639768786,-16.402337115424757,-14.870980428860044,-17.23216048740412,-20.097132055754017,-15.052101462843323,-13.267896751797306
86706,,-17.612171342316397,-10.218986291343148,-15.574967388148028,-14.941902602903676,-9.775737795938683,-16.152794382015724,-12.29445869314208,-15.74213727561973,-15.3815167806764,-13.954428569307169,-16.14465460277846,-14.791114988079672,-17.740498629144568,-10.380454505562613
86956,,-13.937080276358298,-9.691858684006922,-17.556144549046547,-19.19176660867763,-10.670481829196577,-13.109636094047888,-16.615069190713314,-15.954274025046676,-18.14011401364377,-18.239455145317795,-14.326744262692696,-16.308281997443324,-15.344779160570138,-10.36943207579367
87206,,-14.695266927298032,-8.180467999511558,-18.139568914860824,-18.65008303503478,-11.225217617704402,-16.051509134791402,-17.40911013641408,-17.89229141178579,-16.372076895635605,-14.175060421183517,-12.495897869069436,-18.529277349929487,-12.932398958106056,-9.536060672229178
87456,,-15.540258748569828,-7.458327284667854,-18.688899099137963,-15.08688328808907,-12.407606798578623,-16.781360001289837,-15.179240937706432,-16.128734037810545,-14.51505330278843,-15.097400757266094,-12.353805052181198,-20.707679971155383,-12.467479652878822,-8.16043428676068
87706,,-14.369471781653496,-7.341090822355486,-16.790063141136635,-12.21620240609936,-9.540746220980289,-14.70919309594638,-11.91120296507372,-14.917399935610929,-14.285971071356524,-14.56650431651483,-11.387465140944444,-18.305749554052277,-12.947122144768388,-9.022888275388071
87956,,-7.641135786869082,-0.8594982194080294,-12.942244660479126,-7.711515830941018,-9.687672200616191,-14.5088204353981,-9.91250376555593,-15.753186650495634,-12.914489277398063,-9.386245500284458,-2.672688976942916,-16.425659200502217,-6.878701228427171,-5.893276495544507
88206,,-4.112406472851031,0.0961181171535788,-11.903057769212133,-5.8072735161070685,-14.806719483990555,-13.780017138613204,-11.1791462728941,-13.152124398759168,-13.393758721806645,-8.422435105643034,-0.0143536794752929,-15.362273619138128,-4.03258077268552,-3.5874149558604933
88456,,-8.186605947708927,-2.482739390400205,-13.976477798190643,-6.557280608376498,-16.812982636943882,-14.505338165506728,-15.193041838221683,-13.5230197414303,-16.18103479315723,-11.489689814972792,-5.438073893651236,-16.91973531097732,-7.823402867680765,-5.123776654577956
88705,,-10.657176162950451,-5.120327454685041,-17.24766756528343,-6.781028995677117,-14.73562186075857,-15.62294974000325,-13.841989204910302,-12.636200014934907,-15.832561040577032,-10.887040993881808,-9.8637440193446,-19.358244271237904,-12.625365622682692,-5.77898227169247
88955,,-11.636475492919873,-5.323156468346008,-18.92134997677244,-8.944384152625545,-12.41494995008644,-12.476124763163558,-10.452393899381924,-15.424336946591362,-15.883371972916574,-12.922201871030952,-10.920665226646497,-19.83297059069791,-10.532339538340754,-7.739547734130544
89205,,-13.085699034841364,-7.657033713075175,-20.040808500548057,-10.111285339098073,-12.24124885502243,-13.151375891402711,-11.589550699282356,-16.152337969081152,-18.868186903692465,-18.571623619967877,-11.674585482354054,-17.63924633370893,-8.525515811319611,-8.96823675096789
89455,,-12.954933619936568,-4.6080215893641,-21.711377262893272,-11.54134922562809,-14.686275335031697,-14.558262983215409,-13.365564466377592,-15.351407274607563,-15.322504731527957,-15.894913457158708,-12.203575922238253,-18.34583485957218,-8.044771980995215,-7.417861400708816
89705,,-13.413733854124809,-3.6585383491382064,-19.38898688781088,-12.340657173277844,-13.362076799174243,-14.126770822027789,-14.721695451196586,-15.581485200876765,-15.104232257887531,-14.889183693182574,-14.448116822914953,-16.208172551812527,-9.19354450874716,-5.428416093938628
89955,,-13.740954390927854,-1.828049425774957,-14.7092010555904,-14.549803491175124,-9.488871597763731,-12.755166903197743,-13.76959254103771,-18.544814464657797,-17.00613558011885,-12.26527585380848,-15.294535018168354,-15.843868518150463,-9.623969631170755,-4.218723875667847
90205,,-14.309347489875412,-4.671260827562717,-15.68510223339758,-11.218144956667588,-10.73074280906456,-13.41733004415773,-13.53769612012532,-16.261702572135473,-15.750971507746026,-14.048413059921184,-15.026982232281544,-16.27239338930986,-9.211415497100916,-5.472903599271859
90455,,-15.412994602127569,-8.783264423396355,-17.051139807088354,-10.437736595967332,-11.256117007844962,-13.176196932443675,-14.153055530673484,-17.610454299237787,-15.084317570381812,-18.35556556465417,-16.35158066504099,-14.367459724772385,-11.051640958393554,-7.29481378795036
90704,,-13.392020134839887,-9.306573394034736,-18.09648757898401,-10.03197486341464,-9.737505529090363,-11.029607050573125,-12.700756993674378,-15.872913907793611,-14.732562312328284,-15.96245611688259,-15.715111037528576,-16.020024422837476,-13.375003378899828,-4.825947659226079
90954,,-13.210602787517823,-9.011191884415444,-17.824048407676212,-10.571569745573033,-11.802930063429582,-12.428290817765031,-14.52911015519854,-16.927737602637663,-13.35246200216597,-13.057896994552586,-14.555405366019114,-14.848382519940609,-15.577938495581025,-7.770384100564907
91204,,-13.799239382558495,-11.90407344165421,-17.92898226710145,-12.440178115690838,-13.270190354328744,-13.23404714748323,-16.162320229955384,-18.499855015361323,-13.793887079477402,-15.725365965151072,-16.827690992510146,-15.698571449085623,-15.980356365459992,-8.088246678062074
91454,,-10.268510661788362,-13.14992743025228,-16.44443154499128,-11.794528233497484,-12.43513984403757,-12.340737533087726,-14.039049009143078,-19.36224123553629,-13.036963327056307,-14.791774025988111,-13.720271516970524,-15.295436833021842,-15.033465683603469,-8.19899633807977
91704,,-10.15199837279514,-7.266778190780091,-16.594509254623507,-12.028340615353416,-10.578904060792524,-11.265993429498732,-12.678510578001331,-18.339675392432945,-11.840679585583391,-13.014651119797357,-13.48308950115507,-15.203361706698878,-15.806923009342944,-6.654924255290233
91954,,-13.7417926873758,-6.1676311774964105,-18.090188273071465,-13.713060131759782,-12.91164056019612,-15.229413627692278,-15.298956839237432,-17.854019039705136,-13.886489922235782,-15.450327872442712,-14.835963011673575,-16.9973511125902,-13.821490356509836,-4.415130339840761
92204,,-12.8605972530327,-6.28576275732573,-17.57883527817357,-11.156177013820606,-14.087162544457705,-15.37151386934168,-14.794007768796678,-16.934304643608836,-16.26520042920085,-17.17236366783634,-14.08519328251495,-17.658715312080318,-11.618848085886526,-6.223613204158749
92454,,-11.269028820496931,-2.8791954558506188,-15.832787939806662,-9.917469420775962,-13.289656338728332,-16.249428229372043,-15.475040527622392,-14.953789393624614,-14.913382792641611,-19.237124821540142,-16.08366230927173,-17.362697669116606,-13.583942819962228,-6.076893887528479
92703,,-13.726318299675322,-6.145681328379919,-15.69887716115639,-9.844226220491402,-12.545243392519252,-15.743246615419224,-17.130325236489963,-13.71278662361508,-15.761294210705072,-18.33310165388569,-17.283183654087647,-18.021391458633385,-14.92872190527303,-7.581001298325573
92953,,-12.146164170469124,-7.249112748527739,-14.577106113409688,-12.304122376400873,-12.667236096085002,-14.380621880006112,-18.221010837489896,-12.703970915700236,-13.367349149297771,-15.320563442192558,-13.863086621673435,-15.494595596255245,-12.161995862607345,-4.855878369533873
93203,,-8.397786351277306,4.358458434355994,-12.333422872001393,-2.043910526237114,-9.054594781105967,-11.3492175848398,-15.675625337297,-12.981010412771708,-10.66686093438523,-8.268387530494035,-4.399954472502245,-12.733082895241212,-2.0663842079202617,-2.800754108512492
93453,,-6.350194469532756,5.394440718515106,-13.76857333689708,0.6148445293657966,-4.725665878635192,-8.83445693713248,-10.176022560743824,-10.257313927858425,-6.935757324072785,-4.737497031243583,-0.7759722473060069,-13.510589691039907,1.3372246424894536,-1.7709410111331747
93703,D,-4.876729951913175,-3.716156253947455,-14.844558272899771,-2.763197205107113,-6.663082582912626,-8.251813386296387,-10.417477491442636,-9.691002278901736,-7.375886305238638,-5.676450068681359,-4.621976537889075,-13.423736407155683,1.5277699467050174,-3.249805565001776
93953,,-7.378820517157711,-6.970753615552388,-16.74806575137159,-8.162829932758331,-12.42033184682322,-8.09099983252727,-12.065457515563002,-12.71963855547006,-10.255554895142602,-8.703508831909142,-6.381870642465031,-12.391614873524048,-0.560875283868716,-4.712020348253853
94203,,-10.1222137942954,-5.7945515363137226,-17.138432791064673,-10.166348947796596,-12.15572232593535,-11.704228303477937,-15.483825850322448,-13.918553689912985,-13.851616346801991,-11.89001212198612,-9.843606861186483,-13.559683896950595,-6.841207457674439,-5.667078578577343
94453,,-12.121588211465667,-5.251941742590423,-16.68880214600531,-12.084896204949604,-10.480104460435838,-12.11212164619697,-19.139037681713933,-13.751782915498158,-13.340906028769965,-13.647614381752517,-13.44140060047672,-13.0773446980879,-11.82532731006261,-7.274401459658264
94702,,-12.252734224781374,-4.516113766026585,-16.453065496340248,-10.297775837431493,-8.86981742290818,-14.540479560929038,-16.602981519660545,-10.14875934313902,-11.92185734553987,-11.345454465194498,-13.026491879462798,-17.16188343126816,-12.587332086460457,-3.390019512317433
94952,,-9.27036998378297,-2.319507406514896,-15.952876270000043,-8.992874440689834,-11.973190149902033,-13.826648706834115,-14.298138870804486,-10.98256575162111,-15.14803150791768,-11.97923165237535,-11.66649047670985,-17.94047130618591,-11.039719476850266,-1.6623362959421466
95202,,-12.28156007528226,-6.628160966222004,-18.048467912067217,-10.174696375254548,-15.355281031654089,-14.513452689701102,-15.826405755384563,-12.875832684899091,-16.65156221086481,-12.926597231254798,-14.880753344392057,-15.604149254804092,-10.77494474351132,-6.480830883673291
95452,,-14.312805810051763,-9.422664911422116,-16.17688916265535,-9.980783937852737,-16.38120219717332,-15.521488504905015,-14.656203329414916,-12.982142043644831,-13.58967299578362,-11.989582020025694,-13.573587670463873,-17.08496821490446,-8.468292512539822,-7.395732323286409
95702,,-10.49081539217016,-6.523681721959371,-13.53778346413813,-9.284102377943658,-14.216431850455448,-15.10474213055045,-13.973401376262348,-14.102615929568502,-14.510831765906069,-8.981423753503591,-10.240772663351166,-16.099956239230025,-7.517676235364712,-5.147862546486435
95952,,-9.547813510435525,-5.364484098437526,-14.930454285658335,-8.382331222750805,-12.724391542929752,-13.849689073267232,-14.442277235468447,-13.814702327347412,-14.912665364471351,-11.455815435543483,-10.05140969383286,-12.491423045605842,-6.611646015445009,-3.6678933498327626
96202,,-7.82089375226812,-4.655661359199211,-15.26790741375713,-10.089785801169956,-12.497916904067498,-11.164922492308326,-13.495951638383136,-14.812555369611424,-13.748002448832413,-12.34490092610076,-9.706662850576272,-13.387371859064414,-8.123095837424279,-5.289078684159301
96452,,-6.404083741440671,-3.4445310413262376,-14.598200426033358,-7.372040836681276,-12.980985288671572,-10.716193601054318,-9.918517334467348,-14.71885383513975,-12.675201686480452,-12.836035384088817,-7.481440702251532,-12.934465911813028,-8.104054782879183,-7.359107996031496
96701,,-9.247376910943704,-0.8205083079187964,-17.995953860425594,-5.054700137958294,-10.655731786630335,-10.944555295088032,-9.449974225642809,-12.986462808369447,-12.99671776767738,-14.076744547605628,-8.956941614071598,-14.563559688535408,-8.07377473929143,-4.732308392909678
96951,,-10.38543573317176,-2.332898904980253,-19.97014711692963,-8.98553158399779,-10.931808995289389,-11.29950542198721,-9.073950613303476,-14.4939413501848,-10.704775829563276,-12.867109207267148,-8.25932746120154,-15.52652649443284,-8.691210342530582,-3.949137367028443
97201,,-12.24010623048818,-9.292365414135883,-18.52436753686934,-10.649316052563249,-13.400489046825834,-14.79053778327318,-11.299054031993728,-12.889087272902715,-9.61860269109122,-11.195008798803157,-10.309587041877986,-15.793391732631124,-9.90103127929252,-7.730560343283558
97451,,-14.80732993553362,-9.19269295629065,-18.075127189946407,-13.819061672166573,-11.136901921751893,-13.941584536425598,-11.446178516613374,-11.756389969389678,-13.071619712417377,-13.053538243321912,-10.252834031820823,-16.288914796763972,-12.348078492165689,-8.487551722972844
97701,,-14.227860162250884,-4.681814838492123,-16.10578835046268,-11.414927924446406,-9.367845057307012,-11.845136524565202,-10.23829509982032,-12.128991762132973,-13.775751405217074,-17.20722755580527,-11.88122823093594,-16.90755868912211,-6.852755343242646,-7.612373408652477
97951,,-13.182291995257948,-3.26071171620286,-13.994195095169106,-7.91921214223287,-10.034921724366953,-10.355359414571993,-10.723533550322832,-11.822748313593843,-9.697621488306426,-13.74493959653416,-10.03273591571527,-17.228194347443637,-3.705877959846789,-7.52128017056196
98201,,-12.350501795572688,-5.735058573577403,-16.11019313301318,-9.357083049810884,-14.238687065638588,-10.130718628874282,-11.85466795401122,-11.020634907444402,-11.558408418792585,-15.60720123417912,-7.344780915751352,-15.18002667889114,-7.328121215251262,-8.310995483145188
98451,,-10.523314951838532,-6.734645646964815,-15.378013280019918,-12.577909024911309,-15.241478477341126,-15.05779975022545,-10.85492224471096,-11.478060624264074,-11.733110538398932,-14.75204592871529,-10.860058300260745,-15.037790040569634,-6.643354588481262,-6.079515834175221
98700,,-11.395055771677452,-5.561718129761882,-15.285138978601516,-15.553132352529042,-15.014005692160634,-16.84575892860059,-11.46008590433909,-17.379119744003532,-14.852297454391664,-11.194145029524645,-6.6839101189909655,-18.746081070084056,-9.36532654811962,-6.275311353781609
98950,,-12.72090740934602,-6.226853522276113,-16.73907309272757,-13.281176434579235,-10.095708154284068,-16.371776435276292,-10.620672633471337,-13.739018085657904,-15.087660899515749,-12.284452451341457,-5.879522558467384,-14.394542338390377,-9.89324911516608,-9.466194436770666
99200,,-12.618516622610985,-7.610842622585768,-16.992833480671123,-9.744200861234622,-7.41651485610924,-14.06589794343255,-10.221554504374271,-13.215995277492627,-17.471618708719706,-17.87178239681288,-10.148686281599916,-12.626996400867483,-9.694780245523862,-7.289462296800103
99450,,-11.546925667503604,-7.689906007680259,-15.145799840390035,-7.009432703159137,-9.051639187252814,-11.574851018407168,-13.820490637011908,-13.030957082962624,-16.031085558864643,-17.043008094121255,-11.331509679788727,-16.562907781619593,-9.999648492995853,-7.098347514060693
99700,,-8.799987534903202,-6.299773165662483,-13.683173323044038,-6.9850283118388266,-9.597051925696164,-12.827096157715705,-11.914915744454778,-11.831235249747072,-15.586580680502596,-14.591717477256289,-11.35889908247149,-15.30879412336747,-8.216822798377812,-7.042578219785898
99950,,-10.516868481716804,-5.495716141451796,-14.206144311679186,-11.099717823433911,-11.027229429370005,-11.9131491790953,-10.34766751700133,-11.464787398391303,-11.773373295953986,-15.47612617758008,-6.371092523070195,-12.36983005767306,-7.432843946740699,-6.582783009466736
100200,,-8.845945977761867,-6.71130889547249,-15.486445531843886,-14.714447387715683,-11.21725988470476,-13.320488346280843,-11.433305178575036,-12.132773272201408,-11.027151897297497,-15.717770545880734,-3.3285262116988976,-14.065945060535569,-12.471169437980745,-8.096691071195039
100450,,-6.525612291525336,-5.382018558562979,-18.88453429798093,-10.357959263083709,-13.299427409761336,-12.871505885483147,-9.920632820840762,-11.097612074534842,-10.39770994809301,-12.14750025610982,-6.858670367448783,-15.78737581656281,-11.427035302400268,-6.148023936921177
100699,,-8.800428986295795,-3.638854491742105,-16.0030767694166,-8.446365439106271,-12.882222939339927,-14.532384539284598,-8.744081677465084,-11.031193572783316,-11.282479152178858,-12.566106893721198,-12.810631690107773,-16.339963996155312,-9.936659622866305,-7.6693520129727775
100949,,-10.97564449929122,-5.275599941865755,-16.96848202981444,-8.22266410311053,-13.7233292516326,-15.249972437650676,-12.407461778036309,-14.412566902391433,-13.282459304352288,-16.820882608115376,-10.721354785898413,-16.52272963301484,-8.489144842978327,-10.748070713806465
101199,,-11.308787083254987,-6.9557734780372185,-15.933235984338744,-7.104355972436458,-13.351383865656691,-16.575744611998523,-15.735157151021337,-12.46983819842334,-12.134009555205008,-14.39350908310848,-11.997821103586766,-16.60333928996,-11.344659246311966,-9.505310202391538
101449,,-14.574805421652762,-5.393839313888956,-15.72624514139986,-10.310977369710024,-11.0727377590894,-15.49724628663066,-15.471667390155314,-15.616642425470369,-14.245364418207078,-9.557574172487296,-10.425846751559504,-17.38668529453455,-10.220792288573836,-6.642902472132098
101699,,-12.687970346170484,-2.957941958618852,-16.386384846007218,-9.041987673676,-9.047580733738265,-16.161938478636888,-13.141877258881694,-14.174743313052891,-16.471271887182663,-11.09736938804013,-10.564793312164891,-15.399504544241644,-10.477044424024005,-5.519677093830592
101949,,-8.58830588756312,-4.028154344820683,-17.554513761330423,-8.28986469130809,-9.896112274137757,-15.726218796131723,-10.79693259116212,-15.638082602361532,-19.16110443810139,-14.60188814843087,-14.975303369093032,-16.127672983767674,-9.5813163764026,-6.84308575744419
102199,,-12.063056915011206,-4.422937047763238,-18.180233973995215,-9.916666060983095,-12.27545681273318,-12.304285443986156,-12.10354034092262,-14.66080928710258,-16.372843128727038,-17.545406424750634,-10.662812273807006,-16.327075618625422,-8.450982176643045,-10.96054188442763
102449,,-13.654131727033308,-7.462048631010748,-18.091318731446563,-9.512429200459335,-14.705257413173992,-12.686620052723542,-15.41421651772198,-14.273611475374398,-13.52992808242786,-16.534127687174454,-9.328898441409743,-18.23447884689605,-8.759423908598459,-8.737488618663088
102698,,-15.3391271034691,-6.318024606579325,-17.66855114184015,-12.941084436469666,-11.546335661662397,-13.703733055852451,-16.35034400986806,-14.1273278285004,-10.368510294946168,-15.327617716357215,-11.949441666847044,-15.32385765182642,-12.406931436759397,-6.578247445360109
102948,,-13.543432483581396,-8.070583740181018,-18.071898703663305,-10.64449070293065,-11.282566492049476,-11.076146894228282,-16.526767380130384,-14.953963348710737,-13.461348205594147,-14.604514767320309,-11.49311351479806,-16.72793022695769,-12.790830564974954,-7.144593038328856
103198,,-11.122277613877412,-8.213755045369002,-18.05217490022534,-8.610284684470905,-12.36974944627016,-10.967330737156892,-16.822973071722995,-16.34282554625419,-17.473970791191174,-16.570686641667816,-12.310630657106728,-18.325023184709583,-13.541670909974949,-6.11296941016103
103448,,-13.303835788915547,-5.342509700578086,-15.58224489558059,-9.604662265712278,-15.569487911639987,-14.467496075632129,-16.868202881918428,-14.61453631209775,-15.380874889300888,-14.896946535251274,-13.722741146015924,-16.57133280540388,-12.138986433952518,-5.688368703021983
103698,,-12.544358458072107,-5.653761406404985,-18.420292922269716,-9.737916444236443,-14.995798310437774,-12.817822358682328,-14.495035120604502,-13.205720577444495,-13.115879978205882,-13.294440807758628,-14.090528612572852,-14.845176444595609,-13.328640794096982,-6.804763131196715
103948,,-15.940148505450969,-6.71598094751459,-19.117939996438263,-9.21731984503784,-12.307934055433297,-13.671257900546353,-14.081199065256513,-16.672006317008492,-15.940287584925228,-13.118758551302795,-10.77101130047692,-15.540276723906532,-11.697858365412332,-8.929461758869172
104198,,-19.795450093434624,-5.883296119683998,-18.131453725348244,-11.281112718169794,-14.42588749006454,-14.347650908690955,-16.071460103807592,-20.527754645966645,-17.04467318426059,-14.23155382219014,-12.548441316944988,-17.089473697056857,-10.898805882187265,-8.416679403575033
104448,,-15.897976315884694,-6.939257180516015,-19.3098123394784,-12.989822786459277,-14.182233372859104,-13.516026738770885,-14.55289877839198,-16.292193426749876,-14.07486076966966,-17.290499135219967,-14.035745213159409,-13.484013552608824,-12.823170510343791,-9.058278547375814
104697,,-14.036437931823231,-7.139156128620247,-14.432463774712224,-11.331178989645649,-14.154957790843426,-16.94640676338831,-14.002571938332936,-15.48817661352727,-13.3095935328569,-16.804997503473004,-13.525745060239398,-13.34235401634886,-11.923437054943406,-10.786424461073413
104947,,-16.298026163958824,-7.781966123412309,-13.078725950010009,-10.351525572465867,-12.71776456603716,-16.922611629591614,-11.887955609433332,-12.919588140403686,-16.101201408364364,-12.17748519234711,-14.195698052886971,-15.484299773773794,-9.954511674277484,-13.448615552216449
105197,,-15.51707530046212,-6.645271937791911,-16.993239763683953,-11.488778643067892,-14.274427015011018,-15.889579913065106,-12.972144242404196,-12.807783834802764,-14.336988981819996,-13.624979560954356,-13.131593113421289,-17.583861054590738,-9.894728414476292,-12.440521319646436
105447,,-12.17585334820104,-5.952182429844003,-20.154139540205517,-13.537044204397157,-15.04644242685508,-17.463425482949624,-13.723794317019474,-14.228729087914108,-14.087485928427013,-16.357097115801007,-16.548191527924132,-19.667373028363123,-9.432853239652893,-7.511944868933707
105697,,-9.981613411119977,-5.652843523186487,-15.984333688653766,-14.814132339280734,-12.733385829987592,-16.24692323195783,-16.69724107891898,-14.801942441610125,-13.99422632236785,-15.392782491042816,-10.482379620337428,-18.78247995007315,-10.30513028423684,-6.80867660237231
105947,,-12.656811733082035,-4.330595961396088,-13.649946993065186,-13.16630536836832,-10.048867083255685,-10.216950896462048,-13.500242769451123,-14.61109101747384,-13.409422667744158,-16.60966399553917,-8.99028848962319,-16.21764200991738,-9.445965333905598,-6.580956441271533
106197,,-13.08776851849105,-6.384921147452633,-17.07460199619036,-10.477973677463083,-9.688853097228971,-5.612171461907096,-13.751688878078562,-16.316079761499985,-15.374168325768936,-18.942356280236268,-14.867233046959589,-17.209504111457193,-10.053247782280412,-7.70887173616106
106447,,-12.94221419321442,-7.255472952163124,-17.42417873973619,-13.590300311487171,-10.775665386783883,-4.603884984880392,-12.067618546033088,-13.791485581133106,-16.171945954232626,-16.341596388601342,-17.531774459742902,-17.723107596236204,-8.484223170163371,-5.896417181985134
106696,,-13.897051980797286,-6.26738790120614,-18.84159988143468,-12.260244769672612,-12.909149748875084,-6.697258250107314,-15.188359975652707,-15.97226186390124,-16.86945970129201,-16.551397030954405,-15.492954062055048,-16.778747890076247,-9.276798613917755,-3.901848653163833
