timecode,event,eeg.af3,eeg.f7,eeg.f3,eeg.fc5,eeg.t7,eeg.p7,eeg.o1,eeg.o2,eeg.p8,eeg.t8,eeg.fc6,eeg.f4,eeg.f8,eeg.af4
0,,-10.108583183800508,2.136266726247732,-11.996035441260515,-1.74153839945596,-7.366910983284293,-9.278486897493552,-8.696647570358994,-1.4194204894481124,-3.129277563644443,-1.9451130804244727,-5.0535555314567375,-6.359198246496575,-5.12768727642352,-1.6513405684644589
250,,-10.81236878772021,1.087695334958197,-11.09658906040809,-5.973737917027061,-6.359894908308771,-6.7544026873024166,-7.8306662450560065,-7.179394571153277,-4.224468519090923,-5.333443472332847,-2.393841191475293,-6.172076753402603,-2.678028442216803,-4.101895198563525
500,,-3.4187499282805165,5.314122498773045,-10.489502172146334,-5.101061061204724,-4.758583381832465,-3.5190668964830287,-5.597317556065983,-6.216432201136532,-4.359156319436801,-4.001651433363101,1.3918253030751768,-3.596836998552033,2.917824553869351,0.5920850662486425
750,,-4.013350745173377,6.4783768232217485,-12.65234004393782,-4.486531134620366,-5.8588122515341965,-3.791339670786353,-5.373043045215493,-1.8263645036205889,-1.861230028645024,0.4947781685949345,3.473898580311428,-5.148788944180279,5.261996620388541,0.3309187415026865
999,,-10.512445536089428,3.8454386370231712,-7.845991200279489,-9.066918896759384,-3.980149407221949,-3.756048408967586,-5.594469727185171,-5.736253744667547,-4.786210517036714,-1.667325421154505,-0.1816247515427538,-6.286954522944768,3.697981452540912,-4.526454290306992
1249,,-13.097140345295855,-1.296385958599218,-9.365976992240965,-5.972530065165396,-4.481935101527694,-3.9170047456212576,-7.635912305797746,-9.449206447285034,-10.08202113245055,-9.838768963831004,-10.68512494226974,-8.445129730157413,-0.7261608925888681,-5.822396141200427
1499,,-9.534221917927669,-0.2123946913329027,-10.823488978527395,-3.63247099645964,-3.464925005369776,-1.630221779429028,-4.110323319993693,-8.892867619908166,-6.58073880340673,-6.965169660232274,-9.214485278644124,-5.554237134640367,-3.9673033576071535,-5.117617530706598
1749,,-11.768808301400364,-3.354133846729198,-8.748365538700204,-5.212733993850689,-4.706892541683869,-4.155248172448898,-3.738524267518824,-6.76654135650041,-8.42753913020085,-9.973634504487766,-10.784200380079302,-4.794794279762332,-0.5568336332600075,-3.841429799560253
1999,,-9.15396786299689,-4.624455888076239,-8.687999248846305,-7.212495646270155,-7.056539220921091,-3.265709570962115,-3.767155084745109,-5.058260040159672,-6.440635202890928,-10.342682432954009,-10.4185348014666,-7.270843940348104,0.0531481490892426,-4.157945218667499
2249,,-6.654441383871975,-3.997522415259806,-10.659001435426294,-5.225396161845052,-5.381286747850008,-2.3837355336146078,-4.679710747554563,-5.98944671946671,-6.156349884108795,-6.438485326316141,-4.08862562679658,-10.218616994257896,-1.7292946193462422,-0.2362244613291153
2499,,-5.4313645269273785,-7.276519684012578,-11.082910770924643,-6.753049117132951,-5.74129646045343,-3.513871285285652,-3.62704440736475,-5.60144198198969,-8.84359669866831,-7.341167107160585,-2.64395580087365,-7.795214826655279,-0.0330461563269599,0.0066933795739172
2749,,-9.561146558923696,-2.7547581519119277,-10.077201991797663,-9.695129871571,-6.994176631457928,-5.483026833185316,-5.442272582286424,-5.167418463552748,-10.05821169829668,-9.905135206050575,-4.734005293004792,-7.960012844062053,-2.8965906725765245,-4.996541533514676
2998,,-15.148762798959858,-0.5523604111831186,-8.256602115323835,-5.168850704144775,-3.645915588129784,-3.0362688248729635,-1.2484622594522978,-7.151502598635073,-9.2852510397308,-9.373328798082149,-4.463241671513404,-3.60280122478329,-3.504576495479702,-5.7976759397963615
3248,,-15.026295791986788,-5.52986938600303,-10.274563070396011,-8.327314845562663,-5.031426797471305,-3.028413734446314,-1.8378841642432189,-6.098633844643745,-8.963285150850217,-8.616971289195444,-4.153921036036267,-3.5175047699988173,-4.591840376982327,-4.723038966255236
3498,,-15.046074385117144,-3.145163714108536,-11.151597255623397,-9.515813001800993,-8.614121535012366,-4.984993971151189,-2.516366564970358,-3.98771758784132,-6.936169803230211,-7.137415859172501,-4.034341954310573,-6.425695374107297,-4.867539328026666,-2.6692217730236423
3748,,-8.35782809242296,-2.5196415580691345,-11.793472931451277,-7.002723364605422,-10.473429211413928,-8.37448193067874,-2.808456598363975,-4.94879032805936,-7.257946449815771,-8.745072144773596,-6.697645588515981,-10.188459047765704,-4.020994215945289,-3.8109953034750976
3998,,-7.252484775224401,-4.809065613777527,-13.560363969025031,-6.989492619798268,-10.823309392295988,-10.898852019154017,-5.541296599223669,-5.679520230435834,-4.642208594924453,-8.54806984874012,-11.568744304516102,-9.65072376630492,-2.934964458531743,-8.627560000711727
4248,,-10.015441426704609,-2.577572325222649,-10.807868573488918,-8.603043263666171,-9.383210066373664,-10.697686154492892,-3.613908561663139,-5.213820972024788,-5.389692771222174,-7.134141933944306,-8.755665434215773,-7.010897561128329,-0.0450714441404674,-6.895763490919391
4498,,-9.936813700580515,-3.097573913401004,-9.727571367351835,-3.3385475165215626,-8.15500259370448,-9.449886328139282,-1.760713149767417,-3.56104285790652,-3.170915385179142,-8.395820299885036,-6.486036899833154,-7.757749258353924,-3.6704626262035904,-7.891781387027684
4748,,-7.451569652999681,-5.719482193631595,-7.12807216608487,-2.0649317482400726,-9.755220227256991,-8.901989908990142,-3.9075162200449687,-5.800399071370227,-4.811572165600585,-6.434428891093575,-8.468096744548557,-9.96145163233637,-6.222890452456703,-4.29179509097235
4997,,-5.173349087706479,0.840570325951086,-8.802362775392407,-3.7992360045479994,-8.489136033408318,-7.016448219314547,-5.725168658527824,-10.184237313819928,-6.100395382196679,-2.152268467810371,-4.4452811266207135,-5.192373569996191,-5.503911751481054,1.5620612904325115
5247,,-6.515414101283281,0.0032287232892818,-10.432741042666285,-5.488699776085474,-8.135002924582992,-5.331230858552926,-5.508791214232421,-7.113723679836932,-9.731289408689026,-6.181255013857202,-5.868822399195254,-6.184295417605337,-4.253464403498858,-0.5016400562349417
5497,,-9.274033157321268,-2.907822992352985,-7.55631743879473,-4.57436111327209,-9.52997650422818,-12.103637031958703,-9.077521171545,-6.258617410268398,-8.037164145298537,-7.67072705958885,-8.607701822354056,-9.300712537863546,-0.0841541210156416,-4.383788975011368
5747,,-5.428294152979369,-3.496889226433072,-7.646137157314044,-3.678705897302455,-12.196029672123426,-13.84975674133785,-10.642777363031314,-6.6995686212899415,-7.690669330340565,-4.186017556870166,-8.242776162774078,-8.898988634251943,-1.9270636949062463,-5.411207200778408
5997,,-7.622060655768525,-1.8058129828398015,-11.997998845581533,-6.92204110630392,-6.897664926166824,-11.914430554020086,-9.603106190922782,-6.66122854985691,-9.923538563330268,-7.5034759795937855,-9.865881614789838,-12.336976792688583,-4.154199855608742,-5.3281524429932485
6247,,-12.287755308878484,-0.7111524821102031,-13.429914271700444,-3.124860970919567,-7.02996594671447,-9.665820816219146,-10.340375296551256,-5.953152512687273,-5.495610952320514,-3.695025066384225,-7.708504571991491,-13.053590725992466,-1.9795079368344235,-4.188225308670844
6497,,-11.722129594305349,0.1592161413796606,-12.23668694048585,-5.40069665842533,-8.3590903462683,-8.414439959051808,-4.756577866984498,-7.289581067725166,-7.552034303120094,-5.040939791108913,-9.151336330733526,-13.05455994962875,-4.913215178990151,-5.886856466103749
6747,,-8.011452505668032,1.1410260616785617,-11.191090808593785,-7.2686976607400835,-9.378910909031166,-9.879374503709975,-3.2079937396571943,-7.046071828544795,-5.788380352198217,-8.22377700288526,-6.603792485113159,-8.996243869321287,-4.033645000001701,-3.273179147310225
6996,,-6.617660268545798,2.0257396737126143,-11.948732950749443,-7.0863746481683325,-4.899388924851431,-14.79179415926555,-5.996746297335847,-11.293758640397868,-4.952146842980317,-4.716505501235979,-1.5858927848807394,-9.111732355041203,-1.194173268909701,-0.7644516177127236
7246,,-8.372801656633769,0.286712067976605,-5.747007609824575,-3.00949897167797,-3.647535383827957,-10.282711999469493,-8.68686555454969,-5.442793355124412,-2.9668930323499447,1.332557400126391,3.594803530813246,-8.240718782481162,5.989088540425422,-2.0047976490994137
7496,,-5.935161414584719,3.391373069690653,-4.610826466915988,-2.14972062634994,-2.4136489814173845,-6.296191494792362,-6.2693687092499975,-3.0451776094912035,-2.960187644113996,-0.1841381929287459,2.561933857266396,-5.77395063659478,4.638978946449304,-1.1551724443685298
7746,,-1.2136068681945027,3.27121041826696,-12.19569480364397,-7.870786816903986,-1.2473052594993463,-4.725167276691017,-4.247705734967861,-3.477901138136952,-6.041997415759052,-5.30469569106975,-0.7582128968983148,-6.252571182780352,-3.817193424633472,1.354901495823298
7996,,-4.221213866551409,1.457279152999943,-10.08731029500749,-7.234093611839306,-5.177067205457487,-3.284910753038406,-0.5152837974813511,-2.06648259098462,-3.844651360277511,-5.740876862865649,2.204776688821049,-7.400397492810766,-1.8877366814536125,-0.5081056788583022
8246,,-8.906232436410914,-3.3950744143875404,-9.745670918848486,-5.847865597274846,-4.553457752936406,-5.28097194834248,-0.2521862945980148,-3.458895434517655,-4.983350771518083,-6.779242954704695,-0.5696119971336072,-7.916883363280957,-3.6192386990098777,-0.6953784017927374
8496,,-9.55883833316499,-4.511748513370536,-4.936829385206145,-9.128630434456444,-7.229471548422914,-9.96716581398992,-6.896177809719237,-4.085345416790208,-4.331944819744051,-7.699813625889348,-7.947581879029942,-5.313165369499554,-8.429328491029128,-2.2872047216899447
8746,,-11.20710099171973,1.724972553491071,-5.134892790531747,-8.303071369037076,-3.942885563038338,-6.697126998617832,-3.7704211896141575,-3.34515382113757,-8.44509540145873,-6.403942073077927,-8.121821067961633,-4.627088329026549,-0.682605752846043,-4.6849063909869
8995,,-10.778235699030038,1.1028605192305423,-10.053332387659228,-9.484810839788077,-4.475050736663569,-4.867724299717981,-6.263751531289543,-5.245725436490223,-9.253902140527336,-9.576082518815642,-9.060924054649329,-8.882860855457519,-1.0513005222330782,-8.827753179239364
9245,,-13.003031225439772,-1.742923686384048,-8.290208111205425,-5.237871280479038,-4.2380189832652935,-4.813149196860024,-11.087187898950315,-10.857021113965766,-11.449320563563091,-13.136552003375783,-7.73322907374748,-8.007064574398633,-2.418965945406552,-6.389647249620648
9495,,-11.295613217553305,-0.2759406761770713,-7.838189373248153,-5.472920771412214,-3.3577476280511287,-6.535817165481359,-10.111182132896053,-6.6475989648784335,-9.730705303286436,-5.333814783698592,-3.099595417307168,-5.783118281492371,0.7635388828689162,-6.050784331244285
9745,,-7.94495774986321,4.365359839539458,-8.214203199789177,-2.2848702788653066,-7.8142843972438545,-7.593618983378018,-8.22830461985289,-5.369097459738585,-7.959680012400428,0.2187300256398721,0.3941138754540477,-5.166294190214945,-1.9263617820980568,-5.865875743250982
9995,,-8.751080862876957,1.9190790355166127,-13.244412615236469,-4.284215396603529,-7.985569031628069,-9.473644320272973,-7.998888528954348,-6.424342050256567,-5.9257407957951465,-2.119892183673623,-3.608346720068798,-8.943642750138585,-2.28292424178169,-9.85142055822043
10245,,-8.94760241373257,-5.610094609847419,-13.54202261332044,-7.122922272381609,-8.41839852664452,-7.228398071018155,-6.248531708264253,-4.8703771509263225,-3.218559118404874,-4.149076239605969,-10.375215453779347,-10.095563850201687,-4.743601573833742,-5.368767907623556
10495,,-7.479558210321025,5.349044739093768,-10.69203605754156,-2.4032009059947126,-7.37755514913251,-6.790105501751933,-5.801387438389404,-3.7648436505614926,-2.4833187871295133,-1.0274116723879698,0.4422909945018038,-11.97655358584556,-1.0585080232144664,4.668233213113409
10745,,0.778427602855758,10.702421552754975,-6.61066025628558,1.3021235511349625,-4.076578151371707,-1.6168190350865774,-3.2024502050040144,-2.92803085537097,-4.644516598580385,-0.29338345242654,3.7748771646907975,-7.427791678839353,4.012615272019112,9.259110567630632
10994,,-1.0272769120233445,6.790353906467734,-5.7350989662762375,-1.5696530786557972,-3.333796316231379,0.4110665232366506,2.068045474167437,-7.794660858045028,-6.658253575414408,-1.71643263619994,-0.7007710159434087,-8.382491741281274,0.2978825965237663,5.536825427237099
11244,,-6.287552838390069,4.17817569469401,-4.838608823388244,-0.4042287771260431,-1.5041036140331443,-3.4960641404053545,-0.0368626820168056,-6.881133626580392,-4.019482785567448,-2.313775089792781,-3.909183010685596,-9.565708926801916,-1.2546951822146926,0.7062256549024746
11494,,-4.87712373622071,5.800811192035395,-5.694206098541948,-1.3903830828245758,-2.5266420578687776,-4.24207997444174,-1.9449584761707288,-4.732146923275464,-2.207015853270598,-2.960024579083464,-6.459827041787991,-8.278990366080002,-3.2529893481477794,-0.0895798901587671
11744,,-2.8183174224957552,3.38011536458808,-8.443171438773362,-6.727475716495091,-3.625744232275877,-6.843865043175795,-6.692051028472612,-4.363866736391532,-3.854794940872426,-7.703083958894096,-5.042050161526489,-7.841978805170808,1.1650011980277344,-1.379323297394861
11994,,-3.0235215350366524,6.744051905675147,-7.478988283011004,-6.5808447575802544,-2.4757277086267377,-10.24094164651039,-5.875270868595913,-6.269189120415426,-6.999468089404318,-4.165933085283139,-1.219436573771521,-5.32735011957066,1.0182986885471752,0.2589466264813669
12244,,-6.344923920929434,3.516954160979489,-4.580247066863588,-3.637646114827368,-3.6404830037992,-4.126484491218266,-3.089086088541383,-4.018622033575933,-3.2762859007826552,-2.5096009327955286,-3.6238436548330895,-5.197882328045868,-2.686992294838786,-3.3189999196812443
12494,,-7.857478677547107,5.216503265611911,-8.903071782202492,-3.5628223273160127,-5.72846836094206,-3.5042235302677387,-3.7891051247968655,-6.349148037102198,-2.507874288164374,-0.8615069151779882,-3.103801266474413,-4.948810594608557,-1.093062118035664,0.8638685838007767
12744,,-6.06402738894126,4.8137368811585,-12.110681558383725,-0.9284301862534418,-7.7204449994033055,-3.557418736664827,-2.689195302509363,-6.469918576252733,-4.1565416047244526,-3.105936139488943,-3.3985077370774563,-6.172177165094405,-0.4410905624755085,3.43766864397708
12993,,-4.163796704204676,-0.8677628813838856,-10.186335646715696,-2.573671857679137,-7.435955027027541,-4.215342703572132,-2.61217717272142,-2.6121273933359013,-4.956195469925077,-4.366815187571343,3.218296618806887,-4.497217515259783,5.665005975839215,3.082854275236273
13243,,-4.568994526275508,1.1195407734315377,-9.146768656218065,-1.6330957977340346,-8.17684569534783,-4.110950202533145,-3.5916492061991248,-5.53571135363315,-8.08350774184425,-3.1635825876595773,2.8785916903459325,-5.91671785235423,5.47277018631533,2.214747499734512
13493,,-5.501247595207813,6.547267216638626,-6.81862240809356,2.301962423051945,-2.114192575748412,-4.772102402382715,-6.349919367378211,-4.634359161749783,-6.927116835357713,-3.848728093602352,-0.6874909738986523,-9.766003443629687,1.4482908752391344,0.067596787261995
13743,,-7.92612983653629,6.546971690337181,-5.720016949476809,3.0686319201728907,0.927076446878336,-5.6679716618604985,-9.302926937943454,-1.7445510705368528,-3.8433455263473135,-8.178386571469849,0.5817547561153562,-6.783198000345122,1.7000738483739393,1.4431193175093098
13993,,-4.550753039691122,7.673100410621306,-6.991568930869874,-0.6950253604530607,-3.3905354123291827,-8.189335994460027,-4.434322448351811,-6.703986213678777,-6.071369824123468,-6.692385532669479,-0.7712494351665296,-5.26836938239925,1.37102966772271,0.993183779823948
14243,,-1.3972063716401246,6.319067829818428,-6.826230500536791,-0.6003886813667795,-5.569936489789015,-9.348001864133906,-4.8275976508283724,-4.11594013218502,-4.806850630799922,-1.1137689468294956,-1.0483280655187337,-6.68341766926477,-1.5716993877799366,1.8372285279867475
14493,,-2.331690059238787,8.690130600854785,-7.456331055944643,1.0130703766441145,-3.055794305195636,-6.838025454781239,-5.433751097240913,-2.263969817181038,-2.0364373796109008,-1.167720676421519,2.646744301847681,-6.399690868799791,-1.6434993053158418,3.4994617189894206
14743,,0.2242700109421589,13.626457487432246,-5.752535577377734,1.049139791328647,-3.0265434365925907,-5.22871151041664,-1.6327449702472547,-5.312472308820883,-1.8222122550840971,-2.345048873383333,6.884863378212015,-4.681103514259874,7.61114787505175,6.8477608266284085
14992,,3.642244914303996,8.97109299882387,-1.9400384626984528,0.3845007170583796,0.2562040390576167,-4.555417770920855,-1.4505870554281124,-5.938603301301919,-2.6670140598545395,1.5257409195235505,8.041916743815147,-2.024834285284755,9.84192801740625,6.161135585955202
15242,,-0.3263546785911808,2.699686017321784,-7.408705324031496,-4.530672923720011,-0.2274763623146345,-8.328229868641003,-5.615881534389672,-5.836083389283512,-7.336570616634843,-4.760534006595655,3.9140440094803943,-4.236223036251406,1.7641423669170198,0.9116175838613088
15492,,-0.1965833232578809,6.251078946889207,-7.993594118953627,-0.5276410815373233,-3.985219728980263,-7.716844438510874,-4.96232578649249,-7.803996403784551,-7.1393924677614,-3.059796672443748,-2.4284288012034434,-6.575028921296704,-1.34905994315332,0.9800410918290154
15742,,1.4600695567358757,10.889124040833291,-5.515740555613298,2.875337678248127,-3.9081652187551614,-4.918591439433467,-2.8482099238943226,-4.778509595955681,-2.963939772399553,0.0507369311727346,-4.836176656157809,-5.955811670063763,2.57278492002921,4.6638245034625525
15992,,0.942686849365924,9.56388144139802,-5.158904653042758,1.379068278072628,-4.069212200738551,-3.0679629934536887,-1.4440765987858108,-4.405485504478619,-3.8828860550637607,-1.18396064742561,0.5619694307911445,-7.059862335990898,4.7559109381969344,3.869806996570846
16242,,0.6970118271497343,9.1861467497617,-4.15363773171004,4.863196960084513,-1.796528134139589,-3.252321735477932,-2.196646347726653,-4.799311187499283,-0.7575889824197323,2.6763784432369206,4.848552382256712,-5.3661931568250845,8.685188851810313,3.3018764282045603
16492,,-1.142529165858731,8.62084719013291,-5.26960581161616,5.673528274893707,-1.946527555197067,-6.366833493141231,-5.897591657815254,-5.604499507552512,-2.396729653584661,-0.9715245821260136,3.4003304224677318,-3.820521562951855,8.557214696287591,4.823500576333935
16742,,-2.1306046213375494,8.45603642370373,-3.628254394328896,5.571150470152788,-3.1163851905113384,-6.23867690869424,-6.079699083666915,-1.6743991374467453,-7.200776608146057,-3.761260646547969,2.0292165460257205,-5.320137067920583,6.964231279120385,3.773782810755397
16991,,-1.6529765633886813,6.540976336674339,-4.363455824502527,3.617828264813891,-3.266944519900118,-5.319514261398899,-4.354717919331032,-3.734165802364152,-12.116255080521825,-4.788166296347656,-2.7059897095476737,-5.906655115524231,1.2691576349494669,4.25925360351094
17241,,-2.1895800619459447,10.294935509592287,-7.23924207974482,5.38493109020644,-4.363330716558446,-5.487569331629105,-4.487292048575833,-7.958794821970136,-14.249567793470302,-5.785063125373088,-4.299224335297277,-8.068798575149216,-0.9616620293256471,6.161728432253747
17491,,-2.740822522537613,7.468037673888221,-7.869444938757491,5.638820272470672,1.6508807399772198,-9.016122310600275,-5.110897384202913,-5.510945079989935,-9.592784552964034,-4.025608801820921,-2.232516274218647,-7.3606631711688735,0.7478494182391979,4.916966056448839
17741,,-5.624631903550732,4.875332017650561,-6.346715686684762,2.972884649305083,3.317597080798056,-7.133955958462018,0.1040524141410863,-1.4942062806004084,-1.9345208579531012,-3.687792172606994,-2.465451071822732,-6.141536507671649,1.648081699314604,1.2603458351923864
17991,,-4.240786639438512,9.81543148725796,-7.123580121408416,2.1865208381610755,-2.086143678987731,-6.320219301207411,-0.5338583854016719,-0.8836135750666534,-0.8677174118695541,-2.513709931041768,0.2690954711122409,-7.44608725060451,2.845399727095693,1.5289547019734262
18241,,-1.0332062251394316,11.673541942595293,-9.197395313630777,3.737548984187698,-2.2718050866611925,-5.930232517904562,-4.57444199134208,-4.818543794611475,-5.125872933396835,-3.340018198717871,0.6363684159660601,-12.618554515316076,2.8306777874161875,1.9907795168433844
18491,,-2.0325367172885405,10.4814906670038,-6.131367397213062,5.4212777853080505,-0.7305296049142328,-2.209096293196913,-3.872588789985966,-5.945606751529043,-4.537815513789942,-2.8555823909758304,3.629821138344579,-8.956403913343626,5.5266434655704,1.4186940235437877
18741,,-2.101929627673269,9.812931031557287,-6.037028048629881,0.572911843316281,-2.5575435319876068,-4.318576343047163,-3.1914018100931303,-5.235458196370775,-2.542810872045917,-3.524017227498023,2.9326187202111216,-6.997671144103648,5.874641045730194,4.220919015812218
18990,,-2.038021125960615,11.203218711160474,-7.249262653096866,5.619486694303881,-1.2467391056696036,-3.979905537942893,-4.073938334772612,-4.990051554170384,-3.378183898401343,-2.461846915487116,0.2116745550571946,-10.308686071079304,3.1543723705626325,5.417975577017234
19240,,-5.869072740054515,9.78731077849496,-7.818443547800662,5.565704534342499,-2.1237892139716235,-6.355183027881716,-5.077861615020892,-4.534586336390822,-6.288326125843753,-3.1832101370938264,4.346916647441795,-9.484737070730642,5.197611988134124,3.5389986458266494
19490,,-0.987198683029478,8.764114964753219,-7.758536749615967,2.157679142062558,0.1070422440698692,-7.105587279802069,-3.470318877620421,-2.930875208858133,-5.068571273982705,-3.402220541381236,3.111623288941547,-6.6279600579322615,6.202494935069133,5.024161090057028
19740,,0.4429365003421678,5.711541086329611,-6.783990066756655,0.6176193870034701,-2.365671804474471,-1.0355229608409011,-1.1492980425171435,-3.572459415823106,-5.589168906686391,-2.440988852909176,0.3964950029730986,-6.991618237125696,6.746100368060722,5.567519443753033
19990,,-1.9193190817813333,9.973974811729034,-7.297170969275934,4.243041724811093,-8.199395119435204,-1.282862788077691,-4.882111632500983,-12.119529986689736,-9.042769689732356,-2.647210543854641,1.7181058614679436,-6.600620550456531,3.9640200494266855,6.642196024796544
20240,,-3.594922680317183,8.334879411886694,-9.907586095000584,2.1769407116565302,-5.2040945985745815,-5.5262370567684505,-5.024805114754357,-11.118477207923004,-8.626210545060779,-2.145954617366255,-2.3076791189260195,-9.036265876179558,1.9049461863456676,5.621037187839031
20490,,-5.046134340159632,6.109763376164588,-10.457821638014568,-4.06249913072294,-5.27256483481542,-7.8697146599014465,-6.1166990223544,-3.653386388412285,-4.374527991885145,-5.4779907156611145,-6.01789782700539,-12.108433480619414,1.1885243889286283,-2.2262039157495748
20740,,-2.1540335438835,4.410302914578703,-8.781092264956623,-1.6628563600682502,-4.439620374531947,-10.411844429313044,-6.252163167424256,-3.5795946604524973,1.336967335466012,-2.7146705462867136,-3.30786864556998,-7.793239815714558,-3.014246054253487,0.3038184627923416
20989,,-1.8197500107886828,2.7444936950795045,-9.434019677308,-5.193900350462084,-9.024392457105575,-8.924011793095827,-7.77771685725086,-9.474274977823915,4.256350094287668,-1.6116854563678835,-4.138248712612663,-8.243239742997368,-2.5548214797820274,1.4336729304673688
21239,,-3.7907535739159415,0.8695349775652544,-7.768011978532876,-3.7730231448634335,-9.77654681904484,-4.46312592986602,-6.240370616608315,-9.212052301241595,-1.3471087032386422,-3.981007728766568,-1.1288529476124345,-8.071006318957487,1.356390054887047,2.167803748577453
21489,,-1.6584149045753116,5.575322833911748,-8.192483376809616,-0.7483243301108471,-5.479834497176944,-5.509357484910076,-5.133125876932136,-6.375388415033902,-5.351429834925078,-2.5472555971053525,-0.4045976035964641,-5.770076626347702,1.241502487719896,3.031944483929467
21739,,-0.9460961541352306,5.054385096036981,-8.440628563369097,-2.578207859000274,-2.5422594397355907,-4.157206943947893,-3.381803368501632,-4.16655235253046,-5.448198307042885,-5.8099028657590654,-3.573587185524245,-4.930120122799315,1.2132393650031346,4.065779807022391
21989,,-1.7875673081739758,2.522709792335508,-5.972091393312496,-1.9202015391805327,-2.8967580755762623,-3.8968782679558944,-4.680430059234976,-3.699155084992504,-5.457644659336395,-8.890233707104008,-4.229753646565747,-6.250613648002881,-1.7478213749611644,1.2205277731331188
22239,,-1.5023352971223134,2.662125408284968,-8.783260111359239,-1.237180284434174,-3.2908832795183605,-5.63982363600524,-5.860639492580715,-2.608070575129304,-1.75026568539248,-4.132937792984138,-7.300161178066115,-5.508668943766062,-3.5380408225793323,-2.087620951495239
22489,,-2.4278795166461107,3.7470773880430808,-12.4684553290705,-2.0544060837271614,-5.092981884485795,-6.633252744860281,-1.8223638693651945,-3.8400461158806993,-1.096254051334271,-5.56179561248794,-3.74027874809464,-5.920428583651409,-0.8068111135700373,-1.6502781868988494
22739,,-2.180859289562205,3.634495866731162,-9.601413414991168,-3.033126774956762,-12.89755383136569,-6.567107857903545,-1.6327632239278214,-7.284440365983538,-4.1943455067450826,-6.213466115776226,-3.82665189325946,-9.31401191083872,-3.0279363026203523,0.0911445905703166
22988,,0.6905694354691995,7.569994586414648,-5.65118369645285,2.7814637146236194,-7.894833897783961,-5.094828182399849,-2.0841237212362764,-4.356989096763754,-5.113588798969309,-1.195534190828943,-2.946938957968414,-6.065246223284669,1.0396715572853124,4.0515994152927455
23238,,-1.8848159413041756,8.336986204054382,-6.248756333351166,2.810820948514316,-3.2005842393433004,-2.757493549446325,-2.289116907935465,-4.027018429159547,-5.065726182991743,-1.814351096836041,-1.8019828691299675,-4.940367657163957,2.686542028543085,3.8423864130385943
23488,,-3.5113825450588223,4.787301182682957,-6.322326854922591,-0.6551937533783926,-2.923544778889404,-4.08172455579275,-2.339886597547325,-4.293557625538075,-5.729919665315225,-3.05400739811593,-3.192941900231914,-8.665452843552,-0.8934185724634989,3.082055711200793
23738,,-4.828856249770404,2.0938450456738016,-8.19591780502773,0.3120420413907853,-1.509719840807509,-7.955240906684168,-4.283093223429374,-8.557766234241443,-5.941337305784467,-3.106553328059696,-4.627233596522867,-12.870894178790738,0.3914015964822601,5.982792762546929
23988,,-7.256019261263102,4.127521543850899,-7.908777069428474,-0.4993086059007436,-1.4820241359586497,-7.71850172592448,-2.4583182091910327,-8.474021731310819,-5.069475011647193,-6.340666559344681,-2.7589071470484177,-12.635570555793183,0.6793192825253258,4.183911009081565
24238,,-5.194806839719327,6.962693266042443,-10.567526853406282,-1.0589689366843726,-4.942602832459107,-7.073276166521375,-2.5088845931960178,-8.44585189846642,-9.268913133946578,-7.5109954728356785,0.1976218196688175,-11.633171487583551,-2.10104790149661,1.8115916172946824
24488,,-3.664691644816618,5.6761575858105,-10.8071248947905,-0.967075113509213,-4.487545039950814,-5.034143777573451,-1.9780234037849147,-7.540168008642045,-8.052244666619487,-2.357879078653168,0.4018528763891874,-7.1110304343846495,1.0100095265085716,3.725209555708182
24738,,-5.699319791504268,6.675334258466967,-11.081999887125196,-1.5544639345465678,-5.969632321755533,-7.593801587075271,-4.841720970788336,-5.755555989742776,-7.634644196675062,-1.5584241720755887,1.4159685185691302,-5.763859855761206,2.4823424815469486,2.091198943676816
24987,,-7.771418234230878,5.005092001411403,-9.36787181771074,-1.6274862426099612,-5.126156975765664,-9.362995811790665,-9.966224013716184,-3.1372980059682343,-4.615751376055867,-6.1135835479496965,-2.142185004333649,-10.696651615231872,-0.0022050578030948,-1.3814799613938908
25237,,-4.431543033330917,7.11553245435932,-10.724287569807991,2.0139226251368574,-0.921208051312478,-7.648144989940338,-8.769411556059795,-5.8916899575715,-5.6251439612804575,-6.659471299236212,0.6425778983154856,-7.744250268632554,2.3394584709017057,1.0239681645966854
25487,,-2.051800598122951,6.642352273146135,-9.966209400648369,-0.051249872881255,-0.5406393007184753,-2.955944323401607,-0.4951779030409836,-4.425958566779355,-5.923240811264567,-1.7246354772289414,1.6197705167726797,-6.518810437685044,3.941198835949864,2.4701688471906107
25737,,-1.9672346220614236,7.754464904931676,-9.35229028763786,-0.6147536535369138,-1.915150412488535,-4.369359136478778,0.4224479924337423,-3.0533655437304272,-5.843945832466661,0.8479135380110054,-2.010463027071816,-9.267587595800572,-0.4839214026434472,2.29818808637771
25987,,-6.400210240473863,7.504054698622831,-7.117487123882675,-4.963699123104966,-3.626519709032044,-7.983006112382442,-3.46694814564093,-5.1204591573684,-6.478789542494519,-2.9532892333968657,-6.663163089254883,-8.705957247758203,-3.656838016083425,0.4358343145576593
26237,,-2.5988844076613598,5.711155903138826,-7.457497303800568,-1.049266570677342,-4.992648557428395,-6.450098471284059,-1.394829007368688,-5.948225550331452,-2.519294831281182,-2.8954230374164016,-6.4246543055997325,-6.0493635498013845,-0.3980491681320054,-0.7322314669684543
26487,,-3.678360079530829,5.103925502946755,-6.983300181284103,-2.094642432760485,-3.101849193902762,-7.2582367613778045,-0.448078428867844,-4.640801893865541,-3.699953692714204,-3.7960943898362953,-5.732700861944124,-4.980239898175058,-1.2050769527925176,-1.3519931156348486
26737,,-6.063414854823544,1.922222515833432,-8.907122936042523,-4.189129658765857,-2.070196004635789,-8.909855714788,-8.93045331049802,-3.2777312017693374,-0.7266381294616564,-2.4666170064577546,-6.190733411762327,-8.832604453039906,0.980920110374184,-1.0599214195342426
26986,,-3.6591746534708514,-0.3295655709007993,-8.649223333143564,0.0508896074852068,-2.4542907882515896,-6.704059612608467,-7.315028756230601,-1.7908700043784624,1.3162094028994795,-1.8013648213951126,-8.673425439376912,-10.489198226875388,-0.6653951100401083,1.3116721106643876
27236,,-4.032014588254075,1.6756548299137388,-10.794999906281618,-0.6857724532209435,-4.95165505482505,-5.691338239023137,-5.108631555155875,-5.78653701255111,-1.8570578160224531,-2.7960425010813914,-9.055626391656627,-15.043625664037492,-2.7778447738885554,1.4881669973007905
27486,,-8.529433418026661,4.128840528992316,-11.63044608506384,-1.841969865000788,-4.963849975122639,-5.478535748824729,-7.350049409540789,-8.84597649452198,-3.084560862221266,-3.07780417917116,-6.353990748442718,-12.939762811345856,-0.9354895231640228,-3.9804025951948017
27736,,-12.563117675465731,2.543647946525373,-11.124963485245772,-2.649271497710884,-6.804652131866661,-5.538740838640729,-10.053365542567104,-7.596974342682925,-0.954595249469379,-3.52520914571476,-3.974409045918291,-10.40163440802388,-2.6134684551311245,-9.90744673762193
27986,,-10.041930163516096,-0.6326721739868588,-7.899911761727437,-5.770649293609336,-6.416953583424434,-4.071844419156522,-6.344692577737639,-6.519340738000906,-2.252752084349164,-5.409571672705498,-6.484717928256089,-9.489401393190228,-4.725875893272802,-6.434616065428917
28236,,-7.017091411144717,0.4698435311422506,-7.510488715197012,-8.233101265760858,-5.000929702640802,-1.3640082113840022,-3.08047048822738,-6.3974485726460095,-3.728294621608412,-4.565726573648983,-5.251269503671036,-7.138667675439793,-3.7275205302391656,-1.0990356211583032
28486,,-4.002389323939173,3.329396610428843,-11.827972410302028,-6.004340203382189,-1.070181379935396,-0.7065112967788474,-2.736578389448709,-6.423257782499512,-6.038594750038875,-5.400087639059975,-5.473986635291489,-13.412887398668207,-3.7276176207125182,2.552049284515854
28736,,-5.542188721172385,4.223071549436698,-7.970181919691587,-5.6093100612091344,1.5352508885714284,-1.2648044055968044,-3.307965700160832,-6.709937778326602,-5.5518281468512845,-5.773037502933565,-3.84106648811511,-8.393216003837153,-2.0475640731543896,-0.1177150379453645
28985,,-5.782571869288446,3.715426967578432,-6.168477100982578,-9.41992799994134,-0.2017171067996831,-2.6449357438159926,-2.5383892547397835,-7.288436874749036,-5.9465990853967154,-7.347770437653869,-7.102206057596697,-6.612626578794821,-5.046075342671906,-4.533046550073814
29235,,-5.078977507292492,1.569260968215179,-11.936158920493234,-8.323515650264126,-2.405234304355964,-3.8543077352334185,-3.975129411509315,-8.045443402811388,-5.925532647648604,-8.639714736160016,-11.11208688365025,-11.124904766882077,-3.2650935648896118,-3.411892018815064
29485,,-3.0132469382339133,1.2219880769083598,-12.779884645704634,-4.513223976010915,-1.7243688946903517,-3.370275167823954,-4.622144602311647,-12.29250252336401,-5.603328247303308,-8.053089602820222,-9.283686711441012,-19.96813271759501,0.4095494350971818,-0.5753852953232139
29735,,-6.222840586933661,-0.0860398974465344,-9.992562946405954,-6.396255279743617,-2.824360226870564,-4.130018243844507,-5.471383083649984,-11.850127608213718,3.249292197905765,-9.29804856519766,-7.111342707588556,-15.561825412391766,-1.7558342729291505,-1.015185164297483
29985,,-7.096158710671467,-0.3565292133504658,-5.456356940576194,-7.101949333197196,-5.260652859189097,-6.740285524638827,-7.28044890365123,-7.561790774960451,3.671595512585996,-9.011378933985652,-8.75161234261226,-8.354458839377072,-5.951032095534799,-1.9708212368110885
30235,,-9.211083054146398,2.097710178496626,-6.84535610792639,-7.775425846160128,-6.769403667369294,-7.113972747365409,-7.387330414361295,-7.0727261119101446,-4.454868428630928,-7.8056371399800355,-8.468442774740472,-7.231326285358604,-7.209301326504439,-0.3035299743114114
30485,,-8.802708223757548,0.6788430350722869,-9.737744657537096,-6.65542974393354,-6.220633647357601,-4.850433440427243,-6.474054760750749,-5.713501277395112,-4.607579284024706,-1.8464453092839244,-6.2636736046165264,-6.264552520009746,-2.466167794615186,1.177871183407432
30735,,-6.480451493510726,3.036862137045477,-11.317015736873552,-3.4651988547041475,-4.608872310641207,-3.037295095487283,-5.227593839752557,-3.8088722357287166,0.4416460746363232,-0.0146721406244159,-2.748771255595993,-7.003021141036932,0.4355095483031829,2.430642690073252
30984,,-4.060567753542552,4.464801123117035,-7.217923722365622,-1.4527798147212625,-5.248276589433908,-6.810610432289829,-4.308212027247055,-8.097549429890574,-1.0437812685299417,-3.062773300471868,-2.9208650891303707,-9.36767411400141,-0.2626250422179684,1.9783947558603756
31234,,-8.173775788723034,0.813670746648063,-7.092581387913024,-6.876477374106416,-4.171206814202765,-14.325356386673365,-6.712565313325186,-6.309240501080131,-4.58764451876001,-3.585739755582381,-4.901999126122826,-7.579347679694797,-1.87073600762562,-2.4120573740446787
31484,,-6.910102071274345,2.996249322014388,-9.566082377466532,-9.037627143286135,-5.371346424459482,-8.3849008304904,-5.575711829700283,-2.9061891667656283,-4.126010112048066,-4.768042959251502,-5.733650067626199,-8.915350097021953,-3.7749210631462393,-1.527376287550778
31734,,-2.087998201974137,2.859288892321974,-12.887071502805137,-10.115428357735038,-4.030283932436404,-0.3821174464872979,-1.1931833911635774,-1.9990684746727605,-6.630709002738274,-8.682534570240302,-3.2630403669202,-9.730864982764782,-0.1970364881463057,2.446584039155577
31984,,-4.255324014621793,2.1838153357227883,-11.229076666845764,-6.274724519482754,-2.381203781938045,-0.2336533996720186,-2.0354885941395,-3.3409088797916477,-10.411512729737264,-11.26203926380003,-5.125261925042629,-7.793809921767578,-1.5352619681436142,-0.976076745752969
32234,,-6.701008814976794,0.6466995797364943,-10.454889118746058,-6.053676076431835,-6.302312857975957,-4.6627839000282245,-5.787482107575209,-6.715062368499092,-8.987644007565985,-8.140994934969058,-4.944019511833013,-8.598600869579782,-3.8332075427765617,-0.0381315524430612
32484,,-7.048254174202004,2.747205922193264,-8.785769964327416,-6.923705395609603,-4.244512528492953,-4.142533031277781,-3.614143480737324,-3.538072271690272,-6.955313933262215,-6.112814886351669,-4.387335250402245,-7.288150617575974,-3.886995536572266,3.0728512821031218
32734,,-3.35670472403398,0.2297543799438738,-8.786150948247663,-13.470463023881909,-4.479407007364037,-5.406394384793565,-6.405715007698132,-4.3806000160506455,-6.032361719327581,-3.9512991048939226,-7.495026261999495,-8.882242970457257,-7.318547541840905,2.5640279330739304
32983,,-5.088593089535609,-2.3442441060664585,-12.046213004971143,-14.576224642810354,-6.025812426488356,-3.608096240765299,-6.703547899414878,-7.563100323609559,-5.391716910423393,-2.9227636624743383,-9.41258707584402,-10.563355004759728,-7.278147404611364,0.1355298752346959
33233,,-5.029975013894968,-4.465384795045941,-3.3292064317923336,-8.197240864517516,-5.760208892665213,-3.0163991647158186,-2.329500784785512,-6.2221095174888745,-4.104185308815424,-3.6038014187024894,-6.608204810665825,-4.354633844341793,-5.638826886811486,-2.460823936025979
33483,,-4.3558092053763,-6.057852687262688,-4.8922932213866,-7.242477756576373,-7.239019697855724,-3.1160013744806103,-0.7542276836831048,-8.047465321166982,-5.874767746724924,-2.530710874052791,-4.175528494207185,-5.584489575464562,-2.198211141692044,1.3645323255683943
33733,,-4.296531516352432,-5.8187443682576365,-10.020640048400516,-9.541213429827602,-9.054663954131422,-7.307354984332339,-2.563248957122576,-8.923540889181464,-7.089513685972076,-2.88012328656651,-4.962857119849554,-8.079821636722496,-2.4693986161200527,0.5742064538080762
33983,,-8.22081668923807,-2.175907325910789,-14.46662491631433,-12.897180036030983,-6.530358557715244,-7.725132661206645,-2.4848468481284582,-8.115008846521627,-10.55030747986056,-9.400093564225791,-6.596414794003724,-10.891679692577902,-4.379526192113397,-2.0899384827578817
34233,,-2.8524813644647,2.6599586655567853,-9.252447024801816,-3.367445006173857,-10.982783811997678,-9.5663615835406,-4.253073979968292,-2.690540483884603,-5.034804723157035,-2.0470721996091705,-0.0701093740794522,-10.443790510915672,0.9943174884735112,1.551381329900211
34483,,1.6077475756952675,7.871180110148205,-6.554063738724518,2.9324340371968525,-12.42384146154767,-10.219344816403408,-3.438794361516968,-0.3763244712553788,-3.706310661801631,0.9747360417593292,5.392290152282167,-7.536570068043202,7.11510662019232,5.296262818431776
34733,,0.3986664644861842,5.080983080785385,-6.4633480365440885,-0.3427772074541701,-4.516129194227759,-4.617373885895621,-2.8792566984365258,-3.168894956353367,-6.634816507341887,-4.183966739441241,0.4872367150131652,-7.020959633947495,4.07263960913859,6.464583736443514
34982,,0.0674561959553651,-0.4429604718510995,-7.94378877212737,-4.380549187126897,-2.212899385172671,-3.230496030310273,-2.333943573233717,-4.7464510281652,-5.566738693796641,-7.217256351657616,-2.6729936986175784,-8.442537303978176,-0.2035901460820461,7.425522848793211
35232,,-0.997787612564442,4.836423441646608,-7.405279083243852,-5.514779087649809,-9.362755395652067,-4.623908952144183,-4.425752708647787,-4.860556410096656,-2.5831352385230506,-3.1446283330319997,3.098411637569321,-5.647010506460134,0.9948203987443216,3.917793734737644
35482,,-1.996442078060684,5.108473802715157,-7.408299205596128,-3.497862479168705,-7.333551556517557,-4.349592419201435,-3.276216822810177,-5.909015095689297,2.654088715938566,-3.084691465071562,1.937854210776808,-5.6075597592867865,-1.486355075496346,4.769041510159836
35732,,-1.699789886742621,3.366706175715107,-8.762322355319743,-1.2013752242585176,-4.189335907230148,-2.3814569836612427,-0.6473824978951332,-1.8153410199114373,2.1051546527742064,-6.381540754151337,-1.705624272158314,-6.686853293810121,-1.5765811446549076,2.077916532834603
35982,,-0.2657945030014658,4.882695230896337,-6.882833396235212,-1.4526665786153794,-1.4972803181998646,-2.1752083914792437,-1.401222286853908,-3.0529272040977946,-1.906596273978685,-4.389653282545051,-3.197255596575567,-6.545302569728645,-5.078851533242741,3.58373801304434
36232,,1.2173931352325909,4.245691702375677,-5.223429914833016,-0.6749719535018767,-0.8264859695512385,-5.897817631896429,-6.1245889487398895,-0.2629246758465959,0.3986654550598522,-1.2268089540451863,-3.592697181154536,-8.325864313724104,-4.803996954822062,3.836741468797311
36482,,-0.8586925538192157,3.264986169543828,-6.985374476104092,-1.3764675604877858,-1.6724506985230014,-5.505148353251778,-6.353642538960975,-3.178654163728565,-2.824196624962687,-1.1346007220203511,-2.4057570536127395,-7.710486352648644,-1.135676701208465,4.785185338904899
36732,,-2.701785453647428,-1.8481671932808736,-10.940796729841413,-1.7901666940070404,-1.3504851245100435,-4.540985299479652,-4.853996445547605,-3.6529783841491614,-6.129382109572202,-1.6901651716613062,-5.271135651005388,-8.441641776058962,-0.2145955559175069,3.7592527758188377
36981,,-5.372896401764712,-8.828276572707974,-9.500614186019812,-1.8853350724446316,-2.9592841726723145,-5.462316605859606,-4.463237733829341,-3.974385900709392,-4.927066216178045,-6.053848441953409,-9.014536674329406,-8.299964059568465,-1.3610749810075184,-1.258915444982479
37231,IR,-0.7169483183265515,1.904322187656077,-5.754111356412052,0.9084806412572086,-0.8686477275896545,-1.952007937264292,-1.5952047230706663,-2.900503896460376,0.207263292795679,-4.678825797358987,-4.862054399793963,-3.679254133969256,-0.3259839721985531,-0.1926816677236724
37481,,2.0767723700544325,6.22018058143024,-3.975015344692665,-0.1664773586658096,-0.5313009744918,-1.5174547901453064,-0.534955279622439,-1.6754183168753798,-0.4163703761887808,-6.101134111226996,-0.2291451594426231,-3.3199229804440646,0.8039024571631694,5.6469399361625126
37731,,1.420215864942434,7.118882905770127,-3.3687679920510494,-0.3386508419990327,-4.01925093378237,-1.610408407585913,-0.6663765241567596,-2.020058638808852,-4.69226285626688,-7.569645600844625,0.6871021924031924,-3.692239686794201,0.7912898677636162,5.774578840649389
37981,,-1.033244946029515,11.933090166435289,-3.5724146174723783,5.919563936324187,-6.019131399007285,-0.3778939602348366,2.3370617293374103,-1.9899980812848197,-2.2333130744274845,-5.171857790123222,2.699923222741797,-0.0722850885527697,-0.3652521101748425,4.398508769812951
38231,,-1.940449553098265,8.76609873865962,-9.6852477833002,3.9333678043720126,-1.8375511694789504,-2.382263202874303,2.0921074770090917,-6.69351284804053,-5.105246567452736,-1.336825280011697,-1.3846413761086187,-2.1097208765222706,0.5551278271322144,6.125438996416587
38481,,-2.5649701154697917,3.69503048595302,-10.078055844777015,-0.2880159572650191,-3.201853842193127,-4.654424510753927,-2.333749616057692,-7.986733868385968,-4.100090612859175,-2.298713186975422,-4.948616588363303,-9.618504285219348,-2.878809750017432,4.132399518215556
38731,,-3.9881755287257135,1.8196408210375536,-7.936269578303023,-0.1329284947733091,-0.914356108245504,-5.154663142005564,-8.160201386027811,-4.528018915277334,-3.083354368599578,-3.394551048112157,-9.00415329989475,-9.183315877328528,-1.6843359840071963,0.895439711845712
38980,,-6.556994482623408,0.0085206720058552,-6.7259092019339,-0.6740708898169495,-0.0611719208977755,-5.089129319761382,-3.7280688741269694,-4.547923095665338,-4.898057213150782,-1.9914179316976244,-5.411868597843056,-6.819139147689379,-0.3681407615753724,1.900932717119464
39230,,-5.819228416601393,2.1636892205018423,-8.471571634371898,-1.8814409472875235,-2.498813502444932,-4.980261619869056,-6.0723167309185335,-7.256340844611762,-6.164979466301822,-4.708200364100645,-3.149917407359818,-11.165948743444591,0.7784497034007877,0.2734437857801997
39480,,-4.160507672299089,-0.6095425769558287,-9.733995887180615,-2.2880164614095198,-5.056602535749707,-6.024354193749717,-4.016871133711176,-10.190724646933608,-2.5269243110235218,-5.420279962815497,-7.238885612442023,-9.770122661632564,-3.3098819364407515,1.5588714809064443
39730,,-1.2213969107606486,5.94764786416003,-6.064399640216188,-2.218885387757333,-1.7520127789612825,-5.754529600270319,-2.8876497465205024,-4.777358777094593,-1.508825699304427,-4.824083921380292,-1.907001448393549,-4.049319141641,0.5121988766823291,3.852255062961527
39980,,-1.0056135085074327,9.452438053731184,-4.045943442723629,1.10022849375985,1.5703136232039667,-7.074951427308651,-4.982958731703127,-4.910865509682027,-0.6386771197418959,-3.7121856716852215,0.8569184842458923,-1.2201941763674948,4.574632783842211,1.925814464453071
40230,,-4.13523338827022,6.561733673350547,-7.285721331653132,-1.4028495810696997,-3.2700155090311678,-4.209841576782862,-3.992897264082028,-10.502149886121916,-4.054765126704172,-3.974025917202832,-2.0323234041378035,-6.452347655652234,3.145322148277379,1.8272525866402576
40480,,-1.694423167346285,5.446568992503556,-9.696249854396308,-1.7907271435952477,-9.03383909156186,-2.3717052825009093,-2.1863133637990195,-10.277303372287392,-4.750904583058907,-4.235292139672344,-6.154193563997899,-9.780919839177086,2.1606278474581657,4.018028079805855
40730,,0.6452596527637477,5.1393672106031865,-5.818634125126176,0.5158907858178567,-9.091542082522428,-3.058358885982189,-2.213676898957728,-10.569435422879868,-2.8761370333229044,-4.167282493787484,-9.60930285912982,-4.995182863960085,3.5580630853866078,2.073865286889368
40979,,-0.9536632663608684,6.295303216265562,-6.692810549974259,-2.412194502645708,-5.637523135333287,-4.2140416532065785,-1.829469581186451,-6.529264298098787,-2.0713266262111,-2.837084526048734,-8.149944898028945,-5.949770744273523,2.837001188593655,1.9620870646019977
41229,,-9.695593451207522,4.854841161613972,-10.67754305194943,-4.841441582198256,-3.297645527377174,-4.619434976516102,-0.409248886059132,-4.086071349981374,-3.732228823483838,-2.6334625563069936,-9.270870118530176,-7.679318668634134,-0.9902233399408076,1.425808620333037
41479,,-6.476746818780771,0.5757753483520298,-12.321264580837251,-5.029336598450749,0.2702851694634347,-4.857424585847,-0.9130369123244728,-5.924541739377477,-5.483300806256587,-6.247606569057598,-9.615139481062512,-10.75513227250462,-4.978399095335935,1.9176074134509848
41729,,-3.97449714106231,1.4883343696848448,-12.115624009981424,-9.236097538639704,-1.0587646886138642,-5.787918598877081,-5.096828740848164,-5.961949826809172,-4.615824035843215,-5.376117450441983,-7.774471397274148,-9.378350955420805,-7.864687812791264,-0.736312832753684
41979,,-7.0413368352725865,0.9048515732869346,-14.36383634285998,-6.681828800638443,-1.7306370985787825,-6.194336765684115,-6.717115304883016,-6.044317605394532,-3.603581409981569,-3.642626349177584,-6.737162021640451,-9.372950433015015,-4.750652073116847,-4.03031008428787
42229,,-9.871836052139589,0.1128472727131957,-13.475449149854956,-7.594256340265366,-3.911137811132461,-10.472484625356442,-7.498869706791254,-6.695929619589796,-4.800662699420919,-4.65496753903203,-10.40736088437187,-6.159936488089674,-0.0050663516490396,-3.5229465096740595
42479,,-7.210838214840196,-1.2647268461811925,-9.79270123211652,-5.805319867719519,-5.8969431441440525,-10.504448471361712,-6.600471993071267,-5.704389070951752,-6.949534078809028,-7.675816305593956,-10.960477986642278,-7.599869196753302,-2.4663259877286645,-3.212506448334364
42729,,-0.1938868908839274,2.9964810452379096,-4.328173955546594,0.911684884313789,-2.020627954949828,-6.782443968338874,-3.968707723696782,-2.271215891335395,-1.874691988209498,-5.830005215792939,-7.95408079654769,-8.329720038653786,-3.33326569191289,0.0692443245847719
42978,,-1.745049820845797,0.395300362980709,-7.368336965188144,-0.6342149831460496,-2.303564584343404,-4.713259241969295,-4.533742266928796,-2.179319595240752,-2.1660914686338097,-5.840937058273779,-9.403303226714453,-7.572470835883695,-3.0080868579457247,1.163721438069437
43228,,-8.334381000937276,-3.093805561147977,-5.468383455594948,-6.0738591735578185,-2.040020885237119,-3.267723348778686,-4.661086056976738,-3.582068926614311,-5.352260133510864,-5.698321463500622,-3.4936950365794046,-6.286791354867086,0.6439793879780551,0.2916268162972001
43478,,-6.931436849869347,0.9712163922422392,-4.349535477333612,-7.010871838599433,-3.44975737955186,-4.950340894934576,-5.204748348116515,-5.379241397625133,-7.220442053847439,-6.257051487776263,-3.7538590847978415,-7.675134424699848,2.975067192814604,-0.925283417696358
43728,,-5.929338173061401,0.6524350224976988,-6.979874544761808,-6.050668210794466,-1.2348612780729793,-6.277058321653897,-6.180764813218591,-7.893110764876265,-8.877656869363701,-3.7248489651496905,-12.079242040820164,-6.047242077264345,0.0825117260047586,-2.5683126942842427
43978,,-8.054061898393673,-3.220895145520317,-7.403988626646019,-7.501846332601787,0.8597374921242102,-8.964983657545377,-2.7344019321273985,-8.727359178184198,-6.983057793225418,-2.672841859210312,-13.357237750346677,-3.462553040500193,-1.7885759254299067,-3.0893805409482
44228,,-6.864335716098601,0.789281363743649,-8.344119565661355,-7.275600015495725,-4.188453885451674,-8.383664240537872,-3.4646660873866124,-7.263088369581741,-7.646322683370855,-5.2242649257186855,-7.13730998974302,-6.910647163249769,1.424267995828321,-0.294974301070403
44478,,-4.114214336053836,2.4062175353751067,-9.3528867884086,-6.9433718979460055,-7.753887387223494,-6.647644790421296,-5.923366528514268,-8.307676634280782,-10.082811889331913,-8.512015840554717,-3.993105041148077,-9.493173573246304,2.3772506231731594,1.7905110315790973
44728,,-7.186881667114841,-3.922420279309175,-10.877957819314684,-4.726343741320563,-9.815457948170865,-2.2539078751834194,-7.134726715010097,-9.122894157954796,-3.892665776970664,-5.99552499878571,-4.5665759370511285,-11.620332967080786,0.507877383555829,-3.075596872284785
44977,R,-7.118089477783574,-5.709028263327252,-11.264053995239236,-8.719799306845305,-6.539999857876783,4.0981796079572685,-9.71302406161893,-4.908114971209637,-0.6716133147149934,-5.150110299230107,-9.747693029851533,-5.635516680633296,-4.452014845877691,-6.063145333705938
45227,,-5.745149896160212,-4.816251744470375,-6.341828878336583,-9.244613114279865,-6.434817119621452,0.1579133855266445,-4.9313236743216775,-3.5793319265015526,2.2733003104303355,-1.7140982151288355,-6.8670401595589325,-4.660611150204312,1.5145810512180669,-8.253732354421063
45477,,-3.541146768542598,-4.617013855186247,-6.061850721621603,-2.3513477705955927,-2.8958286704003653,-2.357256679210404,-2.3625049116876804,-1.3264621135677075,2.2794160388389733,-0.2496355584418363,-6.791670105833951,-4.7353477088001,3.865806873263282,-1.8722649229620008
45727,,2.470536277971456,5.334478320972565,-6.476002188608265,1.950918513951384,1.5454715077118224,1.0667406156553596,0.9368972191168788,2.2899950540097964,2.638478783967627,2.5108647357761207,-4.806341794015568,-1.5058536005763172,-0.1385377175976298,5.857741006307271
45977,,1.53601362556265,6.400244637242607,-9.350373117188669,-1.7397804109620283,0.315563914346237,0.1517224671294911,0.4674658828616056,0.6688573916305522,-1.493020527812242,0.103424085064353,-2.793947626908122,-1.3461216855973193,1.524827527409547,5.688165152951107
46227,,-2.3813022809932707,1.0648593927319674,-7.8352859651053315,-0.7707234151589759,-1.7203658455901532,-2.2319436971793496,-1.4000672152731402,-4.572060380283936,-5.929741341108827,0.6587253446203435,-1.6603687081954253,-4.137157470207622,4.201294932911225,2.597479512184216
46477,,-2.352759741322693,-1.4727266639795284,-7.277463866238232,1.4893923982002195,-1.1896050204908046,-2.9699173137939545,-6.525464332853447,-1.6139093404766052,-3.4127667094645604,-0.8961916176381537,-2.0700191746579617,-4.5192284476796525,1.4632583140187672,-0.6514290681185748
46727,,-3.627149802000238,2.0191904836428964,-7.908528394289598,-0.6512985677334899,-2.1898443357857382,-0.7914843550144707,-4.377147078630317,-0.4403814327991255,-4.7239721199099165,0.1067037931888648,-3.5726321901388527,-4.337583463214799,1.0653936479120134,-0.5081558225520023
46976,,-1.2865819216355137,5.834330005526873,-8.465063046466415,-4.01935342263333,-7.295752295988133,-3.015194086324085,-2.1578574609866754,-3.9623546063929114,-6.975860692217937,0.154699292679395,1.71369422293409,-5.776840901556604,2.389505124800744,-0.008430287423483
47226,,-1.074410605846797,11.993919110401537,-12.57721066874706,-0.3471186128926037,-4.545044673853782,0.6511192149449048,0.2369013113383977,-3.689579538376778,-0.7584805448301044,-1.6216542218353407,8.312244952417059,-7.720400446382294,5.974003781583923,4.123110288055556
47476,,0.5450535140536681,12.450504980148766,-13.89214004522838,1.5036563130939635,-2.2329071143868644,5.07793801588181,2.612541507861944,2.5544722176433736,6.506496273780872,1.449447811825309,7.767032847426641,-4.52040570025223,7.375570323399768,7.482543319911237
47726,,-0.6017863781395332,11.351989408640812,-13.783941269265318,0.6128840672377033,-2.830986135618629,3.466064672874931,0.8490802581876532,0.3854909315171327,4.79103561223043,0.8373603499458468,5.418670779965532,-4.653503764761851,5.761556703114307,5.896305829908339
47976,,-2.0877600809641934,9.391225869296496,-13.203993322714068,-3.438481053615456,-3.119312053865175,0.8763365384866405,-3.0512559746591217,-7.889911485283081,-4.090964770639284,-0.1290441387666127,4.609742822926819,-6.392675532273298,3.566555314151662,-1.27601187567138
48226,,-4.144378157410871,5.608250369642221,-8.84543002345741,-3.186719526256821,-4.644799416725837,-5.163357431431136,-2.8414857039823787,-6.7752446481814586,0.8321879425829084,0.1671968230487935,0.4553312488150982,-4.144272912413578,1.979909728897053,-3.944841287803885
48476,,-1.0827567740225517,2.6206520571423653,-6.5091258274173525,1.4807353102472631,-2.8966605943803008,-2.071209572806892,-1.7303035789702037,-1.503168798844515,1.93416475449834,1.8342329033145144,-1.9866924218832391,-6.630908924864448,5.436906061647263,-4.329728444483823
48726,,0.5760394932248252,3.0696041715356035,-5.121929946457406,0.8951820557367157,-1.135413223721806,0.8505631993901346,6.235484573110902,1.151234932596928,1.0855480243111075,1.2519939837495688,0.089280518324733,-4.183267732610422,6.842851915075979,-2.345098514272419
48975,,-3.1905911852963054,2.175289383594237,-8.122379205966393,0.1253195787668983,1.76210136276896,-0.3149772415612489,4.973851528049326,-1.959906076380361,1.7596510789775264,-2.4184703220936528,-1.4818049027179414,-6.805968444956774,4.499090735162547,0.0758691535957949
49225,,-2.87597564017098,-0.5474336184432719,-7.909131710258244,-1.6108501667889632,0.961223783381062,-2.7287214713732384,1.305147750931808,-6.07622861146802,0.1969242051363953,-2.4366476906297683,-2.1066706359167524,-10.718913614040012,2.389892130817962,-0.2976529753227271
49475,,-3.6278765540267335,-0.5487610063617213,-7.651533134054089,-2.8589417325485016,-1.9725315049349543,-0.9894974545541548,-5.673256389637899,-5.720813023893147,-4.22467215320642,-6.312688365883247,-1.9406720972430145,-10.45886527195118,5.507091134895007,-5.2876818878541805
49725,,-8.19265372734911,1.2904820873375054,-9.65764855356754,-3.9396767884240425,-3.454633788923326,4.312135775358836,2.733716018406146,-5.027821156613349,-3.803913682228261,-4.986368282667133,-3.064980965109036,-10.24110210157948,3.6785196339827664,-5.147699138507555
49975,,-5.88212349187994,0.4999929286297471,-11.720922064366157,-3.631511779428908,-3.497241111418943,4.699876818982589,5.914826660528986,-4.59939051243416,-2.746877209310004,0.4282965136680187,-4.941217271890503,-11.812496212561934,2.564133245376043,-2.065615885288929
50225,,-2.280421592799753,6.723348920038294,-9.4703707548281,-4.676957747156481,-3.527481230399452,3.6075295542755,6.893831707983487,-3.133887268841536,-0.1013610598238454,6.875860861892631,2.679802424679958,-7.2262002715294305,7.674963941337216,1.2485205695394122
50475,,0.6103531275119798,5.649479135734269,-9.73721944220778,-3.174250776236613,1.412830930893468,4.193843960446899,6.068050700263711,0.6107285075140492,2.051314585535551,7.5839248913321295,5.776148458544816,-7.031091530645855,9.38682400182149,4.905774639069218
50725,,-1.597637094853528,3.2852849238504183,-8.628402141592016,-2.4788492633538697,-0.3695398629482532,-0.1522621711310044,0.5327501332701275,2.6616546131702474,3.737761997051673,0.5243391320148432,0.9462997698702952,-3.962705992897045,3.0944363744388625,5.094174327674241
50974,,-1.674451205693675,9.12954692143848,-6.164408540822,-0.8210442670844798,-2.00808243161569,-0.9010385754790003,-0.9485162274651516,5.036356128909088,-0.3119272429054807,-0.2002775052267816,-1.4026451785851108,-3.0586857245381043,6.143493779361261,6.163438728608451
51224,,-3.104253652516057,7.004835029709043,-6.7209529302592665,-4.548268509356074,-5.550304079163226,1.2293605611663028,0.332424228897983,4.278416128374541,-1.4642077338290236,-2.3650835547186206,-0.4092554786549125,-6.103505384628075,6.151124430007422,4.50933346149059
51474,,-2.074699444424227,0.4366180847459163,-5.547665040693883,-2.1315020048733806,-5.778208899727547,-2.6782251753349504,0.2893466088998913,2.258566196127349,-1.224220588551033,-2.092175535455213,-2.20623129821146,-7.030692325585948,3.241158205870685,0.3693950231531581
51724,,-6.175013960912357,3.1782323190688446,-4.699303225367912,2.822575261517356,-3.018428416916593,-6.98225812420032,-0.3246720743274495,3.491420868033224,0.6167773882197036,-5.516522093122331,0.9366534014488536,-6.403577613286549,2.797154227764877,0.5083921449720327
51974,,3.2390678145621536,7.496078423179506,-4.143663675500634,3.980345437456711,-4.951476789128144,-4.600137219831819,-2.535991883366417,0.0728174292176382,1.0088507619993812,-0.1864150115771055,4.611241848465598,-3.298844216057645,5.885272171604284,6.873851251604658
52224,,5.7643345400203385,10.884251938465958,-4.574223678078542,4.511034798610218,-2.66064016690899,-1.3310274015799903,-0.6000119181755046,0.8950401088427908,0.8569503540516481,3.3917871460160374,6.595361989947108,-1.195363053141282,9.91917204120807,8.62165289105836
52474,,3.251342741581163,8.0596939517431,-8.759729755728175,1.212482405006622,3.084877446308605,0.5992423357081632,-0.5765267375855796,1.0660640302924782,-3.8378847273969368,1.1046559750997804,0.2120429730154583,-2.8167292480403057,9.55020456176864,6.234517542914181
52724,,-2.951441666986608,8.657751849348053,-11.75725139799213,-0.30145679788776,2.774337308598028,-2.8655238250380366,-4.828696581059195,-4.208806644546549,-6.0605364257481495,-1.7077627603991483,-2.7130901401904324,-7.293997001540249,5.096581056819059,2.701882342105547
52973,,-4.246125627657703,7.111043923211318,-7.8577029622403955,-2.719180720726881,0.687456038081651,0.6891806504603961,-2.5853741876349123,-4.913714924760605,-4.172127340858425,-2.7850146570456973,-5.243057193718458,-4.356779435443086,4.301982727340067,-0.4453194422713712
53223,,-2.596332301054274,9.899376438209714,-5.364377341082354,1.754036272444164,0.6155836001876793,3.646836672516772,-0.0816594123250092,-1.8876655311536128,-3.300447747077127,-2.1177315333983437,-2.8062107510903957,-6.867162292585116,5.756393499552503,7.202234228196981
53473,,0.8489975628779195,6.315989898570748,-5.92444870806474,-0.5421530137056882,2.657316951985404,2.9486958305537305,1.079574433360189,1.7565557862598091,-0.4736506783778715,0.8369754854766227,-2.1062655088557163,-2.3618710416373165,6.91921931533231,9.699092011939603
53723,,0.5834431478605382,7.328623453296533,-3.369010763066239,5.508447032988254,1.780832927770189,-0.1164891089157066,-3.0790576616987626,-0.2962742810728875,0.6289427530647613,-0.5285386582943334,-3.20680361177119,-1.6671477724923254,5.3426771775929724,6.228843869693329
53973,,-3.5245367277092243,5.5445132387374985,-3.5761040724177247,8.966275648076676,0.9519281396776078,-4.604300727688694,-0.441481109543733,-3.066961957625969,0.1113963127988931,-0.0160118373182367,1.583050842736117,-5.577202716159981,5.204797296685952,1.8009091373237571
54223,,-2.656817827380768,7.286624951511022,-8.791582864286179,6.1414230895445465,0.3988688250509414,-3.48348903148838,0.7798515090374779,1.38228957296308,2.3950423177332096,0.927994421217654,5.021948584888303,-6.690286910934601,7.558116730109772,3.64071870998134
54473,,-1.5636558595457293,4.77625149095527,-6.323643090440337,5.252105877033508,-2.317971706794099,2.249611182574568,0.3547239352374831,-0.1860687174101543,1.307144789117576,0.1774611897820566,2.504362199245291,-2.7360588858918744,8.4522127633325,7.327580684280632
54723,,-0.880609572799591,7.279472614504943,-1.302550023948586,6.435259810722962,-3.909208705533996,3.44546736184002,2.1590063239267736,3.075717720418752,0.769769115569001,3.4398234589206056,8.88055172822892,-1.7772779091374962,5.723379925337887,9.718008888842585
54972,,-2.5324567108602647,9.2473165889588,0.7390012995960488,5.417239767519493,-0.0934157166738173,3.3028325726770764,3.059425449572004,0.941278029388382,4.438129307938979,2.310907746056441,12.47389913075396,1.2751243010895454,9.55839645378121,7.9609639976394755
55222,,-3.2678205232890973,6.317373029470764,-3.28128926496752,3.895572649739046,0.4381185281795007,4.041005395592895,6.160544490761315,1.5289367188680425,4.599667894082955,0.775092982372818,7.265281680154633,-2.493088321301382,7.954480094653118,8.511086085020127
55472,,0.1873881296985515,5.958760957154458,-5.197148037151969,1.36370185560324,-4.182192891470705,2.573696324349148,4.438171493127118,-0.4905416225413374,3.201680412104015,1.9799914899694115,2.2217235464555487,-5.529926969164225,4.73206014662358,5.0774523032597765
55722,,0.0762863749407205,4.638175069835087,-4.837068235489435,2.366537228777437,-0.7437004065085538,-2.6799012289442645,4.6793037062273575,-1.0375169357651517,2.9927295947234307,-0.4906746414838253,1.5075877020691484,-6.099416134708556,5.627221031907882,6.200281923300739
55972,,0.3255421493150046,4.1232499938026725,-5.136309672647639,2.286612226116062,1.0411016504432733,0.0908289835351897,0.2368511396989475,-0.553929156250055,-1.1986093628291368,0.3011964643319866,3.477611381576322,-4.711664944841675,5.288471458587306,5.780388357451846
56222,,-1.889411013073308,7.552246567343984,-4.84310501310672,-0.2394658637454533,4.48511406340721,-0.2165655305352982,-2.036476887579789,1.4249031628279032,-3.299161548632315,0.300127940939899,4.597504279100013,-3.2731618236665625,3.9591368989432976,2.76993556539492
56472,,-4.356870604642617,5.534642305805076,-2.7707450600620915,-3.826309659995453,3.946735185699553,0.0793975322892355,-2.201470443769578,-0.8515157151625942,-5.862538716650288,-0.5615675275717742,1.4787445661973764,-2.948042385983876,5.091956963898179,-2.984526403545296
56722,,-4.626358235115013,0.1946106191930867,-2.354469584986333,-2.730634950635169,1.758457899171836,0.102066669073301,-4.484926242551884,-2.5536745983626274,-2.3013764826809133,-1.8839750879522243,-1.4575965580708417,-5.387590379050068,1.5834871307613287,-1.818888634527702
56971,,-2.257693638877289,0.8260832039582873,-4.54400447578527,-0.2252368302415119,0.4590006258472931,-0.1904394258201519,-3.662689342156316,-2.113001756794879,-4.803428928898287,-2.67730317440996,0.6568410954352735,-8.924768151828372,2.153811639883652,-0.0691621086464581
57221,,-2.4419179580486707,1.3986155806059362,-11.49839181533187,2.1197680205388507,-0.0838071748844754,1.06520445748809,0.0827782736830361,-1.514614167383729,-2.009835359370151,-3.0737684310779656,2.898285739956316,-6.305641261115546,0.3576013307071459,0.4489124416361084
57471,,-0.56053661228488,0.915961799388712,-9.192258241506917,-1.7158032324439536,-0.5861993130902866,0.6438266974868907,1.4291519916589503,-0.052681824107709,1.8670630825407355,-0.4609365124020961,0.7259653960453554,-4.647798070547296,-3.209398106646173,1.2171193943868857
57721,,-2.658988096736667,-0.4726329140876928,-11.987032256733167,-5.137616222391578,-3.0187098984163097,-2.779537009411971,-0.0955787760520472,-1.8306234200861544,-0.6868199218860924,1.0101569131295227,-1.6754343972565031,-7.979582211422639,-0.7366112776495043,3.680400433314749
57971,,-6.982236712088625,0.7016038845090964,-12.15033437660802,-0.9176778854767303,-3.015879227046113,-9.49753979301986,-3.930189856597361,-0.5380581593982594,-6.785241016747703,-5.412262907544437,1.2229950583053455,-8.178258083920493,1.236469584821808,2.749746918556576
58221,,-3.660461236882896,3.842600478022375,-6.84601123511589,-1.752111836311102,-3.1605752139599046,-6.591830897767515,-2.921617555607503,-3.581174531922253,-5.418292248544837,-1.7932385084600608,3.0507462261678504,-7.714023472466146,-0.6372807167355848,5.890089859511178
58471,,-4.580461999574654,7.740851271101537,-4.723063827548288,0.7127823535861989,-1.0480317858275805,0.029906377686557,-0.1183049001192339,-3.3264076891710253,-0.3400133169299252,-3.163762749932114,3.469042331411489,-6.160686196119386,0.9150391098786188,6.745387770546589
58721,,-7.548150704910168,6.17412917585352,-6.349351840224195,2.4957804642956125,-1.8897492762955823,0.1654364714091724,-2.422235490731562,-4.6931678182438485,1.105809845382837,-0.4187690763974367,1.517770531053518,-4.634156298675606,1.409130175535107,-1.177513727281901
58970,,-4.999768903825822,-1.7827682800057865,-7.7918207025453246,-1.75706623269338,-0.3003356466426545,1.483330886315405,-1.5430248298258928,4.04334412903037,-0.6845369634742469,-1.357630059634733,-0.3797336037855431,-5.2428996550762985,3.0498394866682204,-1.5822547863505032
59220,,-2.4041756968291628,0.851359981652014,-8.131789719030914,-6.0095808742595205,-1.3955532936933592,-3.3465892928802257,-0.1275303000564235,3.943782879902842,-3.876925575242398,-2.0955368939091894,-0.3998189887178857,-6.1299098462209045,1.0478845252031013,0.4166799619237144
59470,,-1.509604077109043,4.085912068254938,-9.136598488574352,-2.7960934419720958,0.0344907710680471,-0.1062830392333514,-1.5561677759501058,1.2257315255495669,0.4748446799121076,-1.6721130407954798,2.772064280671702,-8.023197828889776,-4.839520585919674,-1.1097408848963433
59720,,-1.6146392942830254,2.7782489291523884,-10.218898288606706,-2.800945995485256,-1.611348956169373,0.6710558848112352,2.403950138089115,2.812798543036167,1.6141376979849391,-4.413208466697894,-1.8109475212578643,-7.818142206694645,-0.0272007685296463,-1.6629512028639797
59970,,-2.609816602907092,-2.2056293562274,-12.20283383710008,-2.079454235535096,1.341001787465803,-1.5836003003998365,3.781292500221865,-0.9344983254425456,-3.5886757021934623,-3.962523062876176,-2.211512314702699,-8.761013819262581,4.376567658682157,1.943699060505988
60220,,-0.8648209453767802,0.1321746653646738,-10.640312649345374,-2.929373023654638,0.2864598619688525,-1.477370021375194,2.383153194014272,0.3195222332133715,-4.479747721228198,-3.9493527226124288,-1.9349775642615183,-10.98141625838558,5.104693925449063,4.187166487029787
60470,,-1.9883096998181644,1.5442157850269689,-6.814299225059574,-2.012477865913774,3.1319571224685387,-2.629652810940421,2.709577043050798,-0.4492349608270422,-2.8359021455011417,-3.058794383149852,-0.398124459929553,-6.958459709042357,2.891295051468572,3.494715495948675
60720,,-1.879263327429158,1.1052910427276228,-9.1013348376607,-2.6391153856580813,2.685394501229617,-0.8929015218653773,0.4596838293005892,-4.524937563281481,-1.3846069259808755,-3.324371064717811,0.8119612055603914,-6.624202130099587,1.130291523753242,3.374025589195402
60969,,-1.417070093346453,-1.648301460624019,-9.301096230841862,-3.427144525301061,-4.202169950670337,-1.4820171254441503,0.3824433454297509,-4.650014399569005,-3.3830199468310465,-2.8870557544081894,-1.821148756772638,-6.046920009624696,2.1060506953817826,1.954779349823396
61219,,0.4447053934307046,-6.98154456910844,-6.018512924653936,-5.707301880323543,-2.5121502802640205,-0.0190868263992473,-1.3157253091943744,-5.722353624884772,-5.920068728629335,-1.2311850648136,0.936476987267997,-6.94009143249784,-2.159204523252369,2.2541283487828627
61469,,1.862241419693182,-4.057623461472508,-3.867754176277164,-1.853738385773977,-2.9318474291250256,-1.0189524650746142,-1.2293900150993868,1.7664259773680375,-3.376556726541856,-2.7728646214126385,-0.312038347384115,-5.036927538360701,-3.008412882487574,-1.0820934260810064
61719,,-0.4920535324312289,-4.503607173190857,-5.203751045127987,1.246124203823071,-1.299601837886163,-7.602910018523388,-1.8310093517578512,6.540868252384207,-4.491769331311909,-6.137638195015025,0.9212363582588232,-1.522510928891439,-1.519293118711524,0.7911740047463411
61969,,-0.892675614563986,-2.618229102105073,-6.685489308723912,-2.79412385933492,0.0891602723593075,-0.9776621351281164,1.468450607700036,5.547959407974348,-4.387614163492501,-1.4633980230444448,0.3757009770373858,-2.089231125324026,-1.5239349845713102,2.436425438399069
62219,,-2.738018358037837,-1.784093446673244,-7.924769846983503,-1.7830102451513508,0.7810687281299776,-0.5956180470186874,2.975403355820968,1.021154558516895,-1.8415928549950835,0.2753926190521445,0.3754580064342622,-5.119118137476169,-0.2619723568971661,-2.0635006883037077
62469,,-6.753273054561456,-0.6076564574788058,-8.88536041401608,-0.061871296705037,1.8461397211044248,-1.863840651171675,3.0333146584167263,-7.396170890830253,-3.0882845910188546,-1.1627075445936772,1.543952310202673,-6.831383135248521,1.663244713442512,-7.857190730828265
62719,,-5.288023841787226,-1.8734327468539669,-10.656643809427331,-2.884173466962733,-2.947858330770829,-3.040727821705125,2.337826579000557,-1.5704905161676104,-5.974025498394468,-5.28331426623293,1.0480077073113223,-6.333277649269926,1.331707370514985,-5.626341924041565
62968,,-6.30312633034677,-1.0685733387939655,-8.90890243351923,-2.2946541312548074,-1.6637366806750666,-1.8129327044333905,-2.288876880819547,-2.1183826922156705,-5.239006551545029,-4.927554736035859,-1.549463132097971,-8.20987795851179,2.85972048811782,-6.3508091030259095
63218,,-6.290445275489781,-1.668597344034894,-8.307302431883214,-0.4943516773096265,-0.57268845119059,1.0765777607560696,-2.095293857007468,-1.5513232295273018,-3.846991962101332,-0.5314038509095321,0.9016888221431654,-8.237229661878937,3.2385530023861184,-4.654360938979327
63468,,-8.848739380820032,-2.2212518407911586,-6.643358040831764,-0.8261738127299112,-2.35427339129778,-2.665596022271917,-0.1243771951919212,-2.005648171689649,-2.046817461909594,-0.7871384983801624,-1.8123365426314848,-5.579270937349044,-0.1145472038860387,-1.0299997715573774
63718,,-7.365955492586966,-3.213301048713926,-7.08287459571303,-2.081588426725447,-2.7357902772501874,-0.2863577944678749,2.7527064081449386,-7.081418947607762,4.208412585205232,-1.802452133825379,-1.5010121294575838,-8.712210339023637,-4.042517420724488,-2.673458163111373
63968,,-2.217146884203533,-2.3662058451085195,-10.3919803609221,-1.4644566813125102,1.103398920922304,-0.3004382161073344,4.386443114865314,-7.908589527326245,7.410977463683293,-7.331747805052766,-3.457969715311644,-11.903297706542844,-0.4221919672265843,-2.3859226637486244
64218,,-2.1900787232705468,-1.0773901550271667,-8.971530826878325,-3.363805597795968,-1.4815069899107716,-0.1916907523903537,2.094123012323301,-4.516078941994636,0.8057582757530829,-9.223684681459888,-4.646377447768522,-12.074137995775729,1.768603607410058,2.452151932070553
64468,,-0.9076568980723976,-3.4269861295411044,-8.332556482488366,-7.663583240230933,-3.0329286268376183,-1.2771026029014363,-0.9593186048821968,-3.1260456132532304,-2.1576412471058792,-2.6446137454508167,-3.568139080365912,-8.314395388581131,2.439425775775085,5.711524278621701
64718,,-2.11536381723728,-0.8602828675809799,-9.186507844225511,-3.0578016645643897,-0.5122602209224021,-5.493063058778488,-2.106036965856422,-3.703531195282634,-2.016630021413711,-0.1699068633492232,-0.856129070024339,-5.608855572943319,4.184926648162878,0.3819613701181554
64967,,-1.6939233813990218,0.0016743402429369,-9.794194669622817,-3.1798641739324918,-1.8132001419956825,-2.427879542207955,-2.299371633746081,0.4127716510938787,1.779142216256017,-1.3440220710488644,3.756946627255822,-7.349721686267152,6.292197276070514,-2.482838619328761
65217,,-1.9250934909687225,-2.8767905429747334,-10.507736603606904,-7.459696392968969,-3.846065541121768,-2.312071862673427,0.3755767303610751,0.166133113452686,-1.4427693822605916,0.0803218569419783,4.14236956902552,-8.65633440356937,3.0023866947032145,0.7927493756306034
65467,,-0.1944341168107923,0.1186323897638024,-8.79794900415381,-5.947000854795962,-5.45387345891967,-2.525796611846019,5.520948241872613,-0.6596999892716255,-4.202651025577519,2.2996599816566583,-0.2810714455923501,-5.2293002596066005,-2.713659469673417,2.8108985084545584
65717,,-3.675552231049229,0.6384970316515602,-8.806961385215404,-3.409418976580424,-2.686823038425638,-1.6395833787327987,5.944077132513716,-4.020059845410523,-5.914125508625108,-2.190625005395876,2.1356577305100903,-7.136953038313504,-1.9481105188588144,1.0630205937357058
65967,,-4.064563573859721,-1.3462210596074262,-8.991584320823339,-2.8179572206962917,-1.2821480156472445,-2.007050861096526,4.059857076377068,-5.71669470519426,-5.41188129273274,-4.700736855999043,3.1500956881094004,-11.15822573383862,1.3212227604318798,-1.3976407404281896
66217,,-3.021651848390583,0.6950198704627901,-8.282425684967814,-4.165845434510152,-0.4724239480149723,-10.105723375318204,-2.097568681647673,-3.63419454677643,-1.9152673398214493,-6.014835784162836,0.1932748022513836,-13.650570239529271,0.6667682779452422,-0.1458590640499907
66467,,-4.0449803043872175,-1.639913990776794,-11.833925946446229,-3.5863776283130293,-3.089354622373585,-5.595548416320584,-1.612635584013442,-4.274585365473772,-1.3769646433731926,-7.187825764629042,-1.1025740428469646,-9.948689259254968,0.0438358275909027,0.8922403889657975
66717,,-2.899204473886277,-2.6571816416453027,-8.382403772475612,-2.495242490880644,-5.071775251819375,-0.8936219742531261,-5.218248839047387,-2.695374034296668,-2.417606798553147,-3.881687416552993,-2.137754694310127,-8.63202683662945,4.026736895864728,-4.370847755744767
66966,,-4.531908825719061,-1.1905105965332978,-10.49023645395469,-1.740803411853597,-5.800412439301837,-3.569004795991289,1.5635823632857393,-0.3572223175539669,-4.188842325009828,-5.762563077309978,-1.6294343078715234,-11.192694508754816,1.7781047877132758,-9.255890307702192
67216,,-4.4496282453143765,-3.4945233375367613,-11.339306692516182,-1.806753146372132,-3.9305232403256496,-7.855787253692442,2.776542844651741,-5.840016476990035,-4.63284744701428,-3.676004106165821,0.8635994647613865,-9.880926003582202,-1.288183901019546,-3.0123224286838464
67466,,-3.105168164310634,-3.474508488145899,-12.488743356436714,-3.858080010588704,-3.3386382628225317,-11.799885841001226,-3.5617486584007603,-9.517814737280649,-2.035266514171872,-4.785772783700104,1.0449939076010688,-7.673432813475644,-3.725202026265681,1.3993549874565372
67716,,-4.377940994678724,-1.106549236301044,-10.977859391652158,-6.678484367608838,-6.401052485075925,-7.688299969412976,-4.403418443551328,-2.9914886495046904,-0.9510869445774288,-3.179610461398604,-0.4999126730293812,-7.591055427239281,-0.8964500222340863,2.7678058889804484
67966,,-3.3571367847100277,-2.700388618824923,-5.531494380604452,-4.6397265224539765,-2.033329000645973,-5.523308247614831,-4.442818107475127,-0.0020041642606097,-3.4391533270901027,-4.234277066584386,-5.140321176229339,-4.237067812303828,2.233450509226839,0.6184782391533828
68216,,-5.740816209597972,-1.590035803200024,-5.066355051658081,-5.015638047940359,-1.0262217261143685,-6.113166326675073,-6.10273391156377,-4.619993729277505,-8.201383419674315,-5.325166837458459,-5.701316693083429,-4.251975502347059,1.080152452120526,-0.859482230097357
68466,,-7.729866076951043,-0.3247565010016406,-7.624279287182887,-1.4650439281535197,-3.251363584636611,-4.605725260935421,-5.790087923066047,-4.312451136321593,-2.647162983512461,-1.709755502034802,-4.1339536064698565,-9.409357231817406,-2.9847013396604565,-3.055468719838865
68716,,-9.804929984052956,-2.242424648695312,-6.081806456461415,-2.0869407978042287,-9.05345450833757,-5.840147330517736,-3.0159312111460594,-5.317686294581092,-4.992089108894387,-3.766260149624349,-1.7080872367295528,-9.742344704279953,-1.254090669514697,-1.3990750689768423
68965,,-5.378965479730574,-0.6254867684848064,-6.353311653787827,-0.4972329612029691,-4.048500165778201,-8.75072334286501,-1.2896003353014789,-4.562337999289517,-6.852623405031075,-7.817208134289919,-1.6348415925021809,-6.5628418727077324,-1.276519375535268,-2.1610734125161324
69215,,-3.757928012919828,0.0094377012800307,-7.977251285892091,-4.916811214547879,-2.875286577252656,-6.13999988807916,-4.56804923391122,-3.872952001194902,-5.696333703070938,-5.658241345522774,-7.169703737237587,-5.73922894911111,-4.503905872021704,-7.803752153986539
69465,,-1.815703002390908,-1.658220847420716,-6.295640037995179,-3.9582570072306313,-6.421057031588119,-7.486503266011605,-6.611305615056438,-6.066794072551723,-3.889027425825839,-5.9507620436921975,-5.236569452723629,-7.39236861149955,-1.6645244400551564,-3.667071233590906
69715,,-1.7980715688585192,0.9365519166966864,-7.2435835477224355,3.8432596982200846,-2.9125234162187463,-0.1447761406476735,-1.589339277967872,-3.7438020907097433,-0.9823595385332504,-2.6548755191290505,-1.5438586897842796,-6.246912840560261,0.951999585186978,4.111536442825977
69965,,-2.6352830341175157,8.313512010453826,-7.444963186319395,6.541867560054389,-3.375627442622537,1.6588487789832,-1.0096803363249178,-2.856295952628936,-1.4597416278702011,2.154821537705801,0.5873464602980664,-3.91177700020556,4.303977392578458,5.037229325431857
70215,,1.2703369265783793,12.215262845901512,-7.846831418482726,7.772344935791077,-4.264630120567362,-2.0705112907660745,-0.0366692336621879,-8.613718366018174,-5.770760047993485,-0.0888480372152323,3.2215391862761598,-7.372615382163881,5.355114460667361,4.907530436195654
70465,,4.276341174196596,9.243090959244231,-5.642829738596117,5.8725585688387465,-0.4878607716262122,1.3718630494688542,-0.0860558394172262,-4.595289373480476,-2.024058997034869,-0.995167326197094,5.060653290455837,-6.502018957217739,6.028397639161886,6.405681480145962
70715,,3.560542211433533,5.613627075078142,-6.14306973230104,0.7092738873027898,0.4498883683754863,2.547490012976052,-3.2034737413374192,-0.9167559853060986,0.5953002852475077,-2.14622021613697,3.0061442904870965,-7.909848803767916,4.554551043665216,8.31818458124088
70964,,0.3823982619631619,5.753112878348144,-8.558541061172559,3.885714741479575,0.1368681885793937,0.3187739459586459,-0.7497245982781404,-2.212032199577019,1.8240581092674013,-0.60749550586909,4.983899571246257,-7.628861941265779,3.5682963087768647,7.110036540759575
71214,,0.709866403653273,7.345418608379819,-9.660613675387484,6.395123343308117,-2.0025779386366964,-5.04408823737406,-0.5445246595417299,-0.6289618678427623,0.0403025330743582,-2.86665602414327,4.361178444018502,-4.6195636054990725,3.5130813457196117,8.39840827312832
71464,,-0.3349301962395043,7.286487945280211,-7.053844198466887,0.2185166615565576,-1.5858590603862428,-1.6283004188516557,-2.330040261571264,-3.193079435751023,-5.149926275686728,-4.758175175646905,0.0603990469612201,-4.171820439088805,2.9101415191724693,4.5743982227038105
71714,,0.2858629768489829,7.645389175376714,-3.590051794633165,-0.803311385112302,-2.721068287115161,1.0962540475383915,0.2400288471065068,-5.380659266044815,-5.766406657108396,-2.9597861750166428,-2.6857240798193964,-4.878987386326712,1.771998955154637,4.281486903966032
71964,,2.15220729334723,5.486937642990207,-1.938897608383846,1.1539076347534951,-5.316621955377933,2.242314340025908,0.9574059889911464,-1.214250452917909,-2.9561968639788483,-1.962808296471493,0.5190593450034624,-1.2904996218619376,2.895211457198388,7.802553022251184
72214,,0.3116453231568693,1.5091187082976858,-4.393632669042939,2.676656919638151,-1.893655037149577,3.442693214643373,0.5473184378280618,-2.1413103597061367,-4.0235768060986645,-2.2347817761554127,-0.6204369907484609,-0.995764772278276,2.847401677590163,8.21972394936222
72464,,-2.3659644321244064,4.052774063720737,-8.302717639734356,-0.4939581694779916,-1.4268447538385942,5.087295094965675,0.5966044232804448,-1.4349169472560652,-5.964748094649606,-1.1666713689254329,-0.0086249188251731,-3.305859128896831,-0.3463214377426288,3.668017650782308
72714,,-4.752418440069103,3.3558140523624576,-8.516368384435987,-6.5833555272916335,-4.929755813930498,1.946406629992619,-2.687807318752315,-1.3105195494965571,-4.83933027809754,-3.3554520258213394,0.2283103615192599,-6.96598317371717,3.5621528487947574,-1.948220141555188
72963,,-2.5230359081789544,4.8658128323863306,-5.143428267150286,-1.9419369456058444,-6.68055151584551,-1.427885112758327,-4.2324118755047815,0.4338479255504526,-0.2259689150553361,-0.5404971489534689,-3.905941304716815,-7.215265900382547,1.8909221018747944,-0.4257599558579813
73213,,-0.404895224139799,5.135911028926739,-4.1901074190591086,-0.9281367646644704,-2.6286999172500187,-3.8557014364995954,3.1187865485731314,2.079096094828784,-0.6427049509600841,-1.2159219354879438,-3.4061115346612643,-8.6583408249338,1.052192751241119,3.273530892393959
73463,,-0.5311904085277002,6.194384044844177,-7.111686431772104,-1.6104882801710052,-2.489736001374094,-4.933623020126941,6.97196900529158,-2.8717603515089687,-6.194446783008115,-1.16362802213722,2.7454762740712453,-6.233330546003443,6.455922282464144,2.292404499168084
73713,,-0.8749889152997055,6.750118105771942,-6.856497651945297,1.4602191055407123,-7.037804811146411,-5.813928387331239,0.7295662434828887,-1.893460033187383,-5.288835269988448,0.5173022254498278,3.969897517252554,-2.455245309623637,3.5587578346497803,4.423020812350757
73963,,-2.848510427655912,4.846778814785731,-6.0501389330199,1.655458502354833,-8.363704854015825,-5.755198666041064,-3.437266598373304,0.666007266504657,-3.466910843043991,0.0548081839869036,1.0504604464333789,-2.9348704963067744,2.510832005838437,5.41447408754712
74213,,-4.521924272025468,9.985019515912466,-6.235215333364539,-2.6945923622900168,1.6332821419192711,-0.6797165539851284,-1.5472786949310977,1.769009967307783,-1.1092724051973104,-4.577981787483712,3.5755151210007075,-7.100628241983594,3.282801294131818,5.600028089796794
74463,,-2.9146494176353697,9.6779942809739,-6.983705174881457,0.8082569079210866,3.217797745608194,2.088801101474311,1.7370784063371565,1.3401425381905203,1.3372731862953635,-2.6640803644072824,3.0381227292690296,-10.32810059647047,4.82482805289565,7.314787921469357
74713,,0.6707857686461272,9.073873810898656,-6.547160843862684,4.246491016758664,3.1622352520127417,4.715100401229043,4.634561877984807,-2.205299936574272,2.7236550379294897,-0.1409164010539487,2.413875607401744,-6.818393882975203,5.877547765446484,6.278914926681121
74962,,0.6412071844771359,7.80833044335992,-9.81422681172509,-0.3895405570574399,2.31360013225648,1.6225941643433766,0.1992481440657875,-2.946085380713383,1.528885577032616,-2.3983805196598014,1.358450475811391,-6.997039515405695,4.13821275566549,2.159637713534251
75212,,0.1216593751603306,7.003104009451166,-6.273301516238648,-3.35687229831062,1.706192309442337,1.729812451761736,-4.285712875653108,-0.6123657576204318,1.0136659040846745,-2.0219816918170004,4.500040972380247,-8.539029126887794,5.683483049928323,6.40428239591628
75462,,-2.3854669843148,-0.836193129353906,-5.9372378995914055,-0.6425968509512741,-4.795421518292883,-1.5375211352868825,-3.0283542865510094,-0.9931735634872524,-1.3586930884301442,-4.564500029357572,2.78576215736078,-10.819400768258388,4.048098031948741,3.98785476301007
75712,,0.254600647245487,2.894318124980824,-11.331250769289674,2.369448723277709,-7.414111809263968,-2.565014706636516,-3.7865069680483,-5.2272063844054735,-10.935852917094914,-5.141578621574676,5.001189007719507,-12.980977455232308,0.8967608786483549,1.5407740573676634
75962,,1.1397258807615884,6.508882326827213,-10.535766566331407,0.0416966265443486,-4.53324374518738,-0.7188390544573113,-2.816155630890063,-3.253414958157064,-7.782566289144884,-5.225148712475391,2.9900921715953546,-8.352451706875405,-0.7688557158276594,4.815120897872312
76212,,2.916776054964893,9.299163058575983,-9.301628505341158,-1.7524401639363665,-2.226359330956008,0.2173311668664208,-1.586447871371805,-2.539741867197882,-3.174270506779186,-5.42322558475429,-1.4260982172424317,-10.162852469287454,2.3409078076580703,4.188273451967367
76462,,1.9098934311825075,8.655069500894365,-6.863720534660248,-1.3852292262623136,-1.2198421652923814,-0.660632554811091,-2.4600613450824897,-6.075272283819767,-3.6771001150879226,-2.69610079735643,1.816059076779165,-9.439285974738098,3.801245667615407,3.011932536590237
76711,,-0.6713435809406737,7.445212734272506,-6.985943277245251,3.25496015762552,-2.471568623984553,-1.979041787778074,-2.3449841122459665,-5.9633890326313965,-2.206464839537237,-1.869687354061253,3.602810190675428,-7.952954423928352,0.8365772150770336,5.399727877578443
76961,,0.6112641287251954,8.646765634393125,-6.610824307670868,3.7107718059862993,0.0760116381128551,0.5419730080228493,-2.16613019456297,-5.900343801194978,-3.5077444764894765,-3.8988285073090583,2.8028800047742446,-3.9048153952263225,0.9187639486806548,4.869210767285867
77211,,3.3415697259804182,8.003524622767934,-9.543659255656502,0.2659168522191793,0.8986250901770454,1.6897601683324726,-3.728250921961279,-3.5912080142204967,-3.0302567508183498,-1.1198464729222808,-0.4359657981924269,-2.68797237720853,-1.459099376859512,6.212410410169339
77461,,2.966107905115285,4.74681809588132,-5.855162786472199,2.6150450499740074,-1.6304907169852738,2.864842675859849,-1.7231286525691245,0.8454857001558898,-0.9499911674450467,1.546917021483727,-1.38986131162986,-6.151670171452618,-0.1461334264065768,10.366479074690467
77711,,4.767572498844648,4.964151055598085,-5.002054668767192,4.978003113741986,-1.5819413933748214,-1.957958879391687,-2.890118868009054,0.4505378416002278,0.6946672503969036,3.401209952790297,-0.8594690923019752,-7.13505238351951,-0.0135742262112792,14.052592270934005
77961,,1.172871988492417,3.954650309028503,-5.395212927539142,1.71715898187508,-1.1938847680070592,-4.4837704837936325,-5.12339723236477,-1.6391070803200345,-2.25400839691077,-0.0351450045587157,-0.9112353369890264,-7.127329790313542,-0.0692379389233597,8.860683634706044
78211,,-0.7826836229290122,3.949482612345186,-6.42067042555624,-2.026833108696686,-1.3358104492856735,-3.5308631930157897,-5.092847596677789,-2.857950418740174,-2.127133685177811,-4.031686265333381,-0.7350853359311218,-11.381193831820998,-2.5659280970930287,2.659780566350596
78461,,-1.8918754205267097,2.607637911281835,-11.869682621750696,-1.4605092421423929,-4.036056596506539,-3.3935499824606987,-2.85464491970124,-7.968463472578341,-1.5080222230815408,-6.285213848042668,0.7135879371633018,-11.84805407548598,0.2832174851024593,9.50782036927136
78710,,-3.734602263120693,5.75509713024165,-11.890758371664084,1.847908619380369,-4.009056602833177,-2.560535607339529,-3.999156486855058,-9.89729378140964,-2.191666076376652,-9.498593285470916,-1.8034347525211123,-9.397326228121887,2.9189704992956367,9.15103367211353
78960,,-3.0414790557924185,7.061839961694875,-9.768857996385693,-0.2324830203951793,-3.4332478015544043,-1.0505785606991045,-4.670260714047419,-4.146777737503086,-2.264050566002882,-7.312580099129637,-2.432462722949493,-5.885035684883597,1.4582189058893966,5.394968911227619
79210,,-1.4224637924817751,5.536769261996858,-8.940132825524996,-3.123625593631438,-2.617309529651899,-2.0886622496523644,-0.7957721084140551,-2.5498697367419485,-3.6744885027192,-5.1610119369887,-3.361710237116464,-7.511745153483769,-0.7152398397131141,5.183179428671837
79460,,-2.280156431829323,4.103742092608977,-11.963652004910111,-2.521730527134061,-3.3850652522040283,-2.2971866175671924,-2.595642047920091,-3.2363620132640274,-5.119347153207412,-6.67517177914057,-6.057714477299479,-10.884823440477556,0.5262494629857526,5.710353998878328
79710,,-0.4142880328054382,5.879536078510311,-11.459037255338313,-1.0195528664862918,-3.1849999225344927,-1.457640240882225,-4.874155119947107,-7.676971964733879,-6.652110597782692,-7.463121964651178,-5.167479357191617,-8.727476820319783,2.162106355276884,7.9977968101943056
79960,,3.5970646479434865,7.261545343611715,-6.609553003243526,-1.6020591413737186,-2.593618003671092,-2.1895344476370027,-1.0295914492659404,-7.807119181665129,-6.029560217318695,-6.913892495081257,-3.6868248089695657,-5.894149656974213,2.099256934256308,10.72544656691164
80210,,3.593094848852157,6.218409921607194,-5.768811188315858,-2.095689193443226,-3.907377576713586,-2.6064248737337348,-0.3686691366020276,-4.515769704271713,-3.3541784901398826,-6.593367490622992,-4.139599101629941,-5.6258741376924295,3.3800975122727106,7.349657495889616
80460,,-2.4183589564479675,2.325504570020072,-8.04014761509033,-3.411051662739868,-2.58945731313522,-3.4738079199608007,-1.3810787712980144,-7.136851704227254,-1.94380884747552,-8.397788275691726,-3.191598835572042,-7.546957868254354,0.6394727336324364,-3.393044693763026
80709,,-6.009657430341973,1.2998346756426826,-9.394031653995285,-2.403790252089701,-3.289520260410808,-1.6913551237011906,-0.70206085904299,-11.014667548527177,-3.221658321106964,-6.43735881756654,-4.349544136905821,-8.712957993332646,-2.2137639239193274,1.0124315404470952
80959,,-4.584594080212924,0.3834449257442713,-10.029556640107408,-3.904668016741753,-6.694090902402454,-1.6231349766677248,0.0233499293436772,-6.347527843166217,-7.535477465402264,-9.1810667759083,-7.534072638252253,-8.96873149770258,-0.5533602032162501,3.99466448655165
81209,,-0.523829399252482,3.9240993289732815,-9.428335961480666,-2.330603947949153,-2.5948527050259003,-0.8900877819913975,-3.820568019878912,-2.534172922536528,-4.078150213713826,-10.18872766539518,-3.4135176617449927,-13.494310449386496,-3.3908717371733035,5.790995329955364
81459,,-0.5458138414343657,4.2003006584613365,-7.536655590881138,-1.1367991337105234,-0.5163033730418128,-1.1593375865415945,-8.963345747633486,0.0826128620932799,-0.2944494440706676,-4.15083998545332,-1.9614827921241007,-6.733897052623576,-3.7285429055009063,2.907846809167732
81709,,-3.613471706733132,3.2495585880747715,-9.45960199755919,-3.388072404478635,0.6427881424951042,-4.559301236338699,-8.344156623313019,-0.5621936626597996,-3.169982931858912,-4.070643681079864,-1.5068350143407234,-4.507269794141358,-2.517570891873468,-1.2837783202953246
81959,,-5.145713311944569,1.344401449531969,-7.156657920889673,-3.504568794148246,-2.135502368216011,-7.334414075443066,-8.107254415598662,-1.610159175479896,-4.954912602114619,-4.013181815490319,-3.751663943713601,-6.299028347669871,-0.6056456931342904,-0.8386525581885064
82209,,-2.261029264765797,0.4775375234192641,-6.700479735315547,-0.2244960203266875,-4.430999432297948,-6.198249633139692,-4.700478027363178,-1.8974607455682508,-4.509474251582103,-3.7636464985212026,-3.812856762479412,-11.242973954233396,-2.4916401690425767,4.595756308633266
82459,,-0.7071576591164166,0.5928560732108021,-10.128539661409912,0.4864393517618723,-7.371728276226353,-3.16384791991972,-5.421089571638436,-7.3587373772809,-6.369767677045073,-7.053321730731423,-3.3469737007816978,-8.539606413765167,-3.197986152700228,4.100611014328708
82708,,-0.4698964863387761,1.1775214613863922,-10.9330300830284,0.653319275940907,-8.727733849296156,-5.598464976782704,-3.637379333121386,-8.756668522804317,-4.167134308517343,-5.759917846327336,-3.835247466790885,-7.671863588522215,-5.241342134873721,2.6634418726092157
82958,,-1.7968999740590377,1.7205920086952915,-6.510369545494844,-0.290270058850331,-3.469684373983533,-3.1048897758534078,-1.037619393593387,-2.416795583352442,-1.2317790830929165,-1.567581790879147,-3.077968956920791,-13.391451393999002,-3.452078309981106,2.1563526139000704
83208,,-3.5074010219387146,4.5547933920445605,-5.584506302969558,-3.6428021190013697,-3.562815030828074,-3.5294070914607643,-3.8363024672346633,-2.064252430300455,-4.011245011017068,-2.8756554714302944,-5.513394093584816,-9.486677744969088,-5.585820184217889,2.3149868230517656
83458,,-4.0533305868122405,4.299535785141993,-3.609814396822335,-2.174450335748545,-3.021682165656428,-7.513364524186333,-2.9657418098673616,-4.126378371777311,-4.202034496753662,-3.4977781301981112,-10.398693918357612,-7.528577719128156,-6.594681843522333,4.68135077167719
83708,,-3.441634570454193,1.2805943802153723,-5.063064780578283,-2.48481943755118,-4.316716903297884,-6.714640525109415,-2.8906334527258086,-6.825539900580004,-3.779524624499185,-6.920291839504035,-7.349135764336134,-8.701642208156068,-8.210830021446982,6.55384488719875
83958,,-9.331912615965708,-0.4270320222121416,-10.497852605457243,-6.414924182566924,-5.242381046988048,-3.966775861184729,-5.623979671381462,-3.872403946537329,-3.691601341645028,-8.601515709551789,-6.048263865733995,-6.358542211335227,-4.702216241648279,-0.3874680392050745
84208,,-7.415323101133664,1.6163788357511797,-9.600201443233605,-5.924278229641246,-1.4447903472112944,-4.615962253807749,-5.06570897248549,-4.126791206172186,-4.784467831005608,-10.725574412326395,-13.514733910072502,-7.875368190602721,-1.8513128995904728,-0.4555584978145892
84458,,-4.012767830859435,1.030018407068943,-4.642702827593349,-1.596613013852214,-0.021605114996067,-4.673936224064612,-2.793121417369249,-7.796583744445108,-4.379846182573798,-9.159586351917431,-8.636888070904224,-7.523472228237166,-1.0608353649004687,-1.775821781486031
84707,,-3.2749525353893203,-1.6503288819639144,-5.886471364839125,-0.6924793995188877,-3.6709743810786897,-2.4105341403566363,-1.0095834801844858,-11.661508773819074,-4.96016821885924,-6.870839064408221,-2.791550301960845,-10.047131889462117,0.5150382224139625,-1.17906185687988
84957,,0.9515916691542092,3.19081143746062,-3.9938124359837177,-2.081530194948459,-1.730278652390741,-3.5299892434690374,-1.2956100365692456,-7.393185588610843,-6.230223465517715,-8.284109802760165,-2.984186978627859,-14.609592192140344,-2.404406625282208,2.3904892770089194
85207,,1.0143188226250528,3.3210723874379235,-4.895405043862279,-2.3653353871296883,-0.5768332060637564,-3.6505287292997406,-5.134168400008106,-4.102151235164108,-2.250833807578187,-4.159469550405027,-8.70177407938218,-12.440132622409504,-1.389693827170584,4.858448812332329
85457,,-0.3560551535205434,0.5611512561777552,-6.598145712528984,-4.102414433878307,-3.384626543248305,-3.311814581572367,-3.483573402004434,-4.328435007661717,-0.4631553369995606,-3.559174897349425,-6.438462985208525,-8.836296352851473,-4.16135904555437,4.202179140063566
85707,,-4.519859501462483,-0.7341299888308767,-7.2512220434315875,-6.641026095453731,-6.167823085375476,-4.059505231713975,-3.0519363194243985,-7.843010191183324,-3.5263321648537445,-4.783612642231611,-4.570022462213147,-9.209516011726544,-3.430193720112715,-0.8629720252604932
85957,,-6.265347845120718,-2.077124402180752,-6.778900632401868,-4.288254788598875,-3.7959543798004254,-8.345939387410702,-3.5472724767430948,-8.219634509831357,-6.913812003998004,-4.413633707777793,-8.798162652626871,-13.348048162269532,-0.743645895391067,-0.4349126922370339
86207,,-3.3739876304505145,-3.385091370857737,-9.076675863249047,-3.5675033466623773,-4.978877756762584,-6.584056193467825,-5.7753280406267145,-7.7045706072992735,-4.148570612325199,-6.081327651249634,-10.26971205672883,-10.655028610908426,-3.725397548794108,0.2496830377653574
86457,,-2.6977032198029387,-3.570561969804364,-9.76419428564058,-8.66791727318271,-8.81960955733073,-4.493112776674032,-7.603278135920775,-4.27908719885999,-4.420974087500037,-8.284786323651195,-8.539277475596073,-9.37988222536949,-6.9830766341234245,-0.6224607170573883
86706,,-0.5065417513149335,-1.60658172220971,-9.52284922683539,-8.616751178731898,-5.030031825031353,-2.5456843951018944,-4.230945650232288,-2.484786632357699,-1.718926539515182,-9.4987665460304,-7.898473251118277,-8.557861809325772,-6.748693369373634,-2.3767967174630726
86956,,-1.0047569203639557,-0.3349525380986881,-10.613430599961491,-6.464728408075296,-4.7547878807395785,-3.276297135074851,-4.364575424546276,-3.1312676281262712,-2.5010297096591505,-6.659838445013873,-5.856136724825988,-8.171213222855569,-5.049328292507673,-2.5173938531806064
87206,,-3.4873822771796585,-2.764866374766239,-9.42685083521303,-2.1671804437682214,-4.930777136038626,-1.679374031136681,-2.342689997804709,-2.789992456277184,-4.274444640165267,-3.371776972072466,-1.8678784448630577,-5.022315693626405,-2.338543985357787,-2.0459883414187185
87456,,-6.917431414139844,-1.6782397615192526,-8.93611057120791,-1.6726812775571631,-8.774042748156143,-3.2219188606932176,-2.0649581846118026,-2.505276213058352,-3.772631404564828,-4.584347212724577,-4.952458390300467,-6.931228512936992,-6.157569926696853,-0.6701988435990416
87706,,-3.847660965555261,2.4241316801631325,-8.238153796218828,-1.4202249842713013,-7.499944825471849,-5.537440869822515,-8.780310695468705,-2.1641302131694835,-2.7185259637375903,-1.9066004194881505,-6.244155860707139,-10.068887041075325,-3.7655561779815128,0.7984814493769854
87956,,-0.3874892593742704,7.613922425784692,-6.333667470242709,1.8805649203530967,-2.96343111241514,-4.591761812489371,-5.613505660252965,-2.2744172495964543,-3.481144352373046,1.8028225140412932,1.425383987052912,-5.668579134687183,5.001358101058537,6.691186897297245
88206,,2.7292231554516198,7.95592805566069,-1.488710421896945,3.172124909117966,-3.518715927699984,-4.374673318575412,-3.738319475739552,-4.781556200234499,-6.3417786765628446,0.2618859505306403,5.371276152020239,-2.133765497790742,11.229007203730095,11.139715314602256
88456,,0.1425877421431163,9.322272916700047,-4.9946478313326415,3.228585871358338,-6.463873099391195,-8.324316288090053,-5.511671926215628,-7.241973514810905,-9.110010458538175,0.6320349586268024,3.829156694486626,-3.334553495365861,8.687263417692934,8.91856957369406
88705,,-1.2545442020227622,5.564863940439873,-9.204089786070318,-2.0480224512379013,-9.129531775036352,-8.040284652671767,-4.511329583046689,-5.421641549804802,-4.455618396228266,-1.860653370116112,2.9779372595771485,-5.145296442411991,3.0509746565867557,5.818985815462963
88955,,-3.073706675045136,2.597798287825488,-9.924869015309431,-3.821990609955319,-5.766142088657777,-3.7711752013743167,-5.447071711580598,-6.155052229028359,-4.988055028449882,-5.718424636466732,-1.8268635472710384,-8.37710781508021,1.5177377993740893,4.319153240686547
89205,,-1.2494263227130673,2.249444013419287,-11.05699295005792,-2.2359850099102,-4.340598037535251,-2.655884414819864,-3.2364742491566902,-4.617702602841772,-5.391771452030324,-6.120219705857649,-2.326471932734695,-12.105566443682193,5.188416561927708,6.456700329511843
89455,,0.0059318146631447,4.033069079170984,-6.780122646963864,-2.939145310777292,-1.6775780768182549,-2.6011397391512494,-1.6317699121894,-0.788160432929006,-2.47086185225666,-1.7756537430673511,-2.2532893864985515,-9.698317187164038,2.712244331492452,5.326290325312645
89705,,-0.7661656112886048,3.0556345699088574,-8.343557088369263,0.1863598346579915,-1.713777040970366,-5.326336769129392,-4.232636235578001,-3.5421399657935715,-4.911982836951515,-5.460000400955545,-2.158301748611784,-10.248383422070187,-0.6149589880702454,3.8375653561274063
89955,,0.4972901296845566,5.399463353161953,-7.989983832769618,2.3756872390042445,0.1058783047152436,-2.2901886925271557,-0.0425700511682103,-1.585432318752798,-5.595629786559288,-5.900401705773618,-3.877739810971231,-6.852504095308513,1.2369537425586905,7.609053620127348
90205,,1.7942768765167127,2.9669118838796384,-7.4982199007551165,-1.6285093358794502,-1.5799853550372178,-4.306863118454404,-1.2683600722432455,-4.0815427377822,-4.116079338480824,-3.438932415950915,-8.149380048742744,-4.017228698209965,-0.6085734637912186,7.217348781947822
90455,,-1.0008939488307524,3.322332653387562,-8.046626921968286,-2.3210393359545547,-2.2907882082941096,-9.124884492180213,-5.133705447015716,-4.795810755618702,-4.49709432134118,-4.054538390738916,-7.039204495213884,-2.1912803772668865,-1.620311141556131,4.205690439411805
90704,,-1.3001358675343977,4.059037322369817,-9.622886054602574,-2.970167801473296,-4.623047113667685,-8.33731253543069,-4.098140983219527,-6.936535530058714,-3.962704772554352,-6.842933480742106,-8.998122391685385,-6.303043759337084,-2.343905310730172,2.018918647343351
90954,,-0.3997338228922285,5.92507151873359,-7.428144705933379,-1.9647460903011689,-8.562920877170267,-7.195465983116321,-4.874558806116341,-7.314537527617793,-3.8939572124486728,-6.486117511418681,-8.686976866246447,-14.998197803184732,-4.043173955272308,4.29284869252598
91204,,-5.204964801203717,0.8879861735580679,-9.42957769603424,-1.874290908634724,-6.243810602974848,-7.345451118935098,-5.304787105845923,-4.291738373031602,-5.154497082525971,-5.707166400917046,-11.612156675831535,-13.156825512702646,-3.246187590013561,0.0737851203097497
91454,,-7.607704902228115,-3.6431885557954713,-8.069277469297404,-5.697427503499654,-5.077142731125558,-5.05196832113074,-12.042884521289396,-3.0788269513941438,-3.660592845458812,-4.3759757812215,-8.188206770416475,-11.823867115179604,-1.54512848124453,-4.192193166732483
91704,,-6.009029980104723,0.0742998645104724,-11.398478506521164,-8.311890193677238,-11.23696141700458,-5.900649451672503,-12.443567204599216,-8.85032272565155,-5.387266222638293,-6.51382730204924,-9.386004790840468,-11.979611005851522,-4.439428156363437,-0.770127301812467
91954,,-1.6884573092860182,2.6465727694864007,-10.735461349905751,-4.866998999063882,-7.542180447758136,-5.4001718608676565,-8.33381480677138,-3.3326903945034365,-3.078942958774784,-7.621567315604183,-7.429089312739933,-8.687770878886646,-4.7106729994811545,2.1173124755003254
92204,,-1.8672241345925664,3.2906969091148444,-10.50563473442718,-0.0279774102494068,-5.037935174618944,-3.730318252201452,-6.187807283759872,-3.833247253345815,-4.538613387670145,-5.146142017203258,-4.581034413455022,-5.777444609307644,-3.8935588681691753,1.6324225501324134
92454,,-2.23811323522458,0.2437318113200576,-11.814269917851076,-1.1641052211547205,-4.809182513743309,-4.792588375384094,-4.722686369533816,-5.435087055555137,-4.608247568137936,-3.995303848806656,-2.215047982797576,-8.635262762107264,-5.662181508870376,3.3271481535953837
92703,,1.201698514881235,-1.561319219165135,-10.62029877424642,-3.276297232933809,-3.0205625688529665,-4.3329980357768525,-2.79691218373199,-2.953717836444385,-3.600876231264686,-6.153419278231177,-1.7297509604298875,-8.64850215298256,-6.017923661128245,4.0494147224046255
92953,,0.2438094909349156,-2.858105128399256,-8.306419476470495,-2.432145998636096,-1.90866396019058,-4.185184723183746,-3.2270232637151404,-4.357888668938871,-6.4237909890730815,-6.652785196641218,-4.648424269092829,-10.027028232468458,-4.852613946972218,3.122639253029332
93203,,4.087594951284595,5.211222624507986,-2.185022054125178,3.514844777791054,-2.6282825113826727,-1.8995767442070275,-4.939492444806576,-2.9286085797073538,-2.9521981741555625,-1.2712363082318063,2.744944067858124,-6.333107362192717,4.019215945930869,4.566016108486811
93453,,7.0484934670351285,6.859390547744983,-0.1925757752267869,3.439118074038479,1.0488589045126304,-1.7338228186051947,-2.873258637222781,-0.7166911472256363,-0.393805311866353,2.191668539978003,9.359803602076456,-1.7055976342662371,11.347238871375074,7.021807601163193
93703,D,2.8695125527726035,1.4697831029947708,-4.898157090400048,1.1670361077332412,2.1059941661920702,-0.634671406378725,-1.7024486577166489,-2.8566839205918573,-3.862589552138427,-2.549867435452413,8.442303459884602,-4.464641906615007,10.93139080490308,5.074655473527842
93953,,-1.2373264883649933,-2.402038807176216,-7.607889036878479,1.0605073369746174,3.7426886599584352,3.375784607532476,-0.474176387480256,-3.253169673393828,-0.3323360476694946,-3.1492077601084327,4.676103056802615,-5.191643341830902,6.0327254675700885,2.535324240102066
94203,,-1.0516893520353414,2.787542834449801,-7.874310203007958,-2.0804227590426896,2.216561648953059,1.2363535132248318,-1.0757720829624673,0.1767146895138556,0.791630880766211,0.9934105411656138,4.972170574027941,-3.340572638259929,3.4933476520773645,2.7283925892492022
94453,,-5.211951342498347,2.3878810714361496,-8.370847343913494,-2.564943350874216,-0.5085060994251638,-2.646282919648635,-3.749396020868223,-3.710837242475834,-3.9471327456896574,-2.50573961278591,-2.085154675194554,-7.192018005191908,3.0615547070202105,1.0293960904480377
94702,,-6.834383647142954,1.6137042064353857,-10.87057309143442,-3.624480714649145,-1.517908204111169,-5.742227905574774,-6.679419779254888,-4.999812389706654,-4.384106121983652,-5.041081598097664,-7.33923681341166,-7.356274857798004,-1.4440687252958104,0.2898772557863081
94952,,-2.633040244727332,2.40799997640548,-13.74273262047688,-4.579500275075077,-6.972421939982745,-9.76422990886394,-4.946493998955508,-5.622341454600176,-3.814263235475369,-4.045327438554344,-4.883793539147844,-10.37257091883907,-4.019620195431899,4.0571050373365445
95202,,-3.759246506192731,3.2703019201697847,-10.82011426136476,-3.7023698121754833,-4.7070694411643,-3.248991894713261,-3.652532064110982,-8.088528576554545,-2.1900933967457,-2.1904875549828144,-3.736495633596083,-10.070672353207724,-7.835118126144376,0.5618956844396487
95452,,-0.6089118735091594,3.039973685038765,-9.492308022178936,-2.0667008888320155,-0.378201411927474,-0.8838241801445751,-2.582578332515228,-8.340799544372748,-4.253859676450613,-3.220062181593822,-2.2779830573586497,-11.4731173341334,1.0915679960264677,4.497612448089089
95702,,0.0464898444873776,0.4535518484383624,-7.64208877278018,0.0697496026542736,-0.9818812327235332,-5.317343641932217,-4.144402544152117,-9.143638194103875,-4.968432809303474,-6.601835113415195,-2.3276203487014744,-11.02017882479627,1.1887484858114912,6.717989120923749
95952,,-0.3977558371766135,4.146648144211095,-6.287520827636326,-1.032849763177708,-1.364096749890178,-3.921262586311955,1.4758065464771832,-3.259076534835196,-6.252446101665886,-4.51937233335658,2.4988587043909214,-7.324416448237338,3.846927881011778,4.999716855096245
96202,,3.138215964624893,4.93951149112712,-6.988898073369975,-2.7984802455040474,-2.042767609965816,-2.3467635206425994,3.1768369104386096,-1.917994742074347,-3.682346199285058,0.4421249702158993,6.033980735065667,-9.580097281391462,6.439426816731482,7.3607661525682815
96452,,3.863410854468155,2.2006716299928257,-7.244423423985732,-5.780700854186809,-2.0451649876791005,-3.863395433500801,1.0321080044869333,-1.393549427295654,-1.8823479322414796,1.7956962848244502,5.7299986718318285,-5.42368513610766,2.5793463589061845,7.468526078616308
96701,,1.867492060350462,6.363469140120844,-6.866983752932184,-1.5817650828538383,-1.2167958020124177,-4.880492949808103,-1.8423196318657091,0.4894261870353522,-0.1886343035356361,2.2512241185993567,2.9926001704403187,-5.188427604996669,5.268049893837036,5.23991468542291
96951,,1.8758005301064848,7.44280216065056,-3.595195135594257,-0.4101148043621299,0.4501222884274423,-0.3974656217023837,0.903214833875525,-0.4695072009681282,-0.4267073222638802,0.5866888644514502,3.432393467846515,-4.643147797106007,4.603350075069909,5.2093713726254975
97201,,-3.8773978480765208,4.590513984176228,-5.869671472091431,-2.84004710237811,-2.8405828494583654,-2.919295320330889,-0.2758965886350276,-6.905251470894692,-1.4847766325076626,-1.629754205151163,0.7926037197941355,-5.636920357240113,-0.6643920752888228,1.604771139073983
97451,,-5.124731092270956,0.5179016599638292,-14.53353543472782,-1.5366336160189984,-0.5806464685708933,-0.8147589050951629,-6.528431069189954,-5.434056811382927,-1.821286902872548,-5.788712508877812,-1.0258932046419642,-9.550206926107355,1.2554764119750024,-0.555886348320543
97701,,-4.991560164282757,1.8650809229630272,-9.141981930582972,-0.7513626438817284,-1.848969482106701,-0.5229884094729185,-2.912955856983648,-4.453650508361687,-3.2437873868346285,-6.453219129088982,0.198335885629692,-10.833240783706303,2.177746613553519,3.267802842952721
97951,,-2.537223850663193,5.317135353065222,-8.442394444045814,-0.8938657106103599,-1.693519758103915,-2.500879277588413,0.8739790421537723,-1.6608197603210886,0.5208279863807246,-0.3250932300953615,-1.198996799035092,-6.332788434469131,-5.728329557524672,5.132184428548667
98201,,0.2377796938652714,5.681984845062802,-9.873883901750292,-5.5605288619912185,-4.018245458387637,-4.902959963230872,-1.5208919175242428,-3.0867993112608083,-0.1835783551783068,1.9447722240317875,-0.4162083198901524,-4.437081564276837,-0.6208387605263814,5.428764227033128
98451,,0.5223830984160026,2.839161975089572,-9.980912162096091,-2.236003296111149,-3.162820138702683,-6.155920790392285,-4.914313886939551,-2.7055227400853665,-1.533572660693328,0.8983519170671532,-1.0785084912044336,-7.770020209205624,2.233184938711786,4.468757672371252
98700,,-0.7612757795038272,2.78796174001176,-10.594401040320992,-1.0746484772726763,-4.360943232629292,-1.9361813681999929,-1.500835187161693,0.2580027794317918,0.1854895021032544,-0.5051672578335092,3.541054358964591,-8.82836912510411,0.442932977233211,3.6287350778953096
98950,,0.2025954261811962,3.242802434679813,-7.402700695833307,3.945300337583604,-4.3270186094963226,0.4068529495184884,-1.3009842160496432,0.1153216046654006,0.5050970497614565,-3.612782800573612,3.80874107949196,-13.034003637269633,1.519289024579615,2.2626884895132773
99200,,1.276939999566722,0.2388262777073469,-6.754306397632062,5.22409580919242,-7.256192159968336,0.9087920810219092,-1.45828214129841,-0.2523456732053541,-1.0624822231752715,-3.94403822146712,0.7985245671451306,-10.28404528547,2.9265862515141183,4.645568078824974
99450,,0.9746085461482588,5.072045284881082,-5.685392462429999,4.403734344495831,-8.764199673889701,2.5297151792944508,-0.4302523101469794,-3.4975168900092184,-3.871920261745404,-3.209881483587647,2.349602269959182,-6.458779041266599,2.0676414258879405,3.0026825019119734
99700,,0.7977593486807759,8.392855030011741,-4.361222880378898,4.1951325666345065,-14.61081074044861,-2.5013954767188458,0.5077760895463835,1.2603626309195972,-0.1099379244483047,-0.4045206283931901,0.4820639302167707,-4.708549928541824,5.554824946087279,3.907843676063284
99950,,0.5663473049844086,4.181659298531254,-6.043220270129947,-0.3853518814850714,-4.6194156318048085,-0.2693623942895113,1.8984030475200488,2.9566459526065128,1.6123804901263874,0.5646760676125179,-0.9764392125104254,-3.959910511016034,6.219856705955359,5.291644046087397
100200,,0.806827442129739,-0.2679109269355816,-8.07394484128298,-5.731194661238742,-3.5235369135675247,0.0244633546126676,-0.2741529128674795,-0.1851298942144398,1.123516472233479,0.3046634393829107,5.570004085081395,-5.836671643721388,1.5600374002838522,3.82822298393558
100450,,-0.2258515921996093,0.9744988568195128,-5.086131313275891,-5.9002212594489,-5.871682894198308,-2.8869200328513838,-5.492702469008939,-0.326951437042372,-1.5573074195202803,-0.5677943938585798,3.618612248334048,-8.58628708293016,0.4110397688514554,4.38373691472531
100699,,2.061382978893585,2.9272394731637075,-6.323744186226064,-0.5233222921002283,-1.1072046873167272,-6.9098468590357935,-1.899238074769603,-3.7311303980467097,-4.146719102051062,-0.7049338964890194,-1.5603330435043747,-7.652648284013463,0.8354093343507116,3.729192588469191
100949,,0.5301504835661477,3.862616351114205,-6.721730944024095,4.283639891545938,-2.78083381643879,-8.121543150392066,-4.426074889229551,-3.35674815952048,-3.084331724225297,-3.075411654396646,-3.627335023711436,-6.991238712422469,-1.233855083161356,-0.6628081266860475
101199,,-6.355715477326847,0.7067317236990258,-10.454946202718464,1.3948670558038991,-7.046169265663367,-5.384110764999489,-8.289117796252278,-1.678179941321714,-3.3432446580586594,-6.308533667921056,-5.065887794435627,-11.077906886354835,-2.5194736007430727,-4.695940593709332
101449,,-4.262786077589008,0.7275196928196731,-7.308051744863596,-0.6600626329171624,-5.193788728558407,-4.493663411855552,-4.194540827899717,-1.3303662860985837,-5.936278515302068,-5.816208215586613,-3.3937874803543098,-10.020516356472529,-1.0445176502571265,-2.6465208190322507
101699,,-2.6111906490251133,2.152936522433575,-4.693634103481021,-0.603870852898324,-1.404666335091893,-2.4210171277118824,0.3616252074549043,-2.0500900581574792,-2.7275092883371146,-6.199568166523664,0.0642188579548831,-4.3165842797428775,1.7724200850129428,4.791108008642179
101949,,-0.5252006184666362,2.0024965198176035,-9.842227724598583,-1.0694260009963632,-3.2603056864389703,-4.525181256942475,-1.5568670708421135,-2.048265140562714,-5.064434587861932,-10.443079859685383,-0.7106229528955215,-5.3780821308504825,-2.293883056421893,4.069189506192272
102199,,0.9682235909228616,3.883427607955543,-12.22546701771229,0.4484031160397832,-5.948679831376112,-4.550903239428586,-5.611458759817979,-4.54967394527935,-5.165660610735323,-5.870978570615472,-0.1394424342091581,-6.423267890560807,-2.306404981147706,2.701274292656586
102449,,0.3391882938659495,2.194432039471009,-5.785273705941209,-1.4742866412574116,-1.8519871715411835,-7.397630773008379,-4.988064713882599,-4.340677512448388,-2.7355999561415567,-7.098553831276456,4.355472396741708,-9.277133178215983,-2.8520507385255707,2.413792304276616
102698,,0.1072236695425187,0.2693490191405387,-2.760536210877893,-2.630339606015073,-1.7184337738786066,-5.942830659280767,-5.559122617335292,-3.9225096799120336,-3.938220599884015,-8.83136028724916,1.2637210470261608,-8.104603523575388,-3.2464476697801947,3.7720137681888968
102948,,-0.5628770717146443,1.8208030200201035,-7.012384053776767,-1.440796973815874,-6.257393482511587,-3.8903976091840815,-1.6496487234973127,-9.671475623931352,-5.484483640439132,-4.986441739856725,-2.376432300819737,-9.975649806964274,-2.749020541056311,-1.1526688705521673
103198,,-4.76979652564734,1.297005219748956,-11.372090195190136,-4.9862887397435225,-8.339294034446999,-7.763741682535032,-3.077090922282302,-7.995545806906069,-2.7526895204566806,-3.605678565849764,0.5230988798691125,-11.617236317211017,-1.6795340504418128,-2.3409399246932336
103448,,-4.303177159369365,0.2456583329222256,-8.851574133619877,-4.497476717643064,-9.374079588638208,-7.301385946645549,-3.666532834179304,-7.531936624434669,-3.528800733550085,-5.674960733434965,-4.009008268065771,-8.624068343325051,-2.324674559491613,0.5090648037283008
103698,,-1.732221803846963,2.0192839424502056,-10.982386226432318,-3.710545600729613,-14.2953155802799,-8.809958133208255,-5.020278279634126,-4.472618359215107,-5.472945803801363,-5.54076716976172,-5.439851120488476,-9.493579111949488,-2.177161341570551,-1.6549592428122637
103948,,-1.925228993504562,2.2941702874935137,-10.093995086613974,-2.3139826200721387,-5.5463022320498965,-6.471393347706505,-6.225898305328247,-0.508640108876286,-5.083461353670632,-2.408520321437181,-1.7920068222917678,-7.128687659587064,-2.2828355424044227,3.298625722856695
104198,,-6.9260063481087375,1.9514051664478849,-10.50194428499788,-3.0686441576764283,-1.5340349275654912,-8.952512002779313,-7.456195745781011,-1.1459748892771762,-5.482430896989338,-3.192825604319639,-0.1915893265916909,-6.762413955122215,-0.1929316663032103,4.896674403620337
104448,,-2.99573499852925,0.1464060624470983,-8.206525930587052,-2.4630403630337256,-3.5408917568470204,-8.043757229993275,-3.907761575695922,-4.229609144514013,-4.482953812697456,-5.537582257223491,-1.9731582050070933,-4.917357636532832,-2.462305498968587,4.869249332538564
104697,,0.3306690049898882,1.832070896203144,-4.563627591609375,-1.98982525251538,-11.38150523255086,-5.447529758403168,-1.5918177858518177,-6.146768845083401,-3.6725701332890095,-2.005871889459198,-1.2732710104845568,-5.499800656373626,-0.0339213088985204,5.092959257037388
104947,,0.032689689685469,-0.9553562552434078,-5.48761544694261,-4.335140523345988,-7.963129671363514,-4.086903377669962,-3.3047942692584824,-4.353290645808107,-5.248132880903111,-1.537948010112656,-4.81217654044155,-7.260744755459871,1.925371819782096,3.278098883186708
105197,,-1.2506484549572066,0.3572365742793516,-7.333229123317451,-0.8205919510171904,-7.285372824209416,-4.973228926817591,-4.746887384083301,-1.6186671394130665,-5.460381860021151,-5.999214222012233,-5.332634234431777,-6.4472138190780335,-1.052154903710427,4.115832786845877
105447,,-2.812067125451449,3.420435495482958,-7.685649301213963,1.4927044023962923,-4.723394398204629,-8.478975662001732,-4.8532272176463245,-2.0795576448169752,-3.505524178291714,-7.2917405519958,-5.040510476826406,-6.0894658057922255,-0.6241658002947117,3.631101155961773
105697,,-2.909954795843283,3.1152839962792958,-6.974279575695936,-1.4046713427367234,-7.726667864241793,-8.491037940388876,-0.2050637359170111,-2.2416052238002946,-3.336027030196927,-3.876298471766935,-4.585166129065109,-6.124379265785099,-6.347918623402205,2.831419296859634
105947,,-3.6321674928249776,3.93383903248689,-14.36625848321005,-8.814188734914525,-3.5962700593767263,0.9187102620617068,0.1992362320826002,-1.9311919427868296,-4.674765449084884,-2.610325189229173,-5.46815180882578,-6.151068926522546,-3.628139063848352,4.998656356306524
106197,,-9.064787636043016,3.785133109106995,-15.887906637099285,-6.246483766930586,-1.5452873987248952,6.684398983819271,-6.011433138825867,-5.181340017554103,-8.304744901561499,-4.011062435580778,-7.624377808118904,-6.463520273079729,-1.3216161559644917,1.898937898538733
106447,,-5.241810818363328,3.711958999919853,-9.813167598728327,-7.365319293163498,-4.882207453085027,7.174412290099489,-6.551355515180026,-2.7197933199432525,-5.478769428566372,-5.263290273696329,-4.755925029085132,-6.514383671878013,-0.2826727769358332,2.0728210818042063
106696,,-3.42445017416361,1.750824186356851,-7.552197980438844,-6.304756481807814,-5.447403593058732,5.567137885346787,-4.24159661636489,-0.0523253303630239,-1.2770356660746176,-4.1450348567421855,-5.876594492379387,-8.260950266334664,0.3625114193351902,0.8769417817826444
106946,,-3.242863166589205,0.334437416140301,-11.263229399513472,-3.0644963107506524,-0.3466247769884526,-2.523085490422888,-6.435573510564444,-2.680806860313472,-1.997695543705455,-3.467667885684313,-2.409100406778964,-11.252040375921004,-3.058788791944332,3.9676050953499535
107196,,-2.679793127273406,1.1316881821795972,-9.33836205627527,-1.4535546023700163,1.7924338976096483,-1.899143744077032,-1.6812087342174316,-4.691056330728277,-6.898597660189384,-4.601737164130353,-2.019274369023176,-12.947256940203824,-9.848291539439815,2.752295393910801
107446,,-2.9142034408562374,2.3307552748289804,-7.190952415207722,-2.779036031475007,-0.2510018697131772,0.3606192582903272,0.7602414655908896,-7.129070483143209,-7.142978501759451,-1.99438029822164,-3.8365514540722345,-8.585430513964923,-4.645641512065507,3.031358324342813
107696,,-3.886919349790616,2.2037947455671225,-9.148019028529792,-1.9867517957159009,-1.6596376595704074,-5.497954232168471,-0.7054095923794267,-12.427857547375217,-5.823914733042109,-0.6882583032013292,-4.219414680964724,-9.33831509806593,0.1645036801819098,4.134778665321759
107946,,0.2605812713705251,1.9763369072997647,-10.726285754878088,-2.314964259646283,-0.3830379617769873,-5.530160205602762,-2.67517894260343,-2.9539308656810808,-5.246187336996922,-4.980255540712085,-3.959089121683421,-10.873862640594083,-1.7954415565908015,7.326933616734621
108196,,-1.5006919332031532,3.634735351373486,-10.566705380786868,-2.0183294056095,-1.143699460649627,-5.162947849929223,-1.4626730438559057,-2.293637192143116,-5.274556140993343,-5.584259822853577,-4.212914671664244,-8.455063590808164,-1.3722323904097722e-05,3.7403643945106033
108446,,-4.588568964718441,1.8751894298254284,-11.24836266241978,-4.111439211653581,-1.7291114063781303,-6.172866318050306,-1.111110442615461,-2.843815180585712,-4.398267014619956,-9.2043273017391,-2.505881858186652,-8.993440843400576,0.6352714527313588,0.7305529923780358
108695,D2,-1.444211282711979,3.1836891130824507,-8.448488580362453,-3.1767485097354053,-7.28699260531629,-7.402183906625152,-5.896689750634229,-2.4195469085684955,-3.48357888985385,-3.9524407732259776,-3.022556093633228,-8.360902850661523,2.168386718993743,4.010796684588469
108945,,1.7228196257359965,4.798170340791766,-8.33426462537386,-1.082273617252381,-5.686680962060203,-6.155777325460264,-4.736775160299112,-3.958420173369661,-4.197292885898991,-0.494815614134331,-7.587367173593826,-10.77612914092782,0.3351689992081352,7.946306928415943
109195,,-0.0565603203636393,3.777185603682344,-9.78039682149408,-0.19321868414452,-2.614510411890228,-7.151938050463289,-4.464284471563441,-7.678067001073922,-8.166813077433801,-4.744148587219117,-8.671022195132052,-8.597617226751726,-5.187352609707955,7.953862437073327
