timecode,event,eeg.af3,eeg.f7,eeg.f3,eeg.fc5,eeg.t7,eeg.p7,eeg.o1,eeg.o2,eeg.p8,eeg.t8,eeg.fc6,eeg.f4,eeg.f8,eeg.af4
0,,-6.084937891049522,0.3990251513856278,-9.60743517363854,-7.105475296061982,-5.952415674026311,-4.609660004766935,-6.051721348506252,-6.378057274275793,-6.092896636707284,-3.9921886386514815,-6.577150181679475,-9.589397608817537,0.2683978222970923,-3.360963316317604
250,,-7.556068531307645,1.804537829805083,-10.354545051935604,-6.998929305848877,-6.86747806667705,-6.08932490556025,-7.485808220517466,-6.7103192304660055,-10.618288379903795,-3.2757619276808074,-4.840286379909088,-7.642693275541006,-1.851589672324383,0.4517672496840603
500,,-6.477299701056656,5.544567530065143,-10.361312111559274,-5.541451001763172,-4.543135750973651,-5.005771806302951,-9.506945080325048,-7.772267429792055,-10.350575065412468,-4.351113771294538,1.3371646766500145,-6.404573551311204,0.0239349513058404,2.963487957762577
750,,-5.946416528842691,3.587846946661543,-11.66528142191228,-3.3043262956946347,-4.424090052551656,-4.1080143478166775,-6.462184903819049,-6.978177691347253,-6.1486117563676,-0.523021779960663,3.097524064003471,-6.232181571942368,2.000110197405098,1.7640999198721534
999,,-5.99357563191076,1.7655149750828132,-11.248595547023443,-4.881447573991903,-6.714257671166632,-5.747323566730078,-5.604368669737278,-6.3764654398682,-4.293155789213783,-1.2042814329151903,-0.4730380643860626,-3.677231965933323,0.8672620154261808,0.9841834169598552
1249,,-7.797348184513283,2.511864803247211,-10.30691249357602,-3.557328871498454,-7.534015028361299,-8.134820634733028,-4.50674110113715,-5.514053066429182,-5.508796651792217,-3.566729201565325,-6.343267018604606,-4.1550842228740335,0.8122604727475192,-1.4334578964161686
1499,,-7.054845066930917,-0.6018360173748141,-11.60206820554432,-6.8074799531484,-4.464125180807609,-1.451379698236286,-4.214312518312709,-3.970512064704884,-6.391545999794088,-6.058131933747014,-9.32582980240998,-7.761312762427021,0.1627660701905316,-2.0184541954493938
1749,,-5.776500578823963,-2.6963816423093268,-15.73995009168787,-10.667125981458913,-3.7817003498902,-0.9388101018073276,-7.4433688808936544,-6.062023704564372,-7.220333105418763,-9.821594183514284,-9.342469325254251,-9.422557512301024,-3.933203152531095,-3.0803990440577222
1999,,-7.677797988274229,-1.0405366511402476,-10.160276273797656,-7.20643952687103,-5.304989321284362,-1.7968093619813037,-4.98536521384898,-6.478998726387271,-7.136911805948511,-9.503130371603053,-8.373783339517031,-11.842328171311811,-1.9923095742434316,-4.118167133877298
2249,,-9.91015490948388,0.5342632170983395,-8.191776276101786,-6.360584704147448,-5.376936529453175,-4.643013141266742,-7.5098756412590175,-5.842916460132804,-7.1999699109889175,-5.6120672356028525,-3.7322905314950288,-6.822317571145015,-0.2989813597271784,-5.366383926820984
2499,,-11.535915460060815,0.4451700271175856,-9.50494740988645,-4.552357118761695,-8.829278625135084,-8.498943084430989,-8.46428710042099,-5.771260174165134,-9.317356792495138,-6.277629573460986,-2.942002440448647,-8.78182715254134,-2.4298822588260083,-6.739811345202378
2749,,-10.992638441986433,-4.533382673084664,-7.645014863470346,-7.371309823027762,-12.578802375394336,-9.948701584060412,-7.898203988905916,-5.643419911702408,-7.100621874931288,-7.182814099261452,-6.230105822236455,-7.306118946959349,-5.539424296384512,-7.321449659593913
2998,,-9.456576899176918,-7.056509246535274,-5.6282833836397606,-4.622765052079718,-12.34536217850598,-8.515113041327897,-4.324794431312478,-7.664044324966424,-7.98666300288229,-9.178663119356845,-5.847246562567703,-5.758160134843995,-4.9973502786025925,-8.338985017870858
3248,,-7.607944001886987,-5.112988205382196,-9.881341533411954,-5.982283083885868,-6.6325680456647165,-6.368779966364384,-5.50717859484402,-8.019594998244253,-7.307994184549508,-10.21908401187716,-7.788791471939445,-3.6312958589381,-7.137545309218758,-7.136581238600831
3498,,-7.498647516457249,-3.167098597004545,-7.144039642787449,-7.900963325155999,-7.369688028552442,-10.67022949043562,-6.015251154386487,-4.617080846953205,-4.909391090414372,-8.328816343106299,-8.246854292122949,-6.671772298464812,-5.717898238597975,-3.3871779885918203
3748,,-10.373171558206645,-3.727144404174135,-8.226014512764742,-6.742429391287802,-7.094315482437114,-10.229331226723644,-5.962318210168506,-3.285409367902676,-3.974287199493896,-7.080896449350023,-5.981094910875065,-7.586838660698744,-5.329106606599595,-4.82972505794156
3998,,-7.768324104451231,-6.140981329187158,-9.293722684742596,-5.748991922179876,-7.868745538946461,-7.871041906687345,-5.601818542733255,-6.379855470511665,-9.048492956399556,-6.711128763588762,-5.775995097134784,-6.348892571199371,-6.643282440637195,-7.129167158586257
4248,,-6.70138240348034,-4.8570979834271375,-12.330551021174925,-7.85763940714155,-6.087432224695829,-6.560836431092262,-8.220181678681357,-10.262556184714652,-12.636225744597544,-7.610899389398407,-7.624172561436723,-5.756615061737773,-5.464416780333217,-3.0306794419125778
4498,,-6.1154415202822845,-2.4104369626707283,-8.915678155097627,-7.116548704896655,-5.6833255792804485,-8.050497311660065,-7.09982848645161,-9.990300979951606,-6.012108258132517,-7.654545403603561,-9.094887891703126,-7.262408596994897,-3.080193990609893,-2.247271457856417
4748,,-7.933129167598195,-0.5444715512972487,-8.035337676096505,-7.81881226426275,-4.977087745695234,-6.006152500358438,-5.404332904404675,-7.752465629144714,-5.247485325793496,-6.558428291956382,-10.873324563937608,-8.62097903258915,-4.340363388209886,-1.4810434113272672
4997,,-9.135210607906751,0.6426556766764145,-11.184178793228046,-4.793634066890354,-7.056217818509412,-7.765211891857238,-7.577791841182472,-8.228562411539091,-5.723409068665326,-3.65154918317063,-11.925264155177471,-11.004086525774772,-8.97175349082427,-1.74307804366491
5247,,-6.579221359862041,1.500303827977561,-8.337627291534938,-6.453743826397286,-8.3270480330285,-6.570929563275694,-5.887567874067619,-6.3241806209659455,-6.971680211330861,-4.358725809632775,-11.044915950159323,-12.688249592735776,-6.659955474781855,-6.293812290549724
5497,,-9.106345760818158,2.932951754965715,-6.906971267116399,-6.654963814253713,-8.63682822681623,-6.617029249657805,-4.601954933161291,-6.700130607623488,-10.470883517721871,-7.979427459035419,-8.292757920238992,-8.874100205428492,-5.334502542423396,-3.964639646271113
5747,,-8.813264239323221,3.2638901811342897,-7.23627567812069,-4.177600779039611,-5.941988023228745,-6.837221850426638,-3.9104055314736086,-5.956271316221997,-10.355853567758526,-7.537343985407436,-8.311860448532675,-6.453785692827724,-3.10051550110634,-4.770328083241433
5997,,-4.432450277006783,1.9580589786354576,-7.257923184548696,-8.183509447294991,-7.469317537914076,-4.177556637217781,-6.494944307817663,-5.314283731596722,-9.256523037289274,-5.347858330914082,-7.722332733260371,-8.011858161567192,-1.4085653988407514,-5.7510505755679295
6247,,-4.808077406523656,1.412092592500731,-10.356308612539634,-8.827869398971451,-7.671502222520417,-5.84213319907397,-5.704473465789262,-3.556459343350312,-5.649438333373249,-5.116160135088493,-7.208400950817877,-7.19915477057204,-0.8605759157789271,-5.0293164903328025
6497,,-6.75346281424341,2.7929268595849983,-11.863995973108976,-6.317980112725906,-7.406719163454545,-6.729736985498159,-7.024924228196237,-6.167725544703577,-5.429145450528608,-4.710861242316785,-6.959785587009892,-8.16247650730432,-3.105085200889886,-2.626210892128963
6747,,-7.020174292621153,3.850023023418799,-10.23376728073258,-3.7218204585813446,-7.0147424625483445,-6.720218910694193,-6.2604212975733775,-6.9904092818540455,-7.1595142616792105,-6.660320877020204,-6.357530243177689,-7.647844718711043,-4.938555649007194,-4.085585753378149
6996,,-8.887742933964606,5.58914219735261,-8.06399204646747,-5.245442054549175,-5.365783111915036,-5.888725393284297,-3.3672241788704618,-3.6045802633243977,-4.806764418897956,-6.550523124969297,-5.327728109463038,-4.026943194050394,-5.02858389217451,-4.629094393991558
7246,,-6.206218223913815,2.004386045812516,-8.898456747562474,-2.5307330903347385,-5.3031327671705295,-5.079620535387908,-3.1394742265612834,-2.194858944104478,-3.7129848477426792,-5.803479742503508,-0.3273749187602153,-6.212457882210921,-2.20743870078582,-1.0483771799458526
7496,,-5.429836399555188,0.894631315864824,-8.955920444123946,-2.753307247057012,-5.358826859045221,-5.625952256982453,-7.734893217329777,-7.585917696840246,-6.011261370225584,-4.793666324953064,-1.0738452800664522,-8.616237538933792,-0.0416447972574512,-1.8384426663134008
7746,,-5.6659367438131625,-0.7733051389296706,-8.988966053402907,-5.775644706606019,-5.936602980801534,-3.934265701582991,-6.3558445512253385,-10.395366550946576,-6.913641609091909,-3.974304139618238,-0.2009910961434815,-10.124838550622297,1.5023700559012043,-3.2216000046198348
7996,,-7.248658237841373,2.778945366962531,-9.037657452961778,-4.786901567992777,-7.010674577864185,-2.3679357628685658,-4.615759627662043,-8.753686925044414,-7.143759421367463,-4.052762740784153,1.1508661219963847,-8.036868285711126,1.7638050717446474,-1.9333871410793968
8246,,-8.127584380320233,2.616169989094175,-8.079421871621124,-3.385701638674959,-6.217493657230815,-5.210078509335877,-5.647478742118056,-7.866535297896753,-5.97717882516493,-7.173534380547812,-2.5269515917232708,-7.376892953488596,1.6194824755729085,-2.323591135199004
8496,,-8.56736255492881,1.892391519700307,-7.780045653084489,-4.271888488518066,-5.8477005342657815,-6.228964253518239,-6.186100362768723,-4.332263736631895,-4.405928280853949,-6.819233780161959,-7.432784218433986,-7.256397573029336,-0.0648667627903895,-4.279284715926775
8746,,-8.819716330486607,2.730863786487245,-9.411569749318762,-6.710268152550015,-8.791186389835632,-5.565265897396267,-4.507551641503097,-3.5534910098296986,-7.078907506772854,-7.0667728049734455,-6.518797732181437,-5.611277720712829,-0.1618129801320225,-2.205178812054127
8995,,-10.279268483151164,0.2569088725152706,-8.660604617449813,-10.915929766954292,-4.9143359865164165,-8.259466697545134,-3.846728122380704,-6.181034711423601,-9.216624466225571,-6.959650251259125,-7.378925773937012,-5.102270400117276,-4.439799664069467,-4.103074813352744
9245,,-8.330042979219154,0.8060700302363035,-9.7282963827264,-9.253216756916418,-5.535962313381447,-8.653386398737386,-6.051525204651645,-5.541848447548099,-6.134076807845071,-5.355968546918532,-8.215493236913057,-7.541262932398683,-1.9564971780384632,-6.183532926543879
9495,,-9.594661260037576,1.007557577304382,-8.580020507946948,-5.520003827370448,-4.852000608505272,-5.345768355036484,-7.979050656659124,-3.55008994944003,-3.174946937708884,-3.2933589577857947,-2.56201308019753,-4.729168021854019,1.4728672033215626,-4.931645762926669
9745,,-8.41125117691896,2.2343767927883462,-5.850430748455135,-2.591094598178994,-3.553005797872713,-5.338440094122953,-6.883699611979553,-4.93599146561724,-2.0876297115721414,-3.158646665598331,4.191100377762416,-3.566648477590974,5.232348788486091,0.5275858666886806
9995,,-7.606801916671016,0.0463030812751505,-7.668583141884265,-5.859496436904477,-5.16806589339879,-4.361068725565279,-5.214997208339637,-6.010073460140973,-5.745627640889781,-6.459255900816592,0.7374319615602142,-7.103384492794223,1.4365744208064914,-1.740916294578778
10245,,-9.862355360934243,-5.018027913431378,-11.127963794199934,-7.189026074580985,-6.201476444621602,-3.2927533760053813,-4.616708973937521,-7.247894886361127,-7.839235175681419,-4.722402993657365,-7.770582342300072,-10.745582119518732,-6.0650842835294885,-4.082448524000524
10495,,-3.460004421566936,2.7789773311696706,-8.113985598164259,0.8167972517188524,-4.931124329946572,-6.369453345636869,-6.721041406120108,-7.095635773835824,-5.775306364625822,-1.033889227347076,1.1873992697571092,-9.489736382969603,-1.1214292051451726,0.6003716863867924
10745,,3.063761755470348,8.288960832143164,-3.057976168116028,6.455564651685303,-1.0162740463547006,-1.6473162602441918,-8.771032415191243,-2.9463589897914417,-1.6418680788203934,2.5194432731999523,7.164428976857534,-4.747696008834047,4.497404426885404,6.766569242118548
10994,,0.0348597277319323,6.720732896328756,-6.620362328910055,4.4235468858399605,-2.268504613650482,-1.3967679755609312,-6.126778239191485,-2.108009940110949,-2.485424449010149,0.9020833050327304,6.036233620449625,-6.260693418105396,1.9578746924225252,3.726390921334961
11244,,-4.12582921031159,3.962841944550771,-10.504662411761384,1.698410992344839,-1.1436049462554383,-6.294218017756488,-4.769771262021142,-6.070863848117154,-2.257737273104583,-3.3312282159788174,-0.9331897745940196,-7.499740289529417,0.7663653600426092,1.6481841571390854
11494,,-7.363449674493124,-0.0478566840029745,-9.586195162108211,-2.295439027835448,-2.950217697317183,-3.4286460530151777,-4.18437725918362,-6.339935307949132,-4.086170788958516,-7.739207558893975,-5.484614117045268,-6.3880779870448325,-1.0792617739859989,0.1106516132345575
11744,,-5.884511088117103,5.014743926891306,-10.815178595650467,-0.2786700376832796,-7.148539264652351,-2.8284582350392835,-4.706026995634824,-4.020770990736082,-5.230034539128039,-6.163747241031881,-3.186885417770177,-9.215385600905275,-1.372346292885331,-1.251958442847464
11994,,-4.71484015213345,5.492936731733669,-11.359827314097862,1.4928180716817154,-7.159811945637086,-5.162162664557767,-6.066996668755857,-5.615543279036789,-8.734887970383822,-4.199958595303016,-2.123520808731856,-6.946777678465042,2.691530326438491,1.5997723388992902
12244,,-5.451913973965498,1.9540172118664396,-9.485260949078029,-0.1792263382850868,-4.662276646977762,-8.089796090891191,-5.844710173217891,-5.84210809218861,-7.998998876269148,-3.391806462456359,-4.758761141123692,-7.374753854136188,3.2415759201280494,0.3957945968505422
12494,,-6.770419693419079,0.8498632454361638,-9.08814431405338,-2.0660632552145333,-4.831155146413534,-7.913218540191698,-3.650561095514554,-3.907063491185852,-6.999761010671984,-2.3344936706618418,-3.63525058028153,-7.181827230071304,0.0278219862633918,-0.9047379524708298
12744,,-5.884065544229885,2.5486903083950043,-9.146543969896626,-2.007098447097699,-5.362665073785756,-6.583268224147238,-2.9600901457088966,-2.9016787515777835,-5.3739049437208495,-2.077940380539048,-0.6075566686312386,-8.581336591933818,-2.6733729898880387,-1.1277587294449205
12993,,-2.904225896604281,3.542243634045364,-5.876946711458661,-2.406406387634627,-1.154259016517264,-4.361560259965972,-3.623574126547862,-4.583637542845519,-3.3937427575031083,-4.749266491272337,2.2949135680201485,-5.3179898157696535,7.42639950092217,-1.8512943149822263
13243,,-2.0758670034900977,2.983182901368649,-6.646869878220668,-3.5092438057050024,-1.31628889443817,-3.3925248251507694,-3.267812519123905,-5.1348169032581215,-3.3586826308627127,-4.73912397282929,3.199852818660232,-2.835876845928242,8.55872748653295,0.1280368249825869
13493,,0.5839347088043284,7.793528760013708,-7.743509384625497,-1.357624128777961,-5.151070981523338,-4.357360472968848,-2.487729696920181,-2.6827227465218777,-3.2726470507573686,-1.685390667207426,5.344179216898473,-2.6045666780098813,9.656548034604224,5.618966106755147
13743,,2.2666540698973385,9.989249904024666,-6.594648774110991,3.121556111119154,-2.3938412455887,-3.88740618323736,-1.9179715349709237,-4.770501989892092,-6.109472953870535,-2.421230122747347,5.984275428606392,-3.1150308531949222,8.766023703499798,7.046327462634737
13993,,1.2320626440565527,8.009687442157897,-11.526679335568971,1.5769268771622116,-2.802827791308796,-4.634850632588635,-3.919949941372269,-3.794246075015057,-4.745183312275652,-4.178694370321957,0.8049844019497149,-9.567014648897832,2.1540764498749003,4.728134546261925
14243,,2.845444872439545,6.8108526344157285,-6.391556686909233,1.0337288096266597,-4.083611169774948,-4.240390522634369,-3.330006526009352,-4.090715064424217,-2.464629769782464,0.3404369964497449,2.7176400195473764,-11.949623495389543,5.815814852818008,5.189529192585684
14493,,0.3413483841763611,8.371682283566281,-6.859626190659428,4.257567908668451,-1.051113104999306,-4.409275297257766,-2.7584199927155844,-4.149999195744417,-2.343149744126942,1.2854421807950702,1.8596876072436077,-9.28353828233704,4.351514691661492,3.7435629890720254
14743,,-1.3550164281828092,10.989225415756374,-6.284334086011677,6.377023876962403,-0.7912988462904238,-1.9543922027935072,-5.319828658522758,-4.032379255960694,-2.086588509272028,1.8073829605696283,5.952352443826351,-6.853937742931376,6.706739005486653,8.174336021347038
14992,,3.6140132370558975,10.958715351125091,-3.5101284722018997,4.821312858712598,-1.963326773301618,-0.93012836492075,-3.119142017631318,-5.034381486100514,-4.561361244598381,2.5263072235088724,10.16512070761163,-3.092910288722497,12.240557109172748,11.324480474312502
15242,,-0.8810850536982942,6.436791179607146,-7.368678507004097,2.8857224248619424,-2.428753485315939,-3.5484279850439227,-3.1100453002645767,-5.042739264667414,-7.304550772239311,-0.8408008313742409,5.086333852173988,-5.891297099472991,8.422386859254074,5.294340592031269
15492,,-5.3588469433232415,2.9535104957582576,-9.712720140740595,-0.4331206667248555,0.5031459353529598,-6.213052865375359,-5.048071052161306,-5.526690059324882,-6.635021399383843,-5.112632002667562,-2.8851314791903837,-6.259377342550067,-0.9748251099446612,0.6731704378806446
15742,,-1.8174084543520568,6.788138482267117,-6.710729276924488,-1.6513342293317774,0.2769518435826826,-5.66464572290495,-4.164665982563936,-6.428181501874686,-4.826431880236489,-2.241656819225652,-2.092934797590551,-5.847528507878579,-0.6673768379609503,2.182909119035568
15992,,-1.920240970808271,9.620067701208969,-8.52154239703543,-1.4404593086243629,-3.0638708331775524,-4.609852691589964,-6.57632607789703,-7.171453990001253,-5.919321806317845,-4.507176019654842,-3.93792103560246,-7.486994412495809,-0.4427299306478443,2.9314332994362804
16242,,1.9443152011602396,11.157729254336669,-9.260149053285607,2.982660812215886,-1.1986997078308883,-2.8188487353574594,-3.419140416444812,-5.635148927207099,-5.454013363837857,-1.0372138140919258,-0.4194364213295612,-5.903245121221711,2.0726135403588004,7.998972459902957
16492,,1.2088734335683191,10.53717799395466,-6.836811597988146,2.5887641864032918,-2.9187091114452146,-3.2521189801407973,-2.3117191934683063,-5.083873453617281,-4.812523865226956,-1.5852086186966878,1.202464599375597,-4.651444370864947,2.2414731968681623,6.352316013552899
16742,,-0.7899581889078943,11.73294872444514,-4.890533334376171,3.975941914309968,-4.406180897751267,-3.033305187491356,-1.8154189018754607,-4.273172590621743,-3.971610439953102,-1.5368669805069388,1.7679907738929472,-4.624352992023729,4.417602561739309,2.6592870749241864
16991,,0.6850812343653802,4.442634623359856,-6.662994379774209,4.376468614789916,-2.1017958777855354,-2.563374222840414,-2.7523171090526146,-1.7497825908764502,-2.870202351658031,0.1453489506173128,-0.334992586677045,-9.5689927355725,1.583115552259486,5.284539662609118
17241,,2.64170414770619,3.571359519349249,-8.084893936467498,2.4580012241390685,-2.235236695031261,-2.8482788916538726,-3.2899849992863874,-4.044453619138501,-1.6185626222750968,-0.0308747753969028,0.0095391320417871,-7.180406181797876,2.336140357493588,7.767664619591964
17491,,3.6244754266293673,7.951628670657294,-8.210102866741906,2.7033169993822668,-2.8080101826738963,-4.6304427332311775,-3.160670559530732,-5.639067434931113,-1.970064244374898,0.0387208506635448,-0.4304516592293058,-6.452844860687041,0.5343757475962786,8.321192372653778
17741,,0.3213934436856714,7.852890334170323,-7.63590212380152,2.763351160015162,-3.441693455852654,-6.490768578108522,-1.6627269706781835,-5.870277551486828,-4.329303923337583,-2.8188685956278405,-2.8738372541156143,-9.43513789664088,2.818430790011695,5.504115005874902
17991,,-1.978769148189563,8.412428215049063,-7.281477767129031,3.188079966404321,-3.675054033941769,-5.191080888675059,-3.360710809815484,-5.820540737405428,-3.795825123280809,-6.368080499776129,0.5749630411432806,-12.050063385963924,3.6167766633368585,3.5300240586585407
18241,,-1.4366192903615085,11.404663378873073,-7.196527779153984,7.540368786192521,-2.422814575573634,-7.082765303432074,-4.108175582598157,-4.920235322379249,-3.256621358996398,-3.3169523785744675,1.9040910838271532,-10.19816675321139,3.8428552583483766,6.016236999988568
18491,,0.902113151701032,11.032316569538647,-4.657641784228908,7.81570491394529,-1.951389952268835,-4.134119246759262,-5.11546963731023,-4.235897081601408,-1.4768866195907275,-0.3877926568096663,2.1022894565518,-6.762383431307236,2.5192439672345635,6.13763193137732
18741,,2.736829272389272,9.682150339627146,-2.939065782513844,6.566869727054075,-0.643474317615431,-0.7857885555122777,-4.106260872754258,-2.6500778435452634,0.3172312125752781,0.46574372640614,2.4989863580262983,-5.217464016869535,2.709603303870316,6.837544990772981
18990,,2.955089913534719,6.091018084405503,-3.222234152086363,1.304151233705953,-3.0736213703198176,-1.362538126151751,-2.1069926471752454,-4.383800758382865,-0.8305264152883564,-0.2813256668797719,3.097537550876443,-8.007311451195998,1.446347730763613,8.217670312916985
19240,,3.0662146642255337,9.170336455927112,-3.9976346924917223,3.2551602102986665,-2.6834087177393444,-3.4773471206721718,-2.007223284165387,-4.432165572669501,-1.9682895433640712,1.6939937617711216,2.1753215930312324,-4.572005049164162,3.148862762916993,8.26852645630626
19490,,-0.2153132437255128,10.685441259751055,-6.770849894159836,6.519782945784577,-4.3007023240852185,-4.623708671303224,-0.6139670528405338,-4.877460395030985,-6.906767969585294,-1.0591649939345509,3.0443143316466097,-2.995387036233782,4.770779386197876,7.267794170942609
19740,,1.607964836810234,8.728192400083032,-7.797009821927945,5.463792029966421,-3.939030916082016,-6.222472092251937,-0.9461174914704272,-2.472527438933437,-4.849188648897576,-0.7202212892985114,3.462288304042986,-4.18760222958747,4.636782128426524,7.340270526206611
19990,,3.403760987469301,6.5674260375917,-5.281436987959972,6.2964874211515856,-4.090559230699809,-4.777869278581273,-3.19255200598966,-2.0410644156448914,0.5482765075170968,1.9112633168233828,1.008909141484882,-5.088241180758243,3.25159830059663,6.545572300318405
20240,,1.7350181500892163,8.762653423048999,-5.0150734204784175,4.850467030339304,-5.7833687634727085,-6.734000147946383,-7.686582362633193,-3.988822684242238,1.389070463506983,0.353370489130223,-3.3065888036646167,-6.832699578428334,2.103002359047226,4.243420588114734
20490,,-1.790687857927462,6.31420410507003,-9.23559216828172,2.2355971744780385,-5.161809663225321,-8.467204103677151,-6.699065830936723,-4.711278945765283,-1.8131481643420568,-1.4630965131622111,-4.270970380137806,-9.879960933416609,-3.265015711121173,2.461857984313066
20740,,-2.863699655274155,4.683294418853724,-11.487983579967471,3.093124559938704,-5.349168922759082,-7.923944060481175,-4.774512100103791,-4.969634766616871,-3.2907659338842024,-1.8071268350989325,-5.866027729501665,-10.445783037818288,-2.4528832913372782,1.6797339410248602
20989,,-2.39255336498074,6.838015047054089,-10.4181993407881,2.7615162435178147,-4.312415982983675,-5.454844465852908,-3.2265140090238265,-4.667007567259923,-1.7189938461885088,-6.473553512038089,-4.378202733942623,-8.103336807337167,-1.8952328237192084,2.7346998328706507
21239,,-4.142311280783574,6.536630553702673,-8.150464697681647,2.1817069180772397,-3.470203102378837,-2.6346288688489263,-3.125361496944865,-6.719185530686347,-4.674670020719759,-6.186671903074665,-2.470096284715932,-8.610569895290457,-1.590425779541933,2.611501682163406
21489,,-2.879237365576297,4.530978248325623,-7.824155673136149,2.0027821418434155,-3.2749326739274967,-4.542404614123942,-2.5091734573788105,-7.915292372958708,-6.679941992836708,-3.8939545568690273,-5.352651402334829,-5.570094859158784,-1.9334612440147487,2.202980405912724
21739,,-4.037956769201279,5.258479356875149,-8.30719971603213,1.463617204573124,-3.2881144121581563,-8.235687178717416,-2.813422705203643,-3.983707661383904,-6.831766577183885,-8.053361626822104,-9.421984248563792,-3.650118962549645,-1.729845652810031,3.656731245341791
21989,,-5.7726918479305365,3.1559516811666537,-10.644116677050588,1.7240571233801658,-2.998060683404293,-6.150982435814374,-2.5689377049092776,-4.465657903359595,-8.205839806107587,-5.782252898096646,-10.441020516687288,-5.585173671382064,-1.6016061555974694,2.912252432645585
22239,,-6.265011696115385,3.798346369833748,-14.199552361965068,0.1784771124350116,-2.4381377315537947,-5.493265693592697,-2.601678443052016,-7.965242376707293,-9.953296529849636,-2.5429084680943994,-4.5521954221964425,-12.211393334879194,1.5980382003310758,1.2253201240075446
22489,,-6.700612676271814,6.01604134111486,-9.77399137467074,-1.4081513799754832,-4.334005525455184,-6.337434092129016,-2.717330759813617,-10.996657573989316,-5.265897935477901,-4.858809962796048,-1.7396972079305475,-11.678977655683418,-0.891106020337939,-1.3276026380766075
22739,,-6.323175660410099,3.375410966221188,-10.848215509505687,-3.5443471426536632,-10.150745028773686,-8.181972874101236,-5.523186326816515,-12.013966329388472,-4.337027846989443,-5.289585809936956,-1.62624246978049,-8.67774020187555,-2.733995338450858,-2.456865000956831
22988,,-2.282098869340968,2.815021877556277,-9.072610836918829,0.2585281279207926,-6.088600944865048,-6.314129261200997,-5.532505899153256,-10.541674121209123,-6.360025568156017,-7.403204397781415,-3.082991905981104,-6.711469565367272,1.3799813864756505,2.3608931789441407
23238,,-2.497399339013592,6.675866580097384,-7.518484020111378,1.462462411392222,-4.557650616652763,-7.936445316836966,-6.28969910421128,-6.157040570670363,-4.222451853431164,-4.932172759478222,-2.197182422153832,-6.609247241380051,0.4138986218658164,4.016242621182042
23488,,-2.2368423991383315,6.996356627840338,-10.362489723964234,0.4840395392701171,-5.92384639817595,-10.223354479279813,-6.244887592455059,-3.607233524270751,-2.3171227218241763,-2.711413101780243,-1.1201896947652847,-8.90852012852395,-4.128240593719155,4.948542138643956
23738,,-1.4017456354187328,-0.6530835480621334,-9.343756364410144,-2.4598555076399773,-1.7978983616314326,-7.507873769560645,-5.556041904625143,-5.65063698807652,-6.836435241570734,-3.5051353851754823,-3.5714308512416326,-7.133876952425378,-0.0767111109608994,2.0827919239364894
23988,,-3.427511956605686,4.257909640814962,-9.817103198543244,-2.7441283201699256,-2.567830479686367,-6.76907071263492,-4.546994546171828,-5.68472662047347,-5.905765778696024,-4.352134975510474,-4.5912258576705325,-8.286653914711888,0.4522026738693654,1.9647477624618912
24238,,-3.8799349991221344,6.978554366732743,-11.233318984802052,-1.709356729948871,-5.138508871721138,-7.757353156056749,-5.469545119510215,-5.479912457886877,-2.0710283032104955,-4.204169501533216,-0.4293709797680817,-9.155760243918955,1.3681680637043052,2.891781196798473
24488,,-2.1792653159417097,9.86624854593182,-6.147520579135748,2.841689703912724,-1.939653330767548,-5.661587474286826,-7.596333078024148,-5.81399086969979,-1.403590436143842,-2.0112749744841727,3.497399360644472,-8.194638064615114,3.4987081565448133,3.6881972281323927
24738,,-1.38683124988733,10.603819382866146,-5.625192822842502,4.190522014582511,-1.887332323325588,-2.876057158986343,-6.421922658231056,-8.497317402472714,-2.537549797172507,-1.4862699159591513,3.473321775540508,-7.899818142227359,5.120794665626263,5.664577571040004
24987,,1.4330288795083668,6.519584682639046,-7.630171754765847,0.3430000890935156,0.8041798051777937,-2.7624597037173264,-3.232271441199324,-3.884746536739912,-1.0139518318077476,-0.3336023398408422,-1.77327050175886,-5.830823171775612,1.2309200600932273,5.983344112921898
25237,,4.57453659375763,7.165326132144978,-6.044067682543543,-0.101970030242513,4.190810544021509,-0.4071982178536055,-0.1363636894733638,-3.3973908185736965,-2.838926436709487,-0.7881472919732141,-0.6440945150510788,-2.9915184793000824,-2.890567087111264,9.147961613457165
25487,,1.393114976049123,6.2581694789605855,-6.885851407364819,-4.172195470447725,0.6403646770766963,-2.6967959604208462,-3.650674509738927,-8.748469988473637,-5.422764632065143,-4.435022850266372,-3.793285691412493,-5.251778584946471,-0.6449875912291442,6.488530906157827
25737,,-2.115737835034615,6.630365752086217,-8.994294549465241,-3.86518566077622,-5.2949988858766215,-3.8203854948815112,-6.276931336423442,-8.672922169862517,-4.536324968871072,-6.423968747752893,-1.6008508984743268,-7.100860638120725,-1.7799279285235563,3.519557059098097
25987,,-1.0348184224513244,3.763135782525453,-9.494595771851888,-6.279755557529271,-4.790005844101271,-2.134621245913184,-3.489684933641122,-8.081162908792617,-4.8691648415035695,-6.286772444390331,0.455111477265322,-5.462734870322271,-2.8203663173158957,3.926045708754351
26237,,-3.2031753965517167,4.524757471369484,-8.661847947429578,-4.951807104191833,-4.904507446830799,-5.124760099473643,-5.975617329791786,-9.800614834952112,-6.515281185264017,-5.024365099050547,-4.6554577115054885,-7.021427179404094,-1.3457832320865966,1.7371370118493323
26487,,-4.89564416120174,6.4413035260903495,-9.502219450619098,-4.568381616366608,-3.2648305892573437,-8.388565792480385,-8.747698982018568,-8.712679897417251,-2.8120081637860133,-0.9507800392836184,-4.001735233721378,-11.314662421036733,-2.560473957648137,0.5081000582167343
26737,,-7.988666641761315,6.355155200618503,-12.546388613887611,-3.477534133279049,-2.0698957021436546,-5.84255243572173,-7.4394575698397505,-5.735948301734588,-0.6944793047037767,0.6024461293027286,-4.709329183288896,-12.296285101331996,0.3599447078675926,-1.3991381673609362
26986,,-6.765877816679456,2.9289375809969407,-11.171919704856975,-2.3116785573891634,1.1313797641722922,-2.604307129729297,-6.475501773066967,-4.123155876073833,-3.1333433905356625,-1.3965454204018302,-7.3242362896748014,-9.495047777099156,-0.6237677066389131,-1.6512460594154152
27236,,-6.278233163752573,-1.430739231510355,-9.508962340426418,-1.0108544687162078,-0.8108259884954072,-5.879581688157051,-4.967648154659389,-5.576991429349347,-4.514409428833784,-2.0212107296171817,-5.178429321665892,-7.887311771025075,-5.859100876895962,-2.8522316178544758
27486,,-8.338552254748388,2.455505754563578,-9.76613463098169,-2.299669695411468,-4.849130370010598,-8.611784536733035,-5.239900780721954,-9.648774066459488,-6.030157980401375,-2.94510859528393,-7.377263996271358,-9.393431631539944,-4.391960068086107,-1.83875570832638
27736,,-7.77407069016779,2.3648659208668854,-11.315935865581077,-0.7659810683820595,-5.4766052456811405,-8.892282915357805,-8.589214913179855,-9.18105270391669,-5.75463945334835,-4.863174377858791,-5.354778025351347,-10.297916426353568,-1.7001989427687256,-1.7410526242042406
27986,,-7.215029190336528,3.397931689533518,-9.429748812211328,-4.192923235192504,-2.4184354917027533,-6.501943057927769,-7.0886574032149605,-7.956981128785399,-7.032220974167805,-7.823601177281665,-5.628124596520796,-5.72376957465031,-2.079725307614064,-1.9778705613720715
28236,,-4.894517244624734,5.522107590589679,-7.042722340550039,-5.665535138559469,-4.647810912773491,-5.702417621754923,-3.750068222975844,-6.504365903123455,-4.94316603794292,-8.01810685881636,-4.539919153410405,-5.514963655139824,-2.349870350271352,1.1468229875506748
28486,,-3.77634962981166,4.395678083659861,-9.698736963760531,-4.726147178744888,-9.473956599186357,-5.034124234776111,-2.472429574967339,-6.780876461252826,-2.510840877211362,-5.483744108084081,-3.9161960589923472,-8.077297455440323,-2.664562665918657,1.1466132475422743
28736,,-6.088434705861896,4.030479291096194,-11.549808599164631,-0.2012936139633174,-10.6830284169923,-5.339756733949859,-4.772439344457859,-6.793180160061622,-4.32321927487243,-4.735912711970003,-4.655044853287722,-6.77217986795145,-4.525595606501853,1.2722988525557966
28985,,-6.0239041351308025,3.0538201964943426,-11.609824035171982,-0.0607100373614817,-8.18837038195592,-6.02695760762168,-6.110792054797387,-6.444728306701586,-9.043218510415032,-6.4642285044489,-8.391966264907753,-8.715133470448619,-7.835008092725251,-1.1712122315479307
29235,,-4.6475996325877365,-0.1164529321358567,-8.537726890941881,-2.1060047234269224,-3.71496684722366,-5.865270573725525,-7.660968271602719,-8.007712387472402,-6.569139978419787,-7.202184292344023,-12.189804251254834,-8.41929017392155,-2.6411522097662434,-0.9633523113764768
29485,,-5.423505469952861,-0.550356247855701,-8.619932216286276,-3.3395123644784777,-1.3864744561191094,-6.1015770300755445,-6.091548565299389,-6.453784191198363,-4.1076241945585,-5.533975454373693,-8.124616476855527,-10.887052002672748,-1.5032125629714668,-1.111512320101444
29735,,-6.444097028695731,-0.9986472616877892,-8.780896817299723,-2.111357547153184,-2.206402528348791,-6.9693568030681865,-6.221517464838771,-6.988543355343396,-0.821555942761963,-6.28886591106289,-5.774496180289259,-11.455057475406443,-2.4416771839919678,-2.1098973212435963
29985,,-7.977152769655918,0.6290957114930482,-8.80883549166719,-5.115684981150147,-5.24716025189008,-9.11476599848578,-7.783417160518621,-7.244616470980363,-1.4605641110747007,-6.472954556806748,-8.884705763555607,-9.34106724962418,-3.0562751112192106,-1.352226289499272
30235,,-8.680899700509993,1.0251234363016666,-5.889264176250436,-4.287988145409929,-7.133683624248571,-5.243264086042863,-3.1178559284940355,-7.706989467482376,-6.524884488753999,-5.779395807834939,-7.915457943739639,-6.364182926686048,-1.1861740164946193,0.1389313286409339
30485,,-7.621001561485599,-0.6848032005313389,-7.485446605661225,-4.381589192040975,-7.783462190566977,-3.659126741063101,-2.699240589372647,-5.595238615040763,-5.937258752861313,-6.522633937980137,-9.152352192051325,-9.033300988779567,-1.2950568435804264,-0.8564732377345354
30735,,-5.282503246891706,-1.4729583369017578,-8.882630698555836,-2.2337976094585184,-7.486543528808998,-3.552393528627174,-7.320036791840327,-5.482009623371908,-3.003508292129504,-4.041657784014829,-9.300646479556637,-6.948209832581385,-3.396123988501393,0.1932865658548701
30984,,-4.9781146807322685,-0.4026952465829503,-10.237791978276285,-2.8648061962615263,-6.849139808511232,-8.753192999921092,-9.687784961798483,-8.772728289748867,-3.5985252396912277,-6.0839684458749135,-4.250359078256886,-8.9078268663464,-4.9044467616387175,-2.027509321340748
31234,,-6.193605308716608,1.367945268155038,-13.156655700885986,-2.007206849874499,-4.808160103782301,-8.981012239126855,-5.382552360157936,-8.571497204597872,-5.432128507105332,-6.780566931223843,-4.970969497610377,-10.279359899388403,-1.3572078224471775,0.6357545037774406
31484,,-7.895654754239621,2.5176702805662994,-13.82263513579301,-0.4833368601205737,-2.660926198836001,-7.210283217487687,-3.2996316095968896,-5.858121664039877,-4.5802628625779125,-5.066683758723976,-5.26447473303505,-11.241171218575325,-1.18539772938306,2.422548828155761
31734,,-7.400597351479293,3.598953205359871,-7.807949144452405,0.2829150520193641,-0.7428791870504381,-5.998783132806315,-7.498571719013604,-6.6434964826756,-3.447751873737664,-4.283222728426516,-3.68940281161188,-10.280728560350637,-5.459514714063024,1.4411175917468926
31984,,-6.595570137456562,2.230233700415852,-6.972802999156766,-5.863757082260647,-3.699611223780221,-6.4250544579197,-4.5208019440252585,-8.317010216101629,-6.818029768750058,-7.364643139667697,-6.26117203990111,-10.593325361831427,-5.309505936329932,0.2203813738332026
32234,,-6.1538226280317545,-0.006504718835705,-7.975449179519717,-9.173857485804318,-4.223003841154326,-7.401916003097435,-4.507554472262085,-8.310218782967109,-8.112448229201728,-9.464638743832886,-8.477056564671283,-9.364831251688605,-5.452279566208691,0.521014015136967
32484,,-4.996048438527625,1.166950777976829,-9.215107700463555,-7.854471073049001,-2.4903339158726707,-4.9843355329935575,-6.638633764129245,-6.087493769885169,-5.800499391712516,-6.222649097115582,-4.445129731260869,-9.460094524319228,-3.482422170857531,2.032836171577692
32734,,-6.526408596884897,1.28902595471718,-8.918557100167137,-8.53709659876113,-4.296697404570037,-6.365001645171127,-8.857868335074162,-5.10798622581973,-6.647580511488934,-5.637532852825752,-6.7963121314973405,-9.734031138055704,-2.253495388430023,0.3832221614594593
32983,,-8.119309260415879,-0.2108128656019771,-8.147829651785477,-6.419929469831361,-6.6211799469726245,-8.468117072429454,-9.5662347462667,-6.012979339659004,-6.745830429722996,-4.234882904489704,-10.46101273658362,-7.109554836326186,-2.9084913916792927,-1.750543974478912
33233,,-7.23598295413967,0.9903047150089288,-8.87270460722438,-6.9063916607854745,-4.704798116670292,-8.550651847334068,-4.344660628309269,-2.9943898757333853,-2.5302447134108075,-4.933475881721479,-11.115801408004527,-6.031709100411074,-2.278497657844285,-1.6431794692484347
33483,,-6.273098675001818,-2.031446471622206,-7.071825829524672,-7.273994900892236,-3.7751320190012256,-7.095567264207436,-3.118581592869565,-0.7233896820756085,-1.233597118130466,-7.461659965897688,-12.343538557876794,-9.577192374784508,-1.9957855114064813,-1.878271748742657
33733,,-8.331248360244196,-3.6654038739474872,-7.177372836718559,-7.322145980497849,-4.48302540816731,-8.88941478333698,-3.8261040454141537,-6.6415723638874375,-5.347173489621562,-9.61321513238645,-13.721668729499218,-13.96221096527738,-4.591549182583848,-0.5644479599292109
33983,,-7.31222238328325,-2.438272985702437,-11.841362313184774,-8.375021530780574,-6.27565134240439,-9.1550365920503,-5.663093221139125,-10.131665143558893,-6.147697120596493,-11.18615913300605,-11.309160530850216,-10.549677263422376,-7.403023143151345,-0.2664850157095627
34233,,-2.899589724937127,3.1223157843729816,-10.847918178810424,-2.272138025729482,-4.253016998907202,-11.51175992099409,-5.82693057488369,-7.858522216153013,-5.793976189165649,-7.630852404848792,0.0712218667665818,-9.945529101216868,1.845514962477526,0.4130696757407425
34483,,3.943689173012672,7.34654505176274,-7.883543910220299,0.5545186292371563,-0.4054500711522765,-4.304926218348702,-2.7907790259274767,-4.62663367051775,-3.241651911657277,-3.618104762186902,7.0896065866826286,-6.517268192099791,6.893934663440671,5.802219525360082
34733,,1.5134248496909848,3.5487642000327977,-7.799602730129859,-0.1137820290045102,-0.2211921688983976,-2.032231515186361,-1.5613672160935832,-5.754869716579209,-3.2932478990687826,-3.5275890784709603,3.1685248743546897,-5.85410933366023,3.618547684865405,4.311787185832838
34982,,-1.4097508649287578,-0.2908766846641806,-9.88215660686041,-1.0092202094941156,-3.018987427895558,-3.274683023597761,-3.7075176631231783,-9.512594960897996,-6.740407422992774,-5.41731858025048,-7.3144089219020145,-9.85378598230348,0.0860524371346902,1.8711600342224977
35232,,-1.937271530038135,3.4783332305469843,-11.044647974149246,-0.7061489536423811,-7.235383020117359,-4.767733438290583,-9.634546978988348,-9.646889166289016,-1.8944411386681224,-4.435390145205976,-7.07707987118501,-12.376004795823674,-0.752099792544998,1.7918101603119014
35482,,0.3915902702999164,4.765238441323096,-11.360279434945864,-0.7112699226114001,-3.78575132074344,-2.0495928719208614,-3.393605983981609,-7.142615228561668,6.485215547883416,-4.08806957375927,-2.621262658716165,-9.35807272300546,-2.349114923160302,3.075885102940552
35732,,2.0485959521261794,6.831479683637678,-7.607937443271138,0.4856282288817847,-0.668889550812418,-0.0708016663452589,0.3122268876630206,-2.357727837508916,4.710837556803841,-0.2181119197630068,-0.4596978387427815,-7.193125912239552,-0.9836017849696148,5.16466766564049
35982,,3.670808175399702,8.570147979028881,-6.604096527176021,1.1198956924751369,-1.7208633618961242,-1.157664017736279,-0.2706613748406715,-1.8358377277107865,-2.4980529752967104,-0.2151159080230082,-0.6880598294267968,-6.500454388389596,0.1613931565883727,6.96174846416024
36232,,0.0755464737499019,7.174248657578108,-7.54682774858208,-3.763715149264488,-0.1876972720788532,-1.0966527606627017,-2.7447189034903428,-2.7178357927175014,-3.459494077192093,-1.3695054447341053,-0.4889198185502034,-7.826466585067274,0.6033050387892692,4.415448700777837
36482,,-1.8267589712136088,7.495921273054142,-8.615851941314743,-1.7144020083317375,-3.1420503745432997,-1.6408310422383874,-2.3094940546868536,-3.7690743687925297,-4.563790432098021,-1.2242359692916565,-1.7183157157056654,-5.320454482935993,-0.5896689611278557,2.541076590658176
36732,,0.2943977174008697,7.311378121915948,-8.662891417110288,0.3839820781333733,-6.585103280631436,-3.975302909445854,-1.453167552207661,-6.128210653362451,-5.715137433716542,-2.1152277311885954,-7.028065493718772,-5.259552658974524,-0.3559950271554848,5.405070221443714
36981,,-0.4473680305802019,4.55087025797332,-7.494052167683075,0.5899993280749182,-5.604947059899253,-3.8463805393637527,-1.4119663269523255,-3.356512679461923,-2.659592856041507,-1.834342930089482,-8.030254930164064,-7.057423308060775,1.3616955518499103,5.294387757427174
37231,IR,2.6543025024826115,4.848006994737435,-4.634780532028504,3.1792843177630568,-3.741196216256624,-2.967986406577652,-1.5598476429120502,0.9669302298993104,1.0439519097575332,0.9035572352863388,-4.421720588648005,-6.52241493149586,3.041812008950416,8.040234974621134
37481,,3.173954328450013,5.398493499174658,-5.10377767253943,1.0002165291451757,-3.0245138069065467,-4.440714207774529,-1.3423470974765244,-0.0070779163129091,-0.9950405271861662,1.565042136651592,-2.968297354130654,-7.052793039211526,0.8976724395377265,8.247020724989081
37731,,1.128381207572461,1.938595852917968,-4.795482956378042,1.420893301895371,-5.154376012680744,-7.010542870540264,-2.2018528519410063,-1.4107888320467694,-4.244334089217542,-0.6645940155237526,-3.1320452118313664,-7.347575112578735,-0.991116725929534,4.497451643661995
37981,,-1.1083686081429671,5.03140609357207,-7.316985596742079,2.2893081840761527,-2.288622408212867,-6.374431111442965,-2.7765137684124936,-2.0368240138250044,-2.492321871339559,-3.733388845854344,0.6671057334587807,-4.744376405963296,0.9838748456841664,2.944240609395967
38231,,-0.8645838960013505,3.0095746084896278,-9.468250060094086,0.6744355787790802,-2.372470232096364,-5.334776561057365,-3.3531937333394324,-4.9103488008833,-1.6949698583223902,-3.052569349048308,0.4949081586094482,-6.188889170329125,2.044688220677675,4.314326268446579
38481,,-3.0050618739726453,3.987582960562903,-8.547351051072129,-3.1820374287112205,-3.191918064586287,-3.798108534583488,-3.4964388655939382,-6.343785156644762,-2.798528243887901,-2.5186354309288204,-4.343127684223548,-10.471090906036522,2.13259445393069,2.478188368411
38731,,-5.682046635044734,4.914786176749067,-11.308952586211962,-5.119595796969425,-3.6023808012039167,-6.376021733482823,-3.985087345798767,-6.797458341252785,-3.108074463844722,-6.18549154061868,-8.225850702754853,-8.34808309437848,-3.179633643879288,0.0471304468338629
38980,,-7.987236735978084,4.277069258952688,-9.1325020289423,-5.408405716628142,-2.957326381100094,-7.2773557220358684,-3.3060315431350946,-5.318200055238886,-2.6667032184889017,-2.195257108559363,-9.22132007728121,-7.289919731901406,-6.687886130855475,1.9193059312076255
39230,,-7.098520815771403,3.630901540370353,-8.09631822094692,-3.1034887483598457,-7.34520410825178,-5.135449331960031,-7.351654363834255,-6.746803339990375,-2.971332239124813,0.2266892157664671,-12.930860621106977,-7.704747989279972,-3.703954160301204,2.2451509300050327
39480,,-4.959059671701894,2.865238996512158,-8.937329908423957,-2.17621407048135,-2.5331293598859577,-5.397028115420044,-5.780151243533517,-5.597436414376363,-4.046049646923933,-2.0848652359884925,-9.03409848471803,-7.316596903142511,-1.7138777120312931,3.183964671258443
39730,,-0.0338087011572296,8.568366007191658,-5.232099151617948,2.9996376972212246,-0.7955777223676799,-1.4686534265582858,0.3440676874010751,-2.7821135827513204,-2.138582654873622,-0.6229012572120766,3.0411751764372816,-6.24492221203293,5.845808242944647,4.911334665686148
39980,,1.9454752168556837,11.836645692091494,-3.298010620873396,7.830543769447487,-3.816876060174253,-2.143240095956446,-0.482456418348226,-1.509430404389421,-2.997426589839094,2.16245455137849,5.206983995499309,-3.2669705282101638,8.053130884407013,7.211972460374944
40230,,1.4470798354659875,7.180685387016112,-7.596892107404761,4.901720237414401,-3.4298256544738326,-5.964296952431174,-4.034434508412044,-3.902526577603573,-2.7527582446427967,1.000698612730515,0.3918828779647127,-6.435707252845798,3.648895629815652,6.467393480970408
40480,,2.3393503944720435,3.4364302554100408,-9.60423313698471,0.5513661441717908,-4.116272305267782,-3.275328485223019,-3.0084386650895523,-4.477875466266643,-3.4271418102925235,-1.6520515141561434,-2.966220542853455,-6.87031886725984,3.5633952732157903,5.845037928084757
40730,,-1.27787453255603,3.54515364215128,-11.506834961773064,-0.4436331503917534,-3.11256071587704,-4.021687121182853,-3.090898428820644,-4.938878791382121,-6.079781103177584,-3.855073472210262,-4.973189220661217,-7.761958409728278,1.8559309112700653,3.712100285563817
40979,,-1.153675374052346,1.3455709186334763,-9.917370525839726,-0.9905147366780532,-4.581435642827617,-4.055991623934785,-2.4204206233243823,-3.037317412462113,-1.851714078468828,-0.6131645954672403,-4.585188027290298,-9.308428624800491,1.0382970308065145,2.5758253314164365
41229,,-6.56563963993455,-0.6296738980597285,-7.654422959882639,-2.228744207015515,-5.68810497211401,-1.493398629854116,-1.3670649595360258,-2.925125586878668,-2.067429368311493,-1.4645463969129058,-5.320325377544219,-10.862619736865357,1.0875280772480114,0.5752761084727468
41479,,-12.677792463214049,-0.1048482582686051,-8.805151427642212,-4.572764140369592,-4.308852163405828,-4.686941027624987,-3.05209877017412,-8.260619902350367,-5.126434532806121,-6.564729352508024,-9.77453373536578,-9.91609196372998,-3.0473837852234693,-2.288776363633943
41729,,-5.95282158499003,-1.261856554240639,-10.555192739408096,-4.660188868558337,-3.726134202841218,-11.702494724539172,-7.09247960911208,-10.80740998713981,-5.43719183390372,-3.772894207696493,-7.965271608847781,-8.010409411422595,-6.847514789126353,-2.0559219376744444
41979,,-5.16285082938999,-0.9583057341026896,-11.819858726097118,-3.5573662606560448,-3.0965912331254626,-9.172506106968257,-10.09408800970014,-7.468591996984102,-6.551537163373223,-4.16520025140934,-6.86306118339643,-9.36641854529403,-4.970977664332836,-0.5675149909331221
42229,,-10.503103565813747,-1.157764378367813,-11.056532460110985,-4.043371464419872,-1.8658300780286223,-6.497374360890781,-8.283177553044183,-6.956377642254111,-6.965440733182005,-4.658469633656277,-10.50528791870169,-11.398304548746015,-1.411705167487896,-3.109268710903857
42479,,-8.346207889087779,-1.482830536994704,-9.88468778090363,-6.781808166687943,-0.5124643599064607,-1.4596694227721092,-4.40659128120362,-7.018631790002181,-3.5743095130936817,-2.939729172268224,-8.379149384156554,-8.141741101067607,-3.1925373994347863,-4.356306147278961
42729,,-6.212349851157304,5.513137541934476,-6.8706129001814364,-1.7805044177949625,-0.9444098933926128,-4.442343930531218,-5.986199591633019,-3.7352171418891977,-1.067523272693396,-1.9127799421021008,-5.440263606294607,-7.896326621719957,-0.4676853938272032,0.0814755399086376
42978,,-5.843899602399684,5.571980942569491,-7.888147508917214,-0.6398677012634286,-4.115348496244232,-7.357179188074328,-6.658860122356347,-3.896113706868765,-0.8068151662567187,-2.474454423409855,-3.925156206248832,-8.434891617938131,-1.4419603698480343,0.4197580954109905
43228,,-5.53768756655432,2.5155065157149847,-9.170020014629714,-2.9690091148115325,-7.729486236223545,-7.301384591762248,-3.966584340201862,-7.831352931367322,-4.37728092434042,-3.94161113428014,-4.634813221735133,-7.148619109485461,-2.059695603899152,0.703677686389826
43478,,-5.966779095762496,2.5314238893885106,-6.509170246482646,-7.552877199782775,-7.8827304819730735,-8.800548393128278,-4.406414554488483,-9.286862717289653,-9.513579894372912,-5.195044281481626,-7.224923010895149,-8.55972438093559,0.5982421934459253,0.6819378209209759
43728,,-9.649632051086767,-0.7760134338944655,-7.634961224067399,-4.473989381418198,-6.267861570497132,-6.255673040014935,-2.6853825478013977,-7.3740707480277825,-7.289911342913939,-11.168720451202711,-9.608669730961491,-9.591585045458537,-2.480982292098333,-0.7612261688967188
43978,,-9.327364667444993,-3.207055058766915,-9.486541065356215,-2.7688230128655493,-3.920747782037659,-5.339714549994983,-1.363760159817604,-6.246599769487284,-3.681339001034529,-6.491504493419597,-11.217799227077448,-12.5496171093053,-0.7922393186003864,-3.0414711838624724
44228,,-8.461769871683217,-1.0624236657242216,-10.61876777958763,-5.931984445345401,-3.713022905185876,-8.055582644795237,-4.825293559354796,-9.248532740737696,-5.53606437865196,-4.49818573277655,-10.237846751314486,-9.776128808936749,-2.420615576943129,-0.7650138030539309
44478,,-7.266522858197701,0.1280540119509889,-10.401071230635726,-6.350310430366855,-1.6598368145199989,-7.184856902478998,-6.593709222961706,-8.222310135922614,-10.425707726371163,-4.801211542791948,-9.81449038329404,-9.176427570622174,-0.3156428162373592,-0.6954137058310232
44728,,-9.339546968353345,-6.174424915664104,-9.092741432614543,-10.11460935913175,-2.563400007286876,-3.958874703233464,-7.943749294548193,-7.6846163741000195,-7.958760900042765,-6.543928039473417,-10.899785031076906,-9.807395753857612,-1.178732045507088,-5.06902228975084
44977,R,-9.61199725846386,-7.84894668452141,-10.627944463637157,-8.719318150940193,-6.463267504938902,1.81935013608199,-4.438077723102468,-5.338116974875331,-5.160710409441089,-5.315398711862883,-9.93010162884432,-8.667399123136425,-1.799656154328387,-2.7391347150263727
45227,,-6.620356375012396,-5.660526216791567,-11.335604523512233,-3.683524483924714,-5.641012105774937,-0.8900861976976016,-3.4754430395525504,-3.962839701939007,-3.902757975256956,-1.256852136981793,-6.587570957608789,-10.429260433641986,2.114794555805373,-2.465544219897521
45477,,-5.007868527904609,0.7172735688143118,-8.726276800573098,-2.877171494192913,-1.687506755894126,-4.807345450492525,-3.372208397486292,-1.698483995342113,-0.6744142877370906,0.0848309475124451,-4.876608274965056,-4.897816888141372,3.8749278187527247,-2.708775655518907
45727,,0.7340035974757674,7.662517117522089,-3.3616903637296813,1.1024249504452153,-0.1459157654385136,-6.691324468505689,-2.2439124808976265,0.795394606356647,-0.7025903131031851,-0.7889281284556333,-1.8522784210965149,-2.848924228733548,2.9662195035678334,3.616747091505632
45977,,-0.4571716521884194,11.26756354598677,-3.2818685915255568,5.689115896455999,-3.0060994001769377,-4.549639505361958,-2.9770757939985097,-0.0691088281341263,-2.4435010061784257,1.8484332852136445,0.0454116741384582,-3.9095931147283087,6.837168823574439,3.620600705218152
46227,,2.2915810120156106,11.553506646873243,-3.76782019566438,3.4174948479480296,-5.072002940734794,0.5682416971557263,0.1193096444134133,0.0111609062637469,-0.0119554147306343,1.825652402958366,2.926780518884813,-2.320185870125022,11.165400755571406,0.1928898430925383
46477,,0.2534066821788919,6.532366484896707,-8.305559383547752,-1.8836853026681948,-2.293381972735303,-2.0238054015476648,-2.2778487328069508,1.0294145270487112,0.9508960271997788,-3.3119548413029323,0.6798421475445181,-4.601200299088882,7.775583984888361,-3.2630353912955523
46727,,-4.200114624804682,0.8843360195207367,-10.954634502802962,-3.1708754439428564,-3.140568421253929,-3.79833715392153,-4.731952865488548,-0.5367121490214463,-0.7402909725239508,-7.289163665742263,-7.087108945167864,-6.062963219405519,1.7111345614090103,-3.090329224075971
46976,,-0.3242460447842263,3.4142949056843745,-7.558460520054892,-0.9447318919220192,-5.831456614576282,-3.431231917125613,-1.7041691988791652,-6.8497208880244855,-7.564198070543686,-3.6218230630063313,-0.2312659437805846,-4.658165166124126,5.5363295055724375,-0.1194846026681968
47226,,2.7891711184426757,6.27376107028534,-6.832596526423751,3.3023720884124907,-2.123473614475853,1.3183180190407515,1.5116153636884009,-5.813533295596127,-5.790997102950016,-0.9554705513272624,3.641824546828112,-2.800941124759102,9.777727016018858,5.145066347271017
47476,,3.2176649799167505,8.584772537126991,-7.841957603753916,2.756330522705061,1.547032072461899,4.528562843110729,0.7854790012568763,-3.690024681634476,-0.1760215927184105,0.2866760547291961,5.475231203212754,-2.618446243943918,8.166367806383029,6.328397592830028
47726,,3.477737272836372,10.015112783428588,-7.408500367162347,0.0510900734069941,-0.3503658368721427,1.8921473029275024,-0.3466957596512191,-4.953376924491427,0.7770143246699566,0.7944283332175823,5.177187336543707,-2.5745269581456034,5.073747893130097,4.286803307315933
47976,,0.5017057051347369,9.369038398233576,-8.672504192417174,-1.825428056504532,-3.261497753712797,-1.0008045904296912,1.1342572440304992,-3.0647487926756067,0.2125218527591834,-2.169595589245614,3.253643630682037,-4.607642547650037,3.0029766141077365,3.32861304005492
48226,,-3.696928421382447,4.742162410534872,-10.873474759427337,-2.151869120728419,-2.5179521346253746,-1.0872809753913075,1.1463842160738555,-3.024495522832217,0.9298879596858738,-1.88457800771332,0.348437622516673,-4.246878515088009,4.531596896810645,1.6915730784336669
48476,,-5.007117316560321,4.071714166671838,-8.187918428634857,-2.4090317174424016,-2.111945859017693,-1.534235823153425,-1.4225153740134355,0.5507649120099981,1.6798282340445838,-0.7016556855402125,-3.305893350379725,-4.2214542291404165,3.5676923059783427,-0.1834530680466093
48726,,-2.637656305544009,2.172532885701121,-6.543097016009982,-2.978402173958741,-6.015505491173897,-1.3430382349475811,1.0581037903353336,0.1784390147738121,0.1139307049515313,-0.5948187096594872,-3.122796121012272,-7.27451297548622,3.8163587841285977,0.3562932230227454
48975,,-3.8105195616432463,3.173927597715726,-5.816117145202943,-5.7804327470142605,-5.924492492225317,-4.913060623703391,0.1479623172048985,-4.756425453358226,-3.0738265069124115,0.4797735482635243,-2.104035018576292,-10.641232858232032,2.3383753368687463,2.0918336599454634
49225,,-3.8977976168076536,6.418797718562262,-4.528699505140671,-3.4878420244731374,-1.7662488840928954,-0.8209036029670274,-1.73883990032252,-7.019634966116362,-4.446253920053001,0.5379489497021186,-2.7189779111695462,-11.84526029932507,-0.0214175451868749,3.305006413884961
49475,,-3.848175149672934,4.781751670089115,-6.52288556291284,-4.013918124123358,-1.8238006203945352,0.2309964359942701,0.5689798380436425,-7.175257224990952,-6.798651849618292,-1.9630717655640904,-1.000304973286327,-6.470878770686934,1.068144988628654,-0.6360321634353855
49725,,-3.53652252962181,5.021563016556624,-4.700802053111736,-2.477015479564993,-2.5105691916779027,2.123064035226408,3.5582039042119766,-5.996829740068892,-4.535011758705855,-0.3250869473868009,0.1681784668991313,-4.466374694979395,0.4439635508698267,2.5822371706874865
49975,,-1.516417299198609,5.39966180830259,-5.481741060232274,-2.013943512455288,-2.599776456859822,2.0835185752874184,2.396858654745984,-3.0412750588212694,-3.9094243441158127,2.7016035734696024,-1.1021547064836477,-5.935243953852627,1.2986797262787255,4.7973516455459695
50225,,0.3076032030164699,8.602897608170663,-6.792708677334314,-1.2436433298743483,-0.384016880385562,-0.5611998750195792,2.4243500045675987,-4.704175876289992,-3.3156171145174573,1.1545226967090254,-0.9517179226341776,-6.295683217708317,3.860493272689646,3.4848256283908703
50475,,-2.449142263516631,8.649894065312896,-7.882895005359391,-0.6125712269023933,-3.0504385657060635,0.0652683124261452,1.9496766934087324,-6.4838801053280175,-2.129549484735926,2.111988015158456,-1.7351273196761516,-4.035924932779019,5.330212364864774,1.4985039463875398
50725,,-9.665494748619556,3.6801739926279375,-9.941202984890095,-4.594195180928173,-2.309503500785723,-1.8228700728083045,-3.535668498960736,-0.621418955902235,1.154000240579004,0.4954788630251651,-3.832302827822601,-3.898092491604655,2.5855801693111093,-0.0334245059557021
50974,,-7.500643674986663,1.4324052697417349,-9.452946472626763,-0.7619354154914594,-1.470443215837046,0.2846169702146462,-3.953203508763072,1.638727806215998,-2.326870532603276,-1.1511946610900168,-1.1685710230537834,-7.892044705922443,4.943300214999352,0.686739183920843
51224,,-7.121270114352627,2.2137465886769205,-10.016925863937924,-0.3107730943045301,-2.73144019422337,0.7503240411843249,-1.2168894734484823,2.1268919182486616,-1.6067003371609034,-2.639603577842676,-1.2909866895902993,-5.496587577711573,4.065702935831968,0.5963318586355124
51474,,-6.694163021362537,0.0169217899574488,-9.593832133310308,-1.2361608976251477,-2.8605793278476788,-2.172811297449808,-2.1085211179919265,-1.8054207326334184,-0.6717983704162231,-1.1181220009982005,-3.555533485818793,-6.473141830542941,1.83682265599855,-0.3531828750615409
51724,,-4.624374546041229,-0.639323471862283,-7.075519544712886,0.7586042619539667,-3.4837047801840715,-1.432938043991387,-3.7751833678191633,-3.853541391041845,-2.809976217034573,-0.7151367151807129,-4.365999666981815,-8.449173322524103,1.93698905297752,-1.921155431798808
51974,,0.4523968347389271,6.351438294732068,-4.73370383668078,2.908046326036533,-3.101032424367008,-1.5353485527750677,-3.731972620087385,-2.6579952827067306,-4.920276476642252,1.2143276373839431,6.391981525674426,-6.604937322500309,8.1372460242871,2.997699091704315
52224,,3.352441967735777,10.349796057437333,-3.6525165188281288,5.532644409302393,-0.3188739167578,-1.0053186194443755,-3.50588395580673,0.99595048485229,0.329339201320536,0.1394636600675822,9.84627312277078,-3.065873103776313,9.813054728573649,3.496770045435778
52474,,1.6210924680261276,6.940419500599953,-7.15115190923607,2.1619360586443985,-3.3530816752622745,-2.399266276259052,-0.8020376748876407,-0.6749190543845087,0.5015455071526069,0.5481644898150918,7.80446463552826,-1.936303837711096,6.843237181671431,2.1541458609390265
52724,,-1.6087982427953444,5.322755168145616,-11.693312298236796,-0.0958713638401818,-4.602956103642723,-2.840158127710681,-0.3190740968372731,-4.038167292380942,-0.0469777807458349,-1.5507096536684664,1.996928099572772,-4.04829744374182,4.287686078346905,2.526705097106689
52973,,-4.843531371784659,5.34948080826696,-10.68437128762145,1.0834914751220863,-1.963319841189168,-1.962166462998608,-0.798353732305135,-8.255406029445766,-2.5986753497334374,-3.45049520701217,-4.535432571454008,-5.096103752485812,2.3045784995553573,2.626444183947228
53223,,1.1072692995173248,6.684680946327203,-9.977219662878266,0.4881501159223362,-2.540092701113509,-1.4492885323228029,-0.9299477833927168,-4.334362273702929,-8.106883664254465,-5.538572720577754,-2.320125343067862,-8.275881273390201,4.721593433339361,4.144708347642211
53473,,4.568450564587784,9.163557367125067,-8.675477061031646,-1.5864631998666356,-0.3183060266311889,-0.3304189064950782,-2.154199316909945,-5.298168888526118,-9.107786451835503,-1.9109948418300304,2.9641845856411004,-9.06636279347588,7.84855315142125,6.1950944399398375
53723,,2.4061447504337465,7.799105838148465,-8.260592224116749,-1.1781318097129398,1.482592253700825,-0.5370284525449897,-2.472849421480306,-5.977503348174999,-4.593658204429402,0.0950744945300571,5.043023465621641,-4.498804546831684,6.710770407056055,3.322230410436972
53973,,-1.0118040584354095,8.285961834677611,-6.9627038534367465,2.755603959491665,-0.360850835864776,-2.361775364939698,-1.0735722672134038,-6.261520518158101,-1.2007877579480293,-2.4993400044587597,4.354439609592607,-5.048899094968875,3.788239723136245,1.7803298868985262
54223,,-1.8623511459944428,6.360083664588998,-7.932188002423731,2.6444209535735688,-1.077190489203895,-4.553214116675431,-0.4729824328746617,-3.8003654257466666,0.5992806157332037,-1.5067833102939017,0.0614164503628987,-6.271158708773418,3.17597848247479,0.0155027355430487
54473,,-0.1534959217083437,5.426987064732459,-5.948159070040342,3.706648803341008,0.6983473676352805,2.9699822328729635,-1.4643874080650718,-1.403257832523602,-4.785490771683697,-0.3044475264863564,3.3366160831157248,-6.350135716108468,1.149036086737688,5.029436122427025
54723,,3.8171652796226567,6.704703263819524,-4.293476149183122,5.032267773157448,1.688578888409424,2.661147864160111,-1.4906312309967529,-2.508595567998241,-4.942057134375811,0.4396605986975916,7.874526830115015,-2.8203439334036906,6.893693397779672,8.457961888223064
54972,,4.3017775128785685,8.058860409294585,-4.910376726855788,5.369037971252051,0.462362902689451,-1.85980489326715,3.263928031966552,-5.78106594272878,0.6167535693056676,-1.851169376352269,6.554102819078191,-3.149788647167611,6.731646916604042,3.729159930077959
55222,,-0.0001036755360226,5.943617299204571,-7.510864892817272,1.4115807155707878,-1.7928579264280105,-0.7315127740822438,7.746452538925865,-4.596003373011054,1.6875477820954567,-1.950912963799876,0.5081292822764977,-7.5922196458136195,7.168535700562852,1.6306705122034295
55472,,-1.3283622837320133,3.361420026230975,-8.58472157522263,0.9491776671982604,0.0187120902486615,-1.5505049332106535,3.6872531509048736,-0.7030925974373058,0.161048683333497,-1.0526447461943451,2.285501177658062,-7.392705090529333,8.040457715015567,4.967507147733982
55722,,-0.2696280171802787,5.831042292380437,-5.557099789962136,1.302936856615589,0.2543137084557231,-0.0727335727213878,0.1547163935393418,1.409446831105069,-0.9924158595334504,0.6486076465629818,4.230532981352082,-5.918923708240644,6.970583391940051,7.899726596876166
55972,,-0.7794605254189304,6.936942498138724,-8.94099439209113,-0.0027205033025016,-1.892322224246667,0.694672184064883,-3.488728438085329,0.3417770873901215,-1.4432960658710916,-0.7682416483206267,4.100486852999992,-5.802480346180859,2.287729186522599,3.793485529362752
56222,,-0.9241853678045946,6.970461209230788,-10.901874721001468,-6.028955325418515,-0.4027593861931555,-2.6825769278111427,0.4523801178230779,2.4652909722492877,-1.5303122331683483,0.5446682824402634,3.0137927312816,-7.921157682605974,3.7592241910463553,2.956419208048213
56472,,0.2355687191663294,4.0120273450565245,-7.773561873650588,-2.2458039557468497,0.2719057639093498,-3.2241031266392643,2.834110775787109,3.193436085804612,-2.025568866039921,2.062032910685005,3.3370127720637544,-8.689713729776665,6.424232829688218,3.1502915000733456
56722,,1.39772393917961,3.1545863866667405,-4.754274668831016,-1.1882282059725968,-4.112645395261255,-1.0108930549177708,1.0601832113221772,-0.7112522573812363,-5.164983372021617,-3.396698376670204,3.7210277321818737,-7.438813794171947,5.442330188733083,-0.5072554352581288
56971,,-2.926060951217213,1.7350461522423302,-5.553382070523329,0.6916287231902629,-4.818999311201643,1.181308362976195,-2.740848796727237,-2.8468311238063837,-6.762107875232074,-9.039143587182608,0.9435474499106754,-5.922178104733896,-0.0761915250522665,-0.4588206699011458
57221,,-7.294417542154879,1.68513692925684,-6.773324028447428,0.089310523143307,0.8396583548750098,3.633666700780463,-1.350786419585772,-2.8206873418593115,-4.279445732360587,-3.5348392357108427,-4.498972009129925,-5.106528169641496,1.242413617317779,1.3342858461144236
57471,,-3.912520207406276,4.69659224596962,-6.366832334293057,-0.4741278059353055,-0.5168731870221265,5.264463211610753,0.3838263609828404,-0.4262024708438111,-1.6145081993510413,0.0314800520587887,-1.6469904295140367,-4.69637930860908,1.9481832780560329,2.666516878257417
57721,,-2.3802911704210388,5.13531080829131,-6.695116747098705,-2.568520256656287,-1.1858540079930016,3.411182688892902,2.369348038981589,-3.3188418661340457,-2.859190039759424,-1.743194287256664,3.1597917528805914,-7.997799482498758,0.1176953103379404,0.8410859505516306
57971,,-1.0778950418371882,6.497652213453241,-7.22174090949382,-1.9192683286564023,-2.0525279761857247,-0.9504914009953532,2.2924589550393835,-6.787893682000036,-1.7355694460768625,-6.803290943573734,3.606077020853864,-10.591155864021186,-0.3711042139924934,2.699861025789964
58221,,-1.2385615671391204,4.0301357899672645,-8.313995912577019,-4.373908933453685,-3.0141799676239773,-2.1613479430839084,-2.4774711697313028,-4.15224656753516,-3.130681642700399,-6.602914238227302,0.9364831278379556,-7.201403815663957,-3.342667904855738,1.817195964300132
58471,,-5.315809205174713,2.6494326139166624,-11.463497823751286,-6.839133319308456,-1.11333416090625,-1.4120891943238063,-1.1072686584919271,-3.8419574550849656,-1.749470848299921,-4.147526910977241,-2.3418178910680783,-6.903037514092101,-2.708855320325413,2.4154300001088
58721,,-8.93281977947391,5.982317017538007,-8.44327904405837,-4.632641941583486,-1.0990993081539893,-1.3355495061148095,-0.3434217616795155,-2.6990654569863453,-0.8811504226052757,-6.5714215936574005,0.9919640318652304,-6.096268833629272,-0.9118637567144328,1.6528905226193902
58970,,-4.839104726188594,3.756001492077552,-7.021417983664515,-3.1056457284332266,-5.066160464005702,-2.9223354690066743,0.1391954527690407,-2.6021894098826475,-2.936067395434432,-6.47855914164269,2.5429601398026467,-5.770156790759037,0.8274221047486751,1.0598999550774688
59220,,-1.6585727791101084,-0.1342574860797115,-7.883133999575782,-1.7858241245528177,-3.95878825870444,-4.458598899032377,1.0045136411754596,-0.9202415355058468,-5.7106071728187855,-1.808705072320274,-0.4742675409658999,-6.32378895894874,1.5791286023797184,3.0919319717119382
59470,,-2.832862085139354,1.7027106321982235,-9.663591524875388,-0.9840043584017992,-2.279730875149265,-6.596374434993901,-1.1722897300653377,1.4304588080596714,-6.920462181984951,-3.466401935730206,-3.483588728562818,-5.63952176698429,1.3743329079849924,4.343654053153313
59720,,-4.533205406935695,-0.0312359017794157,-9.20096016880828,-1.4117176992001617,0.4250976867167858,-0.3292699931495979,-3.290858371751781,-1.1143356464412553,-10.926818478582888,-2.0553128151524778,-4.004461494744376,-8.972938633272303,-1.1803469994118707,3.2088451921233445
59970,,-1.4185069323885688,-0.6285455138842697,-10.756130698168844,-3.713100441838212,-0.4481555995869262,0.6243455468092043,0.5323296892401251,-2.576506303236024,-6.424379839194776,-1.1890621917098376,-2.3850987804405968,-8.628935500586316,2.93279994095202,2.3181575838254718
60220,,-0.2393268970093409,0.2240053227429832,-8.57592643828695,-4.168553781069007,0.4761682456457879,0.2024979256494316,0.3880033922956909,-2.209726534322706,-3.803696072569839,-3.114938398901371,-1.3790248509261285,-7.9604528340589535,4.692959943437289,2.464154581935465
60470,,-2.550439592158514,-0.5649571963212651,-5.801901586133815,-1.6254656374621292,0.1385194971863464,0.4489448469967061,0.1669695654675231,-4.025211874616639,0.6875807063084672,-5.045238766842416,-1.3010346016059413,-7.7534151147188,4.367105556847277,-0.1656446709325885
60720,,-6.077829459764233,-2.535064618996872,-9.700504787003885,-2.231783349202656,-1.735155168018324,-0.8979462383851906,4.100180851781452,-5.271763676935017,-0.5607826847587372,-3.994444725617254,-4.096781272021624,-8.845275971469404,0.3893454431153034,-4.730404280837378
60969,,-9.408165803981118,-0.2963180968692451,-12.873312862468456,-2.603233116941592,-3.686197749768585,-4.616267502160617,1.577941747047792,-8.581721904073639,-4.762085141653209,-7.567104557247964,-3.894042798916988,-8.171776472155475,0.5697220634665818,-1.8604862867901577
61219,,-6.485618776328053,-0.9565814680125448,-9.166770872410128,-2.274634087006445,-3.393824517586764,-5.6946667914925335,-4.529747114876966,-8.494989526910658,-3.597161182621053,-5.803200347899967,-3.5970710634516347,-6.647557300718622,1.5188343147251238,-3.357770978004462
61469,,-0.6500227820032032,-1.1950787326272578,-7.781648630472631,0.0281939061001486,-2.075167672777318,-2.7854332524080205,-1.5248708563256774,-0.8257428103826887,-2.220935404016473,-2.27564122307989,-2.759804761812847,-6.232607130306267,-0.630111745825262,-3.516226771220497
61719,,-0.2166507333958154,-2.267174231159606,-5.2066474576397495,-0.8859745091522848,-3.045937133447921,0.4419043242743369,-2.1698129444198293,4.004398969775526,-0.922584155465134,-0.5291940421964897,0.3072412826499202,-3.2414574204326314,-1.3323673156082652,-1.7330022222481067
61969,,-2.701533884055213,-2.978078550821196,-5.292557831935119,-4.305946796942592,-2.710777904401484,-0.7031632588769363,-1.6839794453809456,2.3210275049441047,-2.271344134479476,-0.9670347480472432,-1.7984410607143697,-5.515774488261595,-2.9278676760140083,0.3002688170897659
62219,,-6.003482525837931,-2.59398515580235,-8.594039639005025,-9.795183919456855,-1.8404560473979212,-0.4448475487724107,1.8831363241039143,-1.278397401393814,-4.324642174441213,-1.438103207570437,-1.3583581117297308,-7.519334436113008,-4.52211756651189,-2.331818219721181
62469,,-6.027401565717424,-1.910495168183647,-6.170507735226262,-10.189368869895128,0.6138743881926273,0.9814173090676348,3.215151702137077,-2.538956810001639,-4.451951391914975,-3.192421613636544,-1.621818302544356,-7.11187267871383,-2.463097226010486,-4.1250050198149495
62719,,-5.0103753279123335,-3.686880268008268,-6.602020286163021,-9.910782539564403,-3.192771391031752,0.2115891094638357,-0.9425517006593022,-2.933183467782126,-6.231759949519434,-6.274572480265428,-2.0527449572997107,-8.798680852801283,1.083571113776931,-4.720896570588224
62968,,-6.781125463969055,-2.74108878777691,-6.703141699327487,-6.599920483688822,-3.962154163375314,-3.0853561792794344,-3.1653523496056124,-4.501251589986439,-8.083247383747814,-6.145791115976078,0.740926715682071,-13.403057159989205,1.948521798542493,-5.858770980524696
63218,,-9.588482171984555,-5.103781539468791,-9.58197788190926,-3.884161493079223,-2.2466854925481,-4.704018180398001,-1.5984701090778746,-5.974752924959712,-10.131693328903244,-6.023540511651168,-1.5468904530479692,-9.824288517799982,1.1643214785685292,0.0227820161196177
63468,,-8.357814244211562,-4.721554249916704,-10.451643300713592,-4.794473688718142,-2.832795164576103,-2.553067159781296,-0.4473884776405376,-4.887769671048707,-9.616343160218715,-7.3846511018455905,-2.8353322736980773,-6.795977322783106,2.28107913492247,1.1444301021792578
63718,,-2.902742204142088,-5.73508591162084,-8.78921695049848,-8.125246845694162,-2.0863843029113114,-4.177919473436606,1.9286252523474872,-9.771592898831976,-2.088691122200826,-7.999372385291922,-5.028765396244107,-8.084733891768616,-1.428161704887316,-1.195286838933781
63968,,-3.122818087127083,-2.713886071506731,-10.661140488646186,-5.722141343292312,-3.4509004163586603,-3.2366402047647864,6.292300241678909,-7.201502398510109,0.770125068280964,-6.089807212302089,-2.402479583744313,-7.581616059226071,-1.41829725746667,-0.4733309612967204
64218,,-3.2976074085480733,-2.5359409901794283,-11.343820787695227,-5.044576813150372,-1.7279170533336254,-1.8556690089774237,2.2333861107578628,-3.1039161959197714,-4.453625665751206,-6.329985942989992,-3.063413030169577,-10.186103293295725,0.787922574295976,-2.540182410913474
64468,,-1.0403617810686456,0.0807625544053642,-10.94537752281238,-4.715250902337172,-4.061723613764039,-4.450298965138186,-1.7202378424983646,-6.058253231542717,-4.43321674883907,-4.292639712509926,-4.823747411162789,-9.48661405317395,-0.7506571205181363,-2.290883765194411
64718,,-3.925589982853121,1.6862282022569852,-12.872565863185644,-3.781334487968682,-2.7988127702929884,-3.519231412306543,1.0576878134157868,-10.507811611408467,-5.519731843233899,-2.304660583231588,-3.704545577392096,-9.758234161109243,-1.0338216145302297,-1.329767777768402
64967,,-6.654941861619394,0.0870667433501902,-9.729267039443574,-3.2809153430944704,-2.784220761702282,-5.068697195211761,-0.8746786807724749,-5.21210591457111,-5.020263265888987,-4.634666452073967,-1.3985370490522884,-9.470358776675727,-1.6471104312019929,-1.6692222253366888
65217,,-6.955631310574146,-2.915112134300726,-8.784562478054237,-1.5413991927113926,-1.0310169387893262,-2.5981711770781635,-0.5390357285303006,-3.3854969637816,-4.155415206905088,-3.663819349890893,-0.3580183861561981,-9.053571657593803,-2.2760474571897324,-2.49083329541393
65467,,-6.970829830975758,-1.9069604407593568,-9.343088059913123,-3.074500086037728,-0.7407018372367159,-2.0049770112973277,2.7234564685389997,-3.3860316913609063,-3.788565440929002,-4.675050721826911,-0.299432888745438,-7.323303907988031,-2.5926663736807,0.6716577973795835
65717,,-6.246760001744422,-1.0317256091357951,-9.8387347393121,-2.8373330911403127,-4.578753919251312,-3.096348525132,2.7016296488427805,-5.413080239662921,-6.006095519305644,-4.0751355101854685,-1.841876101134212,-9.786666145954488,-1.3131200517447652,0.6559773567596593
65967,,-3.36201919562723,-0.385355208331251,-11.262570412797135,-3.641745569126203,-1.7899546550318457,-4.933786973252636,-2.890696556527938,-4.098458105617189,-4.724126586667183,-5.825645576604743,-3.0480957512888978,-9.933618998037064,-1.0941991842614194,0.724919946415994
66217,,-3.015679331666715,0.9009656113346308,-10.694847559497692,-7.764344659537741,-2.2705658894083465,-4.085494559629368,-3.277639191201696,-4.150891053888032,-4.805307544401737,-7.519391631424913,-4.413354851530733,-8.730315147774657,-2.208245804930005,-0.915597518217745
66467,,-2.609731756495197,0.5305884403334808,-6.451609252675121,-9.317591820616284,-4.016579967631598,-3.8753563309383257,-3.3904049543755086,-6.968269337451291,-4.683843681583721,-9.88342961591822,-7.632807894329334,-5.018717421745364,-0.2014249245326818,2.5373774452018005
66717,,-4.361516720420373,0.2640647385525384,-8.135761470563581,-8.285784282393195,-6.28452301986541,-2.950453819761309,-0.7231090594158764,-3.0164012854737394,-7.738019643194736,-8.849685923186222,-4.587462051570375,-6.702465266077859,-1.2834802604005615,2.895059291038273
66966,,-4.385916255827186,-2.4947063373421208,-11.285881257156417,-7.983174717526942,-6.9334008285458015,-2.3453468889421645,2.138811267242525,-2.4222581749236234,-8.515958225022612,-8.994723038192573,-2.4908656519003456,-7.941670673456729,-1.80963568464708,2.0520020962574783
67216,,-6.230383723975754,-2.282324047165823,-8.155837683676829,-6.342546170651836,-6.958977941386449,-2.595412974585617,0.997767336093591,-5.5866833284880135,-5.344495246677177,-8.544348985003506,-3.6804658159413126,-6.397589013972604,-1.2169612942575485,-0.2194228671618593
67466,,-5.352893746856258,0.3079237636559988,-7.773470292310501,-6.00791117033628,-3.943218924905006,-3.608022053702648,-2.86616326251435,-4.079077944466975,-4.6718038731286455,-6.363678927805338,-4.296751896984994,-6.962191925394449,-3.643816180162582,0.1991232481848047
67716,,-3.538747606578045,0.6768626705185206,-7.706573154076625,-3.238756894290831,-4.373039841598608,-2.672908124902071,-3.848387669096673,-5.561250330955253,-5.721321984726881,-8.411808870353537,-3.227398587022366,-8.693044742073585,-1.9318293150878616,0.9982168465649254
67966,,-4.138772750979342,1.0290411775568145,-9.086384478731972,-3.485128980013996,-5.877268404284078,-2.9793770614488526,-3.566250051038113,-5.425135594310233,-4.511670973991557,-6.693629084669408,-4.081140726731362,-8.199597463335568,-0.8722015040108981,-0.9157870511140258
68216,,-3.158877119965994,-0.152318504436595,-8.644066472099157,-7.947449523054699,-6.251488943375232,-4.309689692786312,-5.042198960741418,-6.881214756848852,-4.679023687075748,-6.6905491899252665,-2.6581496172522083,-8.810460917619263,-0.1819600835377364,0.2360949622172396
68466,,-4.338583292296824,-4.585613115178181,-6.722698172608746,-7.191083035541767,-9.426552528457178,-5.139278942358345,-6.429080290010147,-9.084565949290967,-6.268490795270311,-8.49807481604502,-3.821840689054758,-9.82671976388228,-0.9023242686532774,1.1149371618336883
68716,,-6.668298212786458,-2.7872111435121747,-9.0268300684625,-5.059109391233488,-10.577601588990175,-7.660925146345242,-7.283348922008084,-8.088907343780138,-4.803382181215083,-7.271587823080427,-3.44045978693725,-7.109445980874531,-1.5287413316172116,-0.1285575924801492
68965,,-7.759442622588492,-2.6912020401125822,-10.15670286085082,-5.811310527317399,-6.230441375660309,-8.675857525345462,-6.657422184242088,-6.351508804242789,-6.294035836915461,-5.682641414867957,-1.910272874164853,-8.65115167496768,0.5871580738850493,1.1555885190950268
69215,,-8.27362161363171,-1.652843773251106,-12.07261676537317,-9.622738350624452,-2.8542429863400405,-7.509260447810208,-7.530560118732673,-6.6926541296928495,-6.417701804051434,-6.66822113913478,-6.734448227028694,-10.601100687335176,-1.2526252674812364,-0.1097052749814177
69465,,-5.377785854041552,-0.5808822834884537,-12.13075674404612,-10.346784010154916,-5.253118793869618,-6.557186149583313,-5.56155514618994,-4.372921369440318,-4.10535210427235,-5.675930135691481,-6.323179767240736,-7.07797022851767,-5.556333689246915,-0.6067030267956974
69715,,-1.3524283798080878,2.023091212139536,-7.407644670268706,-4.332218788109111,-5.178457661731306,-5.317530238226617,-1.6518446727209843,-4.453279599435084,-7.255546446400208,-2.8130623878078103,0.6231032386266973,-8.168151153410662,3.5425500209864014,2.3970563233247324
69965,,2.052733019835038,5.293983774301124,-4.02469002372143,-1.3895784100711084,-2.7918950013473727,-2.3264769718823266,0.7772754033574213,-7.103270162705132,-6.089127966955578,-0.9101292372228266,4.066679406995396,-5.743355855795582,7.957825594395134,7.119692678607091
70215,,2.4027727214159467,10.64784031971124,-3.3674016392584507,5.742276740398653,-0.205405239854466,0.1066537073144049,1.53869411829642,-5.248343280988237,-2.2544048277059634,1.2702437658641972,5.940889945434438,-4.21965218114602,8.405877787421021,7.754211088649287
70465,,-1.171066411569767,7.370091031436027,-6.617172709775562,5.475828523444466,-1.175453524019646,-2.020789043167518,-1.6812662073155982,-4.680145046751622,-1.858220108805602,-0.1930012092985877,2.657373804514018,-6.8035424414555,6.701421235815202,3.590464551943035
70715,,-1.1711033143294411,1.01607703388384,-7.624444621860591,2.369610116122521,-5.401394965672091,-1.994264623378468,-1.0411891557815245,-2.5476549093066736,-2.6217082681571235,-1.6660129658021363,-0.3823581238416113,-9.748226173596017,1.866868728246104,4.31101713120643
70964,,1.5696487101361978,3.9938420953360487,-8.720022505652842,1.7145207849952486,-2.5850523655056463,3.4197739355727808,0.182174294118431,-2.8312308098291883,-3.963071565774684,-2.0988906756665253,5.061656928282105,-5.186495911757234,0.987268815669675,6.962257992699426
71214,,0.4988058252134303,5.697200926505044,-10.649519264133287,4.686460032261722,-1.1651825679751886,1.1495290953506874,-0.9085543967350876,-5.523736333461601,-6.396007791251666,-2.041380919081309,5.612157131867972,-4.311161552737524,1.53112278700699,6.110831631458167
71464,,-1.3457756749972982,8.514095084107051,-12.564994671192004,3.626016403424242,-1.379783132545342,0.6146337057017849,0.0491986538569716,-6.861893195607043,-4.720460475718575,-2.176219142238393,0.2820778258729723,-5.210839994559608,1.417206042388815,1.687855479922301
71714,,-2.022033984220116,9.116271974407349,-8.137990748619302,1.8038087714962736,-2.551562124244256,-0.4393118160295206,2.7974506899235108,-6.54794342428692,-4.707641101293634,-2.635671148705266,-0.5844949463459329,-5.453016848293233,1.7379842608305238,4.7086076079824535
71964,,1.32765070644874,6.664617950442692,-5.550929257953444,0.2277492407082594,-4.785143413177406,0.0591835695238957,7.0955196598402,-4.173140561280023,-2.185124866976162,-2.8863661313671107,-2.333047551205468,-4.44537829352738,1.9564104344672617,6.168306591195577
72214,,0.2362857365552854,3.760417130001133,-6.4618239525526535,1.3309888547792097,-4.369794171061015,2.0554524743724216,3.8706615980320658,-0.9120095039004648,-1.898883744133439,-2.3296948538150564,-1.1427636367212952,-4.206234820357132,1.908894653767338,4.161092149653339
72464,,-3.3729799354524124,2.776080177195668,-5.634284667424985,0.997553557175224,-0.3409573256297964,1.7774765399317989,-0.3466800343199958,-2.856645906738859,-6.822776486897178,-4.090159622116797,-0.0620554650374462,-2.145793901108297,0.9455680270600102,1.3637926673326408
72714,,-4.1808359965112,0.7008169133047413,-5.905327402365393,0.2112764461786748,-2.2078531079808297,-2.2836751963259254,-2.016930614401573,-2.8114913053205983,-6.546022220283335,-4.71924727374891,0.6085217304985936,-2.2953805002810697,-0.5605630818598415,0.3439926232080553
72963,,-4.870034772402431,2.653026510579984,-8.377532215500889,0.2958120259348831,-1.330452437256395,1.0686782863661854,-0.038550325659962,-2.7827774149506954,-5.011695997541055,-3.4661066624110246,-2.053689617613496,-5.504417029741042,-0.2330135044326606,2.7534115341777783
73213,,-5.915877268567512,6.009534625327325,-9.163451161263056,0.5367254954040857,-1.152225922773891,-0.0948814280897614,-0.3987074200215835,-1.9820971963447185,-6.359123375549593,-3.381853481936004,-4.405731181316467,-6.409914558012421,0.2806450870326067,-0.3069082577268329
73463,,-4.715923516354939,4.345220892615787,-9.437734447489104,-1.798333813039039,-2.408841450165134,-4.1725456063797415,0.1977862601387753,-3.1063672467199783,-6.009330499705429,-3.790878792310708,-2.9022874786183013,-6.263732123410217,0.0371944449283719,-0.8480458378008506
73713,,-2.3578112318942326,3.0754431193942984,-6.459784252144577,-0.6909196764447539,-2.5876565832870235,-5.266974489745087,-0.29152391204335,-4.536088874561527,-2.000717486825057,-3.1031326179256498,-0.3632532151148105,-4.6406774826371215,0.4483824008443567,3.508038357575474
73963,,0.218631221906457,2.0302492490132544,-4.8590256909544784,0.2743151812431286,-3.585829442805073,-3.0437531085051512,-0.0237964565641288,-3.1114023280801533,-0.7868796878356239,-4.119386802215303,-2.9706359976284102,-6.323349466615786,2.1134699640250547,6.596570546125279
74213,,-0.1806057073926235,2.2569536507256664,-5.844072663233356,-0.2406470890309619,-2.6607558628714347,0.5241341562172662,0.5454311515176716,0.6808372542855807,-1.70268954773809,-2.247497774859585,-0.4251571836695051,-3.608554774755961,3.1176673647998325,6.033674583037596
74463,,-2.878389337394146,4.062907348260679,-9.445967621351532,-2.01806121842973,-2.601257761734354,-3.130127818185244,-1.073830817243053,-0.2666090991688304,-2.65074461566564,-0.7538057498531441,1.566910487925506,-5.157716847471511,1.6931006378816962,2.7062690304278734
74713,,-1.1834811545748216,6.052217905324021,-6.411914478640211,-0.8252703101205969,-2.469107722703115,-8.8278911455991,-0.7323560141398273,-3.209817504048669,-3.136917714749163,-0.1426759839277659,1.3591019442541377,-6.603955165352064,2.216954647413366,2.287334462351468
74962,,2.6652721391889225,4.1987622048705,-4.386419445062588,-2.0009880796360906,0.2440615503443798,-6.588816210929139,-0.3394544881404741,-3.9781683581346217,1.6079404927364938,0.6425666101985068,2.730353703219431,-7.409452584778823,3.255498976718307,4.687290969975363
75212,,1.6302842486811966,4.1173604922096,-6.889809416527909,-2.1030159977358123,-1.6131406922695368,-2.628681174891438,1.1970673788282558,-3.727196364937557,1.115600114933068,-0.06621317868779,2.9742329751933045,-6.047390554067231,1.920767862711728,4.2401718551901375
75462,,-1.1702566541855,2.145564929267805,-8.954460097654932,-4.114689866324679,-2.037838241537974,-1.3871671218938284,-3.2217234522016627,-3.145210628217461,-0.0275093467946883,-0.2904917800524444,1.822040890066944,-4.196751382158985,0.1161902493651794,4.0993709335808415
75712,,-0.4323564007875256,2.6074602815322843,-10.346477959843217,-3.010949023533769,-0.7887378115370219,-1.0732668776246783,-3.8168366917656513,-3.3085540028620803,-0.470135521317736,-2.644238171046021,3.844481455546467,-5.122199164471092,1.869650066853335,6.4937491635682
75962,,-1.7060994883996758,5.791762633835848,-11.517539309177783,3.0411239182327794,-2.4662107266151203,-1.6153769999381071,-4.907268462803013,-3.3351582588632733,-3.030408958944337,-3.3717405895284465,-0.4883351906562242,-8.347332835700813,1.659333625949059,1.373689987626188
76212,,0.6339796609203747,8.453598590281317,-7.781937029001982,4.654806029805142,-3.759279378053817,-5.183875532272849,-2.447874676825864,-2.06556285347076,-4.221460637224888,-0.4296900202234744,0.0579203361827562,-6.6637893962474095,3.736007314809011,-0.8396103955398995
76462,,-0.4525467308096761,9.310121166320677,-8.026752801707405,3.496232668653385,-3.7725009793064506,-3.684746929535612,-2.634119779719314,-5.63219032678994,-5.846119101925076,-1.3177779086338068,0.2792138787200486,-6.127415337624632,-0.4661910247347943,0.1899590480837032
76711,,1.4458449247526874,9.14654519719894,-9.115139193401626,5.311681813886696,-1.4561022767037757,0.1892486686136234,-1.0693679373576952,-2.523686808718824,-2.190548234029826,-3.208589090052741,0.1380671163230032,-5.457983652724923,-0.0277806325647097,4.511852642295814
76961,,1.270608331069827,4.51395564407327,-7.3039829998822015,0.4421955704634389,-1.6759536910158956,1.3158734896458717,-1.0023107411990697,-3.935347319456632,-2.936720758058533,-5.755508847298135,-0.1230270711600239,-7.526674473239346,2.4155791729988603,6.711403846518863
77211,,-0.2762297480884348,5.848753608141552,-6.573150050437516,-0.5106237383176582,-3.506313913518252,-1.1968957551858832,-2.163208143526387,-6.181346222801357,-3.4135101412785445,-4.202956683876477,-0.526896374161995,-8.075606906729009,2.0774223365030533,3.862014451469912
77461,,-0.5350224987591733,6.495174907227552,-5.8826194144662285,2.540728618050231,-2.62482164181413,-4.509698011056053,1.0189486846902334,-4.785865132770053,-3.949697240152068,-5.025911152094312,0.3575791070334128,-6.9259727858448,-0.5513488986407521,3.909793013978651
77711,,0.0293925521445327,5.737112103079692,-7.576915270138151,4.542626814639975,-3.596501898810609,-6.601180197535451,-0.8515694199757212,-3.2679385711604607,-3.589004285975033,-6.98903063390678,-4.43155481684062,-10.18006115075216,-1.140375102309898,4.86394394318122
77961,,-3.1888575841306697,5.872056722254029,-8.185648883625863,2.175735467209612,-3.874057396801064,-9.26836544620662,-5.924994274856888,-2.7711011617784704,-2.599302284780377,-5.491825508867749,-4.71646426432724,-5.750735928978501,-0.5632663668372901,1.9967924636881684
78211,,-6.4637957847271865,5.906927990950935,-7.137417918169669,0.5645712385452475,-3.4761861080078766,-10.10982359977902,-3.2501202677283243,-2.792238198646681,-2.401759137236886,-3.1257208416537514,-3.003306298576207,-6.959540020354762,-0.0879417585589569,-0.4976031029703343
78461,,-0.7541408695482016,4.146129666002843,-7.081253313394161,0.6434351616017385,-2.7012223348997253,-5.724977699939693,-2.895175974620688,-6.261688725759677,-2.159161875495868,-3.768710205463468,-3.82257421508396,-13.329996143094222,0.5745420618434872,4.535329259692182
78710,,1.2919228846674655,4.701562419891298,-8.227195714724612,-0.3714032948739877,-2.414230103957411,-4.912573970463061,-4.745001158891816,-5.551728895245267,-0.9021606616965052,-5.487030255114938,-3.2188818229069067,-11.40517294941693,-0.6887240027155049,6.080570582147869
78960,,-1.2682126714566289,4.470395079039694,-10.814838986232296,0.4818529765884047,-5.353188376997081,-6.274109700518624,-1.4896202264765714,-3.9631101934131694,-2.506804232861317,-5.218040568829321,-0.564041847851116,-8.705072212989345,-1.3891231704476965,2.3931800271977526
79210,,-1.7215265033061569,0.0050625575600424,-10.71892995270705,4.148268048985045,-2.3997481373016063,-6.248521362510598,-4.987559203897714,-2.7796176851166847,-3.2873661996632,-0.0151654096136333,-0.8850794281721995,-6.855406240952484,-0.3114776970081385,3.38185167018402
79460,,-1.3244463789707128,-1.0951119256905677,-9.773227909629885,1.9312372837536615,-0.7318779934122239,-5.874293375372734,-6.188700435866924,-5.092752477542782,-4.134127049380808,-0.4933779327953352,-2.9060293080265525,-7.006445351981945,-2.0296164478225087,4.9084761943040585
79710,,-0.3321780357934052,3.0106252680218093,-10.443918227398242,0.409919980948495,-2.35476930110136,-2.0072657870104784,-3.2427880088108605,-4.128623487477164,-4.992976838509962,-3.3724124333077308,-3.579937572894576,-8.914708950252226,-1.1615088794820505,3.708290955452032
79960,,-0.730448224927235,4.82632184535156,-9.09061683716584,0.569723660035565,-6.355081501971314,-3.108011705153628,-3.0789840003366207,-3.6624718909230713,-2.6781931729545985,-3.508959297545581,-3.676865273397636,-9.832577208592868,1.0847094172734657,6.337152530236758
80210,,0.185277751058161,2.6698838631136863,-11.117334624975427,-2.7126668101059237,-5.435968758839521,-3.087896724742741,-2.714568738183396,-5.456091959479336,-1.3838451427423006,-4.229189810271094,-2.9889505098441997,-9.216210829735424,2.332719099854371,6.901334197178101
80460,,-0.2162793492942401,4.994540058055944,-10.63450477187146,-2.853595354642559,-6.686996179150838,-4.420066625579113,-1.3895473773125326,-7.040893681181908,-3.685664150850579,-3.726566737604623,-1.1633549575430835,-6.935180663015776,1.2897203947081393,3.5835040617428238
80709,,-0.149370875726095,5.943369846843566,-8.321532080079479,0.3620009842178454,-5.479941178702181,-2.378781388918268,-5.298572113741638,-6.380736231205027,-3.655808069243338,-4.5606774317686245,-5.647103095257392,-9.84273925096743,-0.5199441314002335,1.9650335585976288
80959,,-4.968183390624213,3.8834105197846847,-6.094019784590189,1.646496786210334,-3.3469052811009203,-0.388444518647692,-5.359767705660547,-7.265838070975674,-5.784867639648318,-4.841742052302025,-6.770714279217371,-7.639531088074003,0.139797051847852,2.1311752981036767
81209,,-3.93856094554951,3.830726137485647,-6.5440179413618775,1.732154178673451,-2.45178016117806,-1.880221132732532,-4.40674988131284,-5.357636541691734,-6.95920161864886,-2.93658465731889,-5.3373835550705815,-6.811666078325321,-0.0031305045706695,2.8845216731125416
81459,,-0.4616564103373066,3.8015781169074487,-8.821162884410754,1.4450695190223308,-3.677242063501165,-6.426670203234735,-3.854038403805901,-4.78443387262291,-7.210397129473217,-3.3793424345904084,-2.999194428013615,-8.077515107204745,1.0755426451805492,4.28725539318417
81709,,-3.066844618368101,2.188680099885258,-8.0726999828529,-1.2536595341486034,-6.780227467828781,-6.63467123482828,-5.302652592125336,-7.6272875811886465,-10.330706471284229,-5.681887868692944,-4.2960240041273,-10.501802981159187,-0.0860006038496703,1.9886942462498705
81959,,-5.043306471742641,-0.8417794947946461,-7.235454352841898,-2.5013025749939857,-6.580436657393839,-5.511708794853744,-5.65305040570215,-5.260876024853284,-5.939921547532258,-7.454857411658255,-5.442665425469993,-10.161834935749026,-4.601819220656561,2.990288690748822
82209,,-3.93910291946244,1.282261442560646,-7.256185343118454,-0.9839629085839848,-3.046731975468976,-4.905703230121399,-6.102810179425617,-5.897772363424795,-4.688764652005079,-5.909656658254304,-4.065663871711134,-8.282452537112002,-2.802711133016561,1.5489761956144257
82459,,-2.527767128332844,2.973758379915537,-6.894127520522711,-3.094231949479288,-1.149308135138325,-5.008607736871915,-6.46014108449219,-4.476856087363158,-4.262895335699315,-7.223434304108421,-4.381369157353845,-8.419267136233016,-3.0090241924253225,-1.42099519077939
82708,,-1.816621464664188,2.5168083537488912,-6.996807866624113,0.4679856583654609,-3.160188291076289,-6.447773313446491,-4.453846699398012,-2.0039390342784658,-3.408602254443609,-7.67446644171309,-9.122659877407036,-9.369458885302532,-3.2512279391030234,-0.9097581345782751
82958,,-2.246652270478707,0.3282654957640001,-6.62425186175298,1.1261845547856062,-1.8834282920038496,-2.1923518679045286,-2.455154077069516,-3.26387689104243,-5.511089098335259,-7.301833900775829,-8.055257539062458,-8.665138787651063,-3.129072996486526,2.30418014751165
83208,,-4.784978636199854,2.384394897503988,-4.591000882431564,0.5933990049887111,1.3972609299194307,-2.351000017733875,-6.948419683715365,-3.207719290556427,-6.128543347705885,-5.920927642208298,-8.691522548390493,-6.636624904927252,-3.4684021147349635,2.868600496301053
83458,,-3.566721597123823,2.805962009497504,-5.4901411422154,-2.1684078827679327,-0.9173597986982276,-4.126715138897654,-6.380233630308264,-4.987122837788403,-4.038165125077677,-4.983121248879024,-6.659130866681466,-10.748000601479788,-6.033665920222811,2.2328936323603967
83708,,-3.713653200555382,-0.0330105873649609,-8.538474157359328,-1.903128550872627,-4.03688656790717,-7.005557576976739,-4.296988617564585,-5.655774203331752,-3.387562795372049,-4.727261547698464,-5.107872965266261,-11.387043402795957,-8.489477078185532,0.5509540486712156
83958,,-7.043824000854054,-0.7321691404786714,-7.954633587063345,-1.498198660130443,-4.655062263668301,-7.282014640524918,-3.854583724077995,-4.000793060133348,-5.796668301750114,-7.0463227246108895,-4.110792533063547,-6.879535340508206,-3.2430564898154097,-0.5164903453997945
84208,,-6.2678441710150645,0.5796297336034754,-9.22910770042514,-2.046799508587775,-6.948058195239407,-6.01052855665484,-6.56502091966725,-4.750657136183458,-5.817010673133511,-8.505836154917501,-5.669951018392348,-8.282949829754621,-1.5405281370177468,2.185156267274425
84458,,-3.746127095296288,-0.0319792912758318,-8.478886537608041,-2.769981066640991,-5.782121331283828,-5.773772640695593,-5.751069546713521,-5.0294033337936455,-6.893368234776292,-8.318796317628053,-7.250428631373696,-9.479512568019588,-4.735452662617227,0.8612325539040361
84707,,-3.453779754309532,1.731708942048097,-6.72911354543754,-3.730861629694808,-4.384450128987409,-4.83938370871126,-3.751487139032605,-6.217511171806107,-7.05669001965282,-6.809640938432105,-5.925126003537739,-7.74752988173466,-3.1341151772234754,1.6436555022251012
84957,,-3.5234360069832107,2.1655226157186984,-6.554862877434138,-5.08536909098448,-2.979193747013112,-5.414437280735652,-4.621821800564537,-5.335814789791183,-5.660130209948033,-4.672069085924892,-6.593608128737811,-6.643214884781818,-3.224278291534068,2.538150453626171
85207,,-4.101444573665759,2.8155213748388825,-7.162995512473311,-4.534111686187783,-2.3392501771947,-5.908309683319473,-2.590411386055074,-6.881603986756485,-4.969747625790075,-6.808262261681133,-6.721046025866187,-9.019224875136242,-4.722248383938835,2.157681352023712
85457,,-5.542193099364483,3.5969041239297765,-8.59170538673751,-2.4659196591772017,-4.69180098350213,-9.807832730299184,-6.32834532542438,-6.043733476732935,-5.4207788698946935,-8.81323910367,-6.177695010202706,-9.754927155190089,-6.1239143870544375,3.151581715157692
85707,,-3.183688294160662,2.3143363471592844,-7.122972537766245,-4.5762081944317154,-4.892873454887772,-10.222455103064474,-8.384438881083433,-6.628848493530281,-4.98695733243862,-12.467931587835972,-6.38584216197316,-8.863734474141946,-4.558494891178427,2.047648110168037
85957,,-3.805768875910851,0.6855762868962151,-9.000662055387496,-3.983506123361948,-7.226771266190465,-9.678398155674715,-6.41571236880656,-7.647733398086255,-4.956200024517657,-9.950323468199858,-7.648339989001736,-9.699530736160336,-6.21810509548359,0.6889984093634065
86207,,-2.402658974414756,-1.0330308025378885,-11.168335641564695,-3.8078095794473032,-10.268069587692176,-10.928182245957556,-4.339311447479154,-6.956384681259337,-8.491802965640936,-8.087710618976004,-7.34896120558393,-7.044093851527308,-4.760641554080298,-1.1323674394005736
86457,,-4.417305074849301,-1.0984120788252931,-8.703025638790358,-4.478999583151789,-3.3777328990349926,-8.930300064813403,-3.4743587241672405,-7.0628205466691405,-5.782570454808797,-5.174065500621202,-8.890724139355525,-10.513691037086348,-4.501832934155918,-3.665728228616744
86706,,-4.192793850491116,0.205343052272077,-7.525666177291112,-4.148947294739334,-1.879385184828296,-9.407703894038102,-4.435155100302958,-7.447643846260384,-3.621876478904407,-5.5488341369521805,-7.947046210691797,-9.482507879858312,-5.97248018406858,-3.101177402520245
86956,,-3.204308536212044,2.081161678035949,-9.460023029788546,-5.696633502969123,-1.6129983340132437,-6.766422846888455,-7.071484018932875,-8.970427095673607,-3.925487167661459,-6.433684966910191,-6.15140068737686,-8.395959255589553,-5.431292119504322,-2.589971934035688
87206,,-6.4963482765960645,2.911924354749264,-11.49135573539274,-6.467250154864669,-3.234442754551771,-6.189039980549893,-7.566808972622922,-9.83531891174991,-7.255302637321557,-6.363406288694106,-4.799724885358471,-9.623097098405992,-3.399266785208364,-1.774399996908531
87456,,-5.262266150107732,4.7094555860944345,-11.79331636731668,-5.643079621552073,-4.432504297798977,-7.165077402601881,-7.53618929600857,-7.636321465021359,-7.404697038524044,-5.954415572986819,-4.606290983184941,-11.46648777443168,-2.589374202565427,-2.929444291649736
87706,,-0.535259292845781,3.731626127735673,-9.049237908569593,-3.622876752482159,-3.328918629026788,-5.659538031778652,-3.250345029580877,-4.284802926349375,-4.984224867259725,-3.8664732283035903,-3.693896041696616,-8.980723322737843,-0.1296772301873003,1.87666717256852
87956,,3.971188936839142,8.746213835734931,-2.6518255856376194,1.4164555634984346,-2.495695775966856,-6.6019945073634565,-2.018212981853233,-2.4804036372051903,-2.49047808570287,2.0269702479089946,7.507553055786655,-5.829376245619587,7.51972115249081,6.203769701663813
88206,,4.826962795641889,11.06142696956162,-3.4848034895210227,4.754668499086221,-5.452358042202642,-4.33131598559455,-1.555538059847856,-4.073381449142026,-3.622094737338872,1.313017802138647,9.918575574527395,-5.4631431731876265,8.704364376129597,6.585072099919664
88456,,4.967485772693426,7.621196928083983,-10.484818787052614,1.6450799072994535,-2.8719046185732013,-4.926125569844132,-1.8212081103278777,-4.596706393520141,-2.4255528409644693,-3.476126081268019,4.800334819292358,-6.665117052515193,4.939961186982388,9.839438753826858
88705,,2.8423591395067094,4.291431840561193,-10.503457689655065,-0.6866685500770252,-1.3019391374271672,-6.32713388400304,-2.890791948254921,-4.411362289161148,-3.509297257539592,-3.845116117699268,1.0780314629105614,-8.192825081984425,-0.8950329648312889,9.310107561712195
88955,,-3.3664533145240103,6.787395205645278,-8.02113545875035,-0.8955054493866237,-1.500026863503165,-4.2792993721619705,-3.429207535661706,-6.6433768663188815,-5.679749404820811,-5.425191875854404,-3.50216025771102,-10.515690973471404,-0.9598029307702648,1.851030157612965
89205,,-7.034061287768908,3.8894320602818695,-9.77272159343112,-2.586824206915611,-1.815928258088204,-4.966470116924717,-4.826917889516905,-5.612570344359472,-6.190160190490607,-6.390176983801375,-1.8894619971586435,-8.739589701160051,-0.8833660630500856,-0.7562327913511968
89455,,-4.782955388575751,3.488744027975125,-9.67190134213454,-5.749595893787927,-5.677438012059479,-7.163647258112505,-6.314110807429385,-4.616158899013176,-4.439756504547813,-7.600911227358207,-2.9210964803391586,-10.47294528755733,-0.6949550434180268,0.5333835207122418
89705,,-3.296116058737042,1.8612993906717843,-10.315988719452422,-5.771987862932352,-1.4619850289342224,-3.9048615836267295,-5.545973819435509,-7.687048202978203,-5.668042773417614,-7.670107523411108,-6.719064522272188,-8.501423021513212,-0.2286969344556122,2.199311529449042
89955,,-2.3524600580231527,4.819737162195107,-6.928557620331734,-3.2303324035688847,-0.7587292583475551,-3.603059707845332,-3.604219915011023,-9.953973737530914,-7.845022036726207,-4.33556023223945,-6.326228769674332,-9.024461869124268,-0.6382016838253325,3.488081858371013
90205,,-1.6522070398859827,3.7960063727140336,-8.008794492913333,-3.992495199025172,-4.050638972966172,-5.534235135847836,-3.814328772293844,-6.7041377975376415,-6.665618162227904,-2.672118393851461,-4.601594212660995,-9.860574191979476,-2.9974652140957456,4.051525097093236
90455,,-2.527286337608781,1.4870293245278046,-7.885984453305132,-2.537454602451888,-5.518670113060172,-5.74896370350647,-7.033178968541389,-4.516061635819498,-5.2251935703714185,-3.916820237517332,-4.421614545144383,-7.624616806544733,-3.9933350348423153,2.463325421885949
90704,,-3.7355640172348608,0.3837526401221955,-10.477450511683012,-4.072005890582704,-5.877996262626347,-5.741589911613979,-6.184442265343035,-5.206005796890592,-4.861752868694059,-6.296789110196088,-1.5851762218012644,-8.441423447695387,-1.894106175046656,2.3885051537469404
90954,,-4.989377520410676,1.9080836907827057,-13.005613515148085,-4.666975057019838,-8.266622248673638,-6.213676288455192,-5.134244571916588,-7.905091469112557,-6.960594788471589,-8.150360552005528,-2.963513946873857,-10.845976497341477,-5.251725700061886,-0.6449677598799692
91204,,-3.2248534535092683,0.449624289846989,-11.026435213307597,-4.610106922970894,-8.045219151607633,-4.421352154228214,-7.171398266443648,-6.431919258345803,-5.39280354474842,-6.915822727646646,-6.706324343443246,-11.540451251325166,-7.894580440027421,1.259445725504621
91454,,-1.9968765990148325,-2.416628234443635,-8.794202102420783,-4.575307184328827,-5.874993683999947,-3.469344924346016,-8.631736535034856,-7.480044351841929,-4.8673763187374695,-6.189749958305595,-5.847947178989566,-8.18088789288728,-4.812375862472279,0.5523135199483559
91704,,-2.4593473215474853,-0.7193926009699393,-8.184860020879672,-5.316489152443623,-3.405498499850483,-3.6039799537714607,-7.328398389852074,-3.91406145609025,-2.864841125167672,-5.90262469000348,-6.754443983864336,-7.121597836787928,-3.790509282277144,1.1461448755420214
91954,,-1.9196388327192688,-0.2475030671493981,-8.042812917100449,-5.85794761509883,-4.672834030140295,-8.278019742735484,-9.915799880210868,-3.526765167178225,-2.485303069932863,-5.867754481170078,-7.10477006899923,-11.311489420232624,-4.094672865516706,5.159518196989987
92204,,-3.073335832982757,2.5073026175230204,-8.81525408782588,-0.1514005453605636,-6.540812133284168,-6.979862229871365,-6.58059202657463,-6.4905506969328215,-6.310386402305287,-4.427413141182075,-5.925133781994565,-10.122706617540048,-2.7438747475107657,3.597436214001022
92454,,-4.037294710285474,5.771577481804454,-9.168121399573693,0.1373467576092048,-6.542200802028059,-6.829452288870765,-6.167320770874564,-5.77522698886418,-7.06083981753586,-8.208011586413459,-7.580199108694924,-8.296976441482846,-5.688145516970832,2.415794274986325
92703,,-2.185149641129569,3.4942720574934905,-8.909885249781537,0.4698596771570718,-3.965990780862751,-5.43848233692728,-6.871836984351646,-6.064647858860212,-7.593377020375125,-9.814529413876636,-9.113835861339956,-7.319454628414622,-3.192701791500832,4.04956995385211
92953,,-2.5237490214130203,1.354723206106804,-7.722807898011135,1.2996425579949902,-2.6881120515107333,-5.441610807724472,-6.6428752273998,-4.916679532098288,-6.020510118792059,-7.407193301262066,-6.63961577853483,-5.922764905461632,-2.5390638892304107,4.05832328986074
93203,,-3.769172618540617,10.742414886485578,-5.937022255166873,6.085611302622546,-3.893766248255569,-3.310852377658542,-7.024417870153572,-5.457179120606695,-3.947406448097306,-1.0920139459204974,0.6605588812243026,-5.659831440719926,6.985298243830739,2.750498276812381
93453,,3.3083680899768386,11.779678281576324,-5.007091531336142,7.798452538655912,-0.3942151114462117,-0.5156711721680584,-2.957822843801001,-3.262132061536529,-1.2904629752112242,2.2315670280026327,7.718225289160196,-5.370628527706145,12.01260363382513,7.650036914117906
93703,D,5.4344788065241385,3.57961724046754,-5.047948148589554,4.62146520908244,-1.6050236229097925,-1.2220508511436483,-3.495170536870493,-0.3598694075607317,1.5119421988379371,1.6940415504294368,7.282440228908595,-4.220084985598267,10.852083628356633,8.448346980825857
93953,,1.4862564898727293,3.3724499705118816,-6.369918452504399,0.7451627943182183,-1.905442085352082,0.6689192272677789,-1.5189075516179988,-1.278640193005626,1.5484562525462628,0.6600007462289427,3.1209102599202105,-3.629251575553365,8.202352576409682,4.657712875147499
94203,,-1.4867744317266265,5.146923632358682,-8.039564207445494,-1.2938326046277682,2.490273837016013,0.800549477616957,-2.028716945998823,-4.658158592832731,-0.4888902970370709,-1.6774450389072126,-0.6221139704708872,-4.701120144577912,3.3154719002511945,2.724555156277855
94453,,-1.8730066759474029,3.5282306528992518,-8.198158820021838,0.1344894097177469,-0.0226050291047848,-2.599118580058595,-9.73592355400072,-5.492342415132791,-2.933327636576557,-3.953712571712465,-2.263662008808304,-7.289765689903333,-1.1941238863653232,2.033827646058355
94702,,-2.682610202494517,3.8670979805850223,-7.642638320287673,-3.5378116234897545,-2.551200592682892,-5.930427326448258,-9.538940869880111,-2.6674877257966942,-4.158452370269484,-2.1982994107758724,-2.422840962350913,-11.568072267423783,1.830921953460729,4.2083340552211626
94952,,-0.6420518223393215,4.692893589330472,-5.829966487182663,-2.106746233939749,-3.8336163942461736,-5.415596053832765,-8.433615261051829,-3.8292777149447543,-5.359716819819206,-3.4212922094971283,-0.6592959889346851,-10.633113244173924,0.901131505832281,4.084392523088692
95202,,-4.973557649716053,1.1464174583064672,-9.409778326249434,-1.2299796990995595,-3.8609943153923423,-4.834821641641335,-4.934629345691591,-8.209271302132077,-6.822288790390978,-4.385471485624199,-3.687855080738424,-7.362876263209537,-0.8910550024436342,-2.0375943800295198
95452,,-4.049741945497208,3.254301397772359,-8.568324700046778,-1.1391107051823248,-3.977445724612066,-5.492126639527778,-4.6597614951633055,-6.579282308741248,-6.074514424158446,-4.037649343594605,-3.22754117387686,-8.252434296824093,3.1594755938104373,0.3553679262508784
95702,,-4.146729747242281,2.837289808750482,-7.570416957407263,-1.0065488492538297,-1.7798006934203432,-4.166403976697803,-4.274893332374592,-8.207335959275369,-7.345824506756919,-2.013400410071844,-1.0302698222929203,-8.995040557810237,3.5142074883332386,1.639119929937267
95952,,-3.5358635627061688,4.136086884429199,-8.67893293574096,0.8823744291514856,-0.7185385554162291,-2.755738930693536,-2.353171522662162,-5.987955191685906,-4.461104552026384,-4.544282931014607,0.6515804529148841,-5.429867818678864,2.2371853322141866,0.092886120757532
96202,,-0.5474667512623185,3.852839919815807,-8.869519798238551,1.5147583074748707,-2.036516774964773,-3.9548372432805134,-1.1215033526091331,-4.3724625533616415,-3.761256466297139,-4.776057472008119,2.5026781060338434,-6.261350365112436,1.972345496471336,2.2889510484291837
96452,,1.6609097237438744,1.935414240254176,-9.36150788257221,1.5683151203238357,-5.2205962331693945,-3.827311324869288,0.4789664212571372,-5.717584756311518,-2.8997980802883734,-2.601951337232904,3.086316551305935,-5.214629129882891,3.53819154041872,5.357156663321727
96701,,-2.734883227555765,6.202592484650196,-12.31599931191333,2.293340839842633,-4.002795169366406,-3.741476763512979,-1.1589479943627723,-5.557976540156622,-2.676922786471159,-2.376610401241316,0.6653709626097555,-6.234269310954517,5.28210623027904,4.184783405504556
96951,,-1.7155148902375932,5.44367220397981,-10.68855826615628,1.0911055335420516,-5.222868949651044,-3.530465180901688,0.1165934872498067,-5.466091478666507,-0.1244926094637419,-1.3607886785676857,2.093402062082649,-6.656881696329745,2.072580503539837,4.665294593690782
97201,,-2.5609470294242733,1.952208433628224,-10.478181480895936,-0.5985425889480473,-6.36468246101164,-6.5094503315588925,-2.600052343801227,-4.016283988243922,-0.520052999074345,-2.064644101587926,2.466222318710032,-9.081732089439177,0.8552576769252207,4.212903286956408
97451,,-4.150024973184367,0.8069521279354842,-9.704822426352592,-4.354722923120474,-3.157815378745172,-6.058870172112513,-3.49169761448886,-2.7216249359718065,-5.5938746641850345,-6.820892102836428,0.5439643921025328,-4.442750077094494,2.243602515218569,3.926616203417617
97701,,-3.890603689877319,2.542266481378061,-7.041043289143905,-4.060705953742733,0.062997286281642,-5.194593667911457,-2.4132854434171698,-3.323123539679392,-4.693110978133733,-7.867070629160162,1.0407018999074182,-4.701537084208192,5.613766107972491,2.373959665826762
97951,,-0.9019201946800516,5.065011802469703,-7.130033549651192,-1.1431350504171387,0.3047456403715645,-1.2329580703168246,-1.7838507471819176,-1.98552135684945,-0.5619330363247508,-2.8092992489631,1.7833850229804205,-7.308177072859014,7.0327573752159145,4.398324686979124
98201,,-3.90795858912752,3.495819982918926,-8.150912205771618,-1.627530317803788,-3.075732581802109,-2.4165355492905336,-3.3805436549134,-3.111198770014619,-2.5867005997164227,-3.3062617249758404,1.140214535087966,-6.172878512392199,2.8428283625505,-0.194374599456521
98451,,-5.601335130988865,0.2895596353587363,-7.2992967892387375,-2.4955340060620643,-4.974915785037773,-4.674554916144188,-1.031498092001655,-1.8900291672079617,-4.002524028309479,-6.4866961914056285,-1.1701105545246393,-5.567881036567606,1.5402727409642167,1.6850761856857337
98700,,-4.4860623191564,3.205929460896146,-7.4829954979843105,-3.696098317547788,-3.849419246835005,-3.619185283068009,0.8687656972797285,-4.335613645361706,-6.229735984827464,-4.450265090744501,2.922562732493022,-5.136361402002595,-0.5697333616853814,2.089122739829957
98950,,-3.8607407069490174,3.6320407619291233,-6.463633568111257,-3.1725123587563937,-1.2115968201981488,-3.4315698596157573,-2.3823276976138144,-5.404404587363375,-8.548853974028846,-4.354061128140493,3.659585701681825,-7.5838296299647645,-0.7851950024122321,1.7828760507799393
99200,,-0.4386590106976106,3.3534849412022973,-8.937413877467787,-3.99652448109892,2.245000970313363,-3.5008854472870654,-4.666072012816143,-4.71472969123149,-3.232141136784872,-4.635830772284157,1.076629548936829,-6.610487435877616,-2.011025803992192,0.7957316093369827
99450,,1.942049179653198,3.463287309175808,-8.254965592718387,2.342839872876457,-0.03310374472575,-1.8994772193577136,-3.523922509381643,-4.847108569098988,-0.874390139647233,-4.723445296279991,0.5148741197975649,-9.1761733502024,-2.4487768741473666,0.5358719549048442
99700,,0.9973663230441844,4.722985981079908,-4.7490990783932805,2.5841378733921023,-3.054787010825111,-1.751807274546049,-0.6133024849726143,-6.30096973816274,-5.051022033354617,-6.459867112189494,1.947375735391061,-6.861050961798756,1.4967425824705836,4.4897518425838765
99950,,1.1512925590148304,4.331269804773609,-5.416824436082589,-0.943980812847214,-2.1621188244804546,-2.9497143215577686,-1.5084518330450678,-6.216223837133398,-3.631868837351047,-9.538065555016368,5.221983450766005,-4.361146006302629,1.841004364091906,5.584419719884568
100200,,-0.6785080362090437,2.2124223203746904,-6.644832034680187,-3.5023775985342054,-2.0564388280330776,-3.837473102079934,-3.92526471326673,-5.774021284258113,-1.9275345327057736,-8.36966846971057,3.2068637548616925,-6.966399109346285,-2.011026798468384,2.360488328787907
100450,,0.8377985224314205,-0.695602863923135,-8.070355688490697,-3.319449805615356,-5.151047361429681,-5.508078311633011,-1.5004561480975562,-3.0189740206369886,-2.2158479129278263,-6.210479425108493,-0.7339970745462133,-6.471481939482913,0.5503366238800025,3.7336785150150096
100699,,-1.051802977953716,3.591543557837237,-7.504168291587058,-1.893461510553862,-3.591653490715563,-9.767900124790929,0.2415367296839532,-1.858179391334632,-3.961723773600157,-6.065005827755402,-2.3414659013340926,-8.136234149972507,-0.6679052406544018,0.6925046782946719
100949,,-1.2086951139300663,5.087094469959139,-9.036159849354076,-0.2235494418570916,-4.672419460839739,-8.283837682990045,-2.562677759858273,-3.3047772693783988,-4.087455910717618,-8.9873065181693,0.7237452071632339,-10.756468977693691,1.931822681775468,1.6092142609613111
101199,,-3.4604928078037305,3.973754579969596,-11.064772329357018,2.3261132518494056,-0.6818101825927126,-5.339415423318643,-2.8508890645284,-3.5697132481517704,-5.951764930371261,-7.406561341325817,0.3692986211406889,-11.713027062554456,0.3037202524546853,2.0866630552840726
101449,,-4.281813892630416,3.393741913951531,-9.065020600404791,0.3928682492944049,0.0278655526586514,-4.894132764309537,-6.645285243930772,-4.878807349504032,-4.85429392232608,-2.768648189285998,0.5739794061850806,-9.388130776675595,-1.3913523830060084,0.4726824740632302
101699,,-1.3028660253106166,3.5826317836552146,-8.955016844343888,-0.7585995575620321,-2.5718481734989784,-6.692117138212883,-5.608606465824423,-1.2597304606374116,-3.666264479141032,-3.1665260217681035,-0.9916580061160234,-8.519366400911606,-2.1757565223864965,2.566422222402584
101949,,0.2910653786554342,3.380766887339395,-9.645130363630486,0.2064783669828932,-1.409144532894512,-5.300756615871512,-1.8808283672762551,-5.720412284451475,-8.70514289589298,-5.263558457842061,-5.632108317615438,-8.257086729627876,-1.8497388360465528,3.615744166053709
102199,,-2.925975196942873,3.559884774357727,-10.54004025949821,-1.1497694373112295,-4.057397950052918,-4.291840328187386,-3.277920480748226,-8.026712190002248,-9.111073018824166,-8.028982410939822,-1.9947078857525424,-6.534258637831055,0.0772297034860897,-0.1216797611355592
102449,,-4.003525228648503,2.6178926242570983,-5.729758031374007,0.0368111309600026,-4.619262097149429,-4.242200783858276,-5.284830869186986,-5.561071046950143,-6.453429332299388,-8.994752121052105,2.182592716404677,-8.191586538440617,0.2710499151483755,0.3330090329363192
102698,,-6.756915950450601,-0.5548308376306109,-6.419444049670852,-4.337113063360816,-3.5773044525344746,-4.819356592440414,-5.828309294458013,-6.28669751603261,-3.5262930776075,-7.503264643626962,-1.3337968346582365,-8.042189696613839,-2.2917292055360154,0.0166237563024346
102948,,-4.8363638712238455,-2.038231759172341,-13.025843449973918,-4.086927231266646,-3.325492618734294,-3.07291832502211,-3.876390470770087,-5.564357946011855,-6.982868174273326,-7.357347040941534,-6.234284844577972,-9.023726422355177,-3.131792084427352,1.150490997248062
103198,,-5.214244353922087,0.0530567058003703,-13.582302399623954,-0.3743313405970114,-1.7336942521015195,-3.764192532309933,-5.064455843768913,-5.010401452084703,-6.400227342895644,-8.095236143679244,-6.489104758411028,-8.843616576798926,-4.599746941249175,1.3342627070154391
103448,,-5.976884331514629,3.339842855112436,-12.065875743757674,-2.259478877277974,-2.601986012500013,-7.675823127475352,-7.820521284646227,-5.690594363825651,-6.3033550709217225,-7.648390253660315,-7.057786306547882,-9.143637126002304,-3.7517574710620094,2.1186224576189705
103698,,-2.142973407066808,1.4447012770479364,-11.3867692742579,-2.8500043896193654,-5.44403167980421,-3.692320014495776,-5.594640946951689,-1.7986507136290284,-4.829431666638931,-9.467583048467148,-2.538465175144981,-8.111704729719463,-2.807305379009493,3.0324910476430347
103948,,-4.816781357872388,-0.5806766807938242,-11.719354395253305,-1.1447570076444449,-4.04386166130873,-4.333476932019788,-5.266888418202002,-2.602242415252271,-6.443063003519244,-7.737661520688298,0.6999629643463186,-9.016283868468513,-3.3482721985159323,0.5874957304565832
104198,,-7.793813964476335,0.1114058753251031,-10.318631554831049,-1.5382398626897609,-4.05456797262301,-6.505411475794895,-5.9663249117443655,-7.85988750577173,-6.4695379618852105,-5.192599359374784,-2.627034568790587,-9.8081778840991,-1.7712149554768877,-0.3314888087071612
104448,,-4.583432657758176,2.986333343463492,-11.339599556404243,-3.978768477388651,-4.530206603669236,-4.139060783698621,-3.168192146988724,-5.033888919556032,-5.160948863390233,-7.103053799375127,-4.043279151575058,-6.601529937259478,0.0797584600581381,0.7647286143623695
104697,,-1.908292183405842,5.307507087913557,-5.858388306395264,-1.0219570033008036,-3.620660383761548,-3.163989537072476,-2.899371616581274,-3.5511396953816234,-2.482309132651473,-7.74818768380018,-3.935591048187496,-5.487800616717381,4.688145677781087,2.009626470235462
104947,,-3.0365471183017787,2.097781526446076,-4.638737942297036,-1.3151691213450722,-2.582551187559462,-4.477905270204106,-4.512686355707966,-1.942676966099789,-4.402570260257551,-5.984957650058579,-4.085965530354318,-8.400114377311725,3.06519252345902,-0.0166202083594612
105197,,-3.896360671903759,0.0867339830352272,-7.556763061323121,-0.9521796279403606,-5.93289522601548,-4.609674381489912,-3.166797497473462,-2.4661941504490485,-2.763434938938299,-5.518656981650606,-5.301977385823378,-10.004664120415214,-3.665203985509293,-2.7266081590856217
105447,,-3.271715059984187,3.9962247070195502,-7.5735200636394575,-2.964422579557376,-8.209051782571922,-5.806462001558775,-2.48472306841259,-4.823574906078104,-4.157936872439986,-7.46446624609168,-5.565530528708482,-6.076056202980428,-4.113764719994292,0.8904729856733239
105697,,-3.056107840671117,6.922055287628517,-7.297717447404874,-2.319029780185296,-5.287725076061789,-7.3898989040867615,-6.671057008426148,-6.398679330918257,-7.142940324713295,-8.384875851943223,-1.0710820932852658,-9.062508340002411,-4.167388548577463,2.2276583123163083
105947,,-4.494609383978382,6.083996846721988,-6.5929934709318285,-4.6508241715425145,-3.2598636805798558,1.5647504653550022,-4.165707267752061,-5.109064834718684,-5.000734700026726,-8.395029879787717,-1.174758082298364,-8.23971861170058,-2.3585250563219278,0.7438314368721549
106197,,-5.439396082117861,0.62977486952872,-8.902100880397922,-4.715223312702004,-3.4526424500428616,6.755606390186219,-5.589738414996324,-6.6709628474882186,-6.872638667144145,-9.335057760295456,-4.556297648527988,-5.64900759148527,-1.9799092625861945,0.8725117600055438
106447,,-6.444841891561621,0.8308027733641209,-10.37914267873899,-5.290511040789139,-4.274984772421312,6.503158512535634,-8.963210694015695,-5.946398925272786,-9.038868598224845,-8.451818138845567,-4.375300105729228,-8.415781879332801,0.1375739397545734,0.5953433586286051
106696,,-7.620761814959522,2.581089340765384,-13.253214803430602,-3.066556865059864,-3.856600406714791,2.2872346251351705,-8.385552736565186,-7.32016237189279,-6.260616498668759,-6.454325650648281,-5.602919688756421,-9.505910100488164,-2.649517524360718,0.2213900948668097
106946,,-5.067256451074142,4.083634936089087,-8.60458151661093,-3.3123697144578585,-1.7023972038840145,-3.9287008439965927,-6.855103994343952,-7.158138422728585,-5.197530231354241,-7.890200956131265,-5.061384693096689,-8.792146968773881,-5.71814343895824,3.380757622808632
107196,,-3.891208823014453,2.8848846337151013,-4.8643850877088735,-6.759642925499434,-1.976569463221484,-2.695977386021004,-5.665783589878609,-9.14579328939475,-7.282100905263969,-8.837332595104005,-1.532085778121846,-11.510303752048404,-3.8814185961828738,2.8361095064619946
107446,,-5.0460427124113565,1.9289968135140425,-5.524376951636577,-2.957594632028431,-2.7324694104915936,-4.402229278725974,-6.620327738629852,-10.077915286298582,-7.242651149336716,-9.582791274715968,-4.166953544151598,-10.369564117997491,-3.137663619110853,-0.2456943441419898
107696,,-4.0060251216353056,0.3748934193874598,-9.280086306388762,-4.423778429841391,-4.081405479223655,-6.5919834855734125,-4.225800346673433,-11.572458697851488,-11.377108868206316,-6.4534984761690986,-9.172642407569365,-9.70915879174463,-2.9113064776965967,1.728008492248549
107946,,-1.7026295081267446,-0.252726810996712,-6.797385159776472,-7.474069404255403,-3.845938447003333,-5.807672833566024,-2.293158326895608,-7.430372702047831,-5.126761229182971,-5.493704073434522,-7.325347281103619,-7.913516263287552,-4.10622371768022,2.9732003884903486
108196,,-1.758418949426404,-0.6623682211935954,-8.441753016041451,-4.8410796179277495,-5.996357814652037,-7.065993140007121,-3.345671382536741,-5.759207114808572,-4.197074628488115,-4.736581503845289,-2.73549263606944,-9.59282322145409,-2.417923532442729,4.677503779191671
108446,,0.6288416699704148,1.5757692190523434,-8.985822494659754,-4.161461030771445,-4.326627015894,-9.156840608070445,-4.419254108390886,-6.93628117191344,-5.147103914658738,-4.305323529891447,-3.525685783360003,-9.315832829766654,-1.4253280836557016,4.872928860731364
108695,D2,-1.4431616142831702,2.562075453748708,-8.31126649153531,-0.9600902032792472,-4.69222063007654,-9.273399068399284,-7.2661827521119715,-10.605435795424192,-7.1034560838201175,-6.339136421549206,-3.8920709695605327,-9.11836200399648,2.713341601382713,3.266080226899213
108945,,-3.4505122509221664,5.577919039623688,-7.817826007068701,-2.772695142899528,-2.7726280204237623,-5.525536286757689,-3.3029642735118827,-9.90654455740584,-5.510409224454449,-3.655280349852495,-2.848838883968688,-8.230419830073965,0.6128484356540512,3.23591192037932
109195,,-4.0055578739771045,4.555055268025251,-10.467828843367975,-0.6706266242243709,-2.618035146985196,-4.424137466927296,-4.027843037398427,-6.40898706884439,-3.604555166979816,-4.978588697203289,-3.499669141829687,-7.863503786310668,-5.633877675814572,4.5470285469392815
